TITLE;
DATA TYPE;INFRARED SPECTRUM
ORIGIN;JASCO
OWNER;
DATE;25/02/05
TIME;11:44:38
SPECTROMETER/DATA SYSTEM;
LOCALE;9226
RESOLUTION;
DELTAX;0,964233
XUNITS;1/CM
YUNITS;ABSORBANCE
FIRSTX;  399,1927
LASTX; 4000,6047
NPOINTS;    3736
FIRSTY;     0,25508
MAXY;     0,32366
MINY;    -0,00884
XYDATA
399,1927;0,255083
400,1569;0,253165
401,1211;0,25068
402,0854;0,24827
403,0496;0,246242
404,0138;0,244746
404,9781;0,24387
405,9423;0,243625
406,9065;0,243889
407,8708;0,244407
408,8350;0,244888
409,7992;0,245141
410,7635;0,245185
411,7277;0,245248
412,6919;0,245654
413,6562;0,246665
414,6204;0,24841
415,5846;0,250897
416,5489;0,253986
417,5131;0,257227
418,4773;0,259747
419,4416;0,260719
420,4058;0,260169
421,3700;0,258851
422,3343;0,25745
423,2985;0,25629
424,2627;0,255475
425,2270;0,25503
426,1912;0,254927
427,1554;0,255068
428,1197;0,255293
429,0839;0,255449
430,0481;0,255456
431,0124;0,255353
431,9766;0,255264
432,9408;0,255309
433,9051;0,25551
434,8693;0,255765
435,8335;0,255907
436,7978;0,255819
437,7620;0,255506
438,7262;0,255069
439,6905;0,254627
440,6547;0,254249
441,6189;0,25393
442,5832;0,253608
443,5474;0,253187
444,5116;0,252582
445,4759;0,251744
446,4401;0,250688
447,4043;0,249502
448,3686;0,248336
449,3328;0,247365
450,2970;0,246735
451,2613;0,246504
452,2255;0,246623
453,1897;0,246975
454,1540;0,24743
455,1182;0,247859
456,0824;0,248116
457,0467;0,248026
458,0109;0,247463
458,9751;0,246469
459,9394;0,245283
460,9036;0,244201
461,8678;0,24341
462,8321;0,242935
463,7963;0,242667
464,7605;0,242456
465,7248;0,242211
466,6890;0,24197
467,6532;0,241871
468,6175;0,242053
469,5817;0,242551
470,5459;0,243244
471,5102;0,243886
472,4744;0,244223
473,4386;0,24413
474,4029;0,24366
475,3671;0,242973
476,3313;0,24223
477,2956;0,241557
478,2598;0,241057
479,2240;0,240824
480,1883;0,240923
481,1525;0,241352
482,1167;0,242017
483,0810;0,242745
484,0452;0,243349
485,0094;0,243724
485,9737;0,243908
486,9379;0,244055
487,9021;0,244346
488,8664;0,244886
489,8306;0,245653
490,7948;0,2465
491,7591;0,247219
492,7233;0,247644
493,6875;0,247745
494,6518;0,247633
495,6160;0,247499
496,5802;0,247507
497,5445;0,247738
498,5087;0,24818
499,4729;0,24875
500,4372;0,249342
501,4014;0,249862
502,3656;0,250259
503,3299;0,250537
504,2941;0,250741
505,2583;0,250932
506,2226;0,251165
507,1868;0,25147
508,1510;0,251852
509,1153;0,252288
510,0795;0,252747
511,0437;0,253216
512,0080;0,253716
512,9722;0,254302
513,9365;0,255037
514,9007;0,255954
515,8649;0,257012
516,8292;0,258073
517,7934;0,25894
518,7576;0,259442
519,7219;0,259538
520,6861;0,259327
521,6503;0,258972
522,6146;0,258623
523,5788;0,258367
524,5430;0,258225
525,5073;0,258175
526,4715;0,25817
527,4357;0,258161
528,4000;0,258104
529,3642;0,257959
530,3284;0,257688
531,2927;0,257273
532,2569;0,256739
533,2211;0,256153
534,1854;0,255607
535,1496;0,255172
536,1138;0,254864
537,0781;0,254647
538,0423;0,254466
539,0065;0,254286
539,9708;0,254116
540,9350;0,254002
541,8992;0,253991
542,8635;0,254102
543,8277;0,254318
544,7919;0,254591
545,7562;0,254879
546,7204;0,255161
547,6846;0,255445
548,6489;0,255752
549,6131;0,256088
550,5773;0,256443
551,5416;0,256793
552,5058;0,25712
553,4700;0,257419
554,4343;0,25769
555,3985;0,257915
556,3627;0,258037
557,3270;0,257963
558,2912;0,257598
559,2554;0,256879
560,2197;0,255816
561,1839;0,254494
562,1481;0,253053
563,1124;0,251642
564,0766;0,250369
565,0408;0,249277
566,0051;0,24835
566,9693;0,247546
567,9335;0,246836
568,8978;0,246228
569,8620;0,245755
570,8262;0,245443
571,7905;0,245285
572,7547;0,245237
573,7189;0,245238
574,6832;0,245239
575,6474;0,24522
576,6116;0,245188
577,5759;0,245149
578,5401;0,245094
579,5043;0,244989
580,4686;0,244792
581,4328;0,244475
582,3970;0,244048
583,3613;0,243558
584,3255;0,243081
585,2897;0,2427
586,2540;0,242478
587,2182;0,242439
588,1824;0,24255
589,1467;0,242728
590,1109;0,24285
591,0751;0,242797
592,0394;0,242498
593,0036;0,241963
593,9678;0,241277
594,9321;0,240547
595,8963;0,239851
596,8605;0,239206
597,8248;0,238581
598,7890;0,237928
599,7532;0,23722
600,7175;0,236471
601,6817;0,235726
602,6459;0,235035
603,6102;0,234428
604,5744;0,233904
605,5386;0,233431
606,5029;0,232949
607,4671;0,232382
608,4313;0,231651
609,3956;0,230718
610,3598;0,229628
611,3240;0,228531
612,2883;0,227644
613,2525;0,227148
614,2167;0,227071
615,1810;0,227216
616,1452;0,227192
617,1094;0,226579
618,0737;0,225161
619,0379;0,223055
620,0021;0,220639
620,9664;0,218341
621,9306;0,216442
622,8948;0,215012
623,8591;0,213952
624,8233;0,213022
625,7875;0,212222
626,7518;0,211488
627,7160;0,210812
628,6802;0,210187
629,6445;0,209602
630,6087;0,209028
631,5729;0,208454
632,5372;0,207885
633,5014;0,207337
634,4656;0,206826
635,4299;0,206369
636,3941;0,20598
637,3583;0,205679
638,3226;0,205482
639,2868;0,205376
640,2510;0,205319
641,2153;0,205248
642,1795;0,20512
643,1437;0,204938
644,1080;0,204755
645,0722;0,204635
646,0364;0,204611
647,0007;0,20465
647,9649;0,204669
648,9291;0,204575
649,8934;0,204326
650,8576;0,20396
651,8218;0,203576
652,7861;0,20329
653,7503;0,20318
654,7145;0,203249
655,6788;0,203427
656,6430;0,203609
657,6072;0,203707
658,5715;0,203684
659,5357;0,203526
660,4999;0,203185
661,4642;0,202535
662,4284;0,201383
663,3926;0,19955
664,3569;0,197036
665,3211;0,194293
666,2853;0,192365
667,2496;0,192365
668,2138;0,193981
669,1780;0,195316
670,1423;0,195415
671,1065;0,194653
672,0707;0,193297
673,0350;0,191391
673,9992;0,189121
674,9634;0,186828
675,9277;0,184787
676,8919;0,183048
677,8561;0,181471
678,8204;0,17989
679,7846;0,178246
680,7488;0,176579
681,7131;0,174974
682,6773;0,173486
683,6415;0,172132
684,6058;0,170908
685,5700;0,169814
686,5342;0,168841
687,4985;0,167961
688,4627;0,167145
689,4269;0,166344
690,3912;0,165541
691,3554;0,164747
692,3196;0,163978
693,2839;0,163233
694,2481;0,162491
695,2123;0,161727
696,1766;0,160932
697,1408;0,160114
698,1050;0,15929
699,0693;0,158475
700,0335;0,157675
700,9977;0,156889
701,9620;0,156116
702,9262;0,155346
703,8904;0,154543
704,8547;0,1537
705,8189;0,152815
706,7831;0,151904
707,7474;0,150993
708,7116;0,150111
709,6758;0,149264
710,6401;0,148429
711,6043;0,147557
712,5685;0,146616
713,5328;0,145625
714,4970;0,144668
715,4612;0,142378
716,4255;0,142128
717,3897;0,142206
718,3539;0,142355
719,3182;0,14219
720,2824;0,14138
721,2466;0,139845
722,2109;0,137802
723,1751;0,135636
724,1393;0,133694
725,1036;0,132147
726,0678;0,130975
727,0320;0,130037
727,9963;0,129174
728,9605;0,128286
729,9247;0,127355
730,8890;0,12642
731,8532;0,125528
732,8174;0,124708
733,7817;0,123959
734,7459;0,123265
735,7101;0,122613
736,6744;0,121997
737,6386;0,12142
738,6028;0,120885
739,5671;0,120381
740,5313;0,119881
741,4955;0,119347
742,4598;0,118746
743,4240;0,118062
744,3882;0,117307
745,3525;0,116508
746,3167;0,115698
747,2809;0,114905
748,2452;0,114142
749,2094;0,113414
750,1736;0,112715
751,1379;0,112034
752,1021;0,111357
753,0663;0,110674
754,0306;0,109983
754,9948;0,109289
755,9590;0,108605
756,9233;0,107948
757,8875;0,107327
758,8517;0,106744
759,8160;0,106195
760,7802;0,105668
761,7444;0,105149
762,7087;0,104628
763,6729;0,104099
764,6371;0,103566
765,6014;0,103042
766,5656;0,102547
767,5298;0,102089
768,4941;0,101666
769,4583;0,101259
770,4225;0,100843
771,3868;0,100404
772,3510;0,0999428
773,3152;0,0994779
774,2795;0,0990349
775,2437;0,0986327
776,2079;0,0982753
777,1722;0,097951
778,1364;0,097637
779,1006;0,0973051
780,0649;0,0969275
781,0291;0,0964815
781,9933;0,095956
782,9576;0,0953581
783,9218;0,0947147
784,8860;0,0940676
785,8503;0,0934599
786,8145;0,092922
787,7787;0,0924628
788,7430;0,092072
789,7072;0,0917296
790,6714;0,0914174
791,6357;0,091125
792,5999;0,0908488
793,5641;0,0905868
794,5284;0,0903345
795,4926;0,0900859
796,4568;0,0898378
797,4211;0,0895926
798,3853;0,0893584
799,3495;0,0891438
800,3138;0,0889529
801,2780;0,0887825
802,2422;0,0886235
803,2065;0,0884637
804,1707;0,0882901
805,1349;0,0880905
806,0992;0,0878564
807,0634;0,0875875
808,0276;0,0872953
808,9919;0,0870024
809,9561;0,086734
810,9203;0,0865053
811,8846;0,0863129
812,8488;0,0861361
813,8130;0,0859488
814,7773;0,0857338
815,7415;0,0854911
816,7057;0,0852357
817,6700;0,0849869
818,6342;0,0847588
819,5984;0,0845553
820,5627;0,0843736
821,5269;0,0842098
822,4911;0,084063
823,4554;0,0839366
824,4196;0,0838351
825,3839;0,0837607
826,3481;0,0837099
827,3123;0,0836721
828,2766;0,0836304
829,2408;0,0835662
830,2050;0,0834647
831,1693;0,0833186
832,1335;0,083128
833,0977;0,0828965
834,0620;0,0826262
835,0262;0,0823166
835,9904;0,0819669
836,9547;0,0815804
837,9189;0,0811666
838,8831;0,0807405
839,8474;0,0803187
840,8116;0,0799166
841,7758;0,0795468
842,7401;0,0792193
843,7043;0,0789409
844,6685;0,0787138
845,6328;0,0785343
846,5970;0,0783935
847,5612;0,0782795
848,5255;0,0781806
849,4897;0,0780881
850,4539;0,0779962
851,4182;0,077902
852,3824;0,0778042
853,3466;0,0777017
854,3109;0,0775929
855,2751;0,0774754
856,2393;0,0773469
857,2036;0,0772085
858,1678;0,0770665
859,1320;0,076933
860,0963;0,0768225
861,0605;0,0767465
862,0247;0,0767088
862,9890;0,0767057
863,9532;0,0767291
864,9174;0,0767727
865,8817;0,0768353
866,8459;0,076921
867,8101;0,0770363
868,7744;0,0771852
869,7386;0,0773659
870,7028;0,0775688
871,6671;0,0777778
872,6313;0,0779737
873,5955;0,078139
874,5598;0,0782625
875,5240;0,078343
876,4882;0,0783903
877,4525;0,078424
878,4167;0,0784713
879,3809;0,0785628
880,3452;0,0787286
881,3094;0,0789938
882,2736;0,0793746
883,2379;0,0798771
884,2021;0,0804987
885,1663;0,0812333
886,1306;0,0820751
887,0948;0,0830193
888,0590;0,0840589
889,0233;0,0851792
889,9875;0,0863534
890,9517;0,0875441
891,9160;0,0887081
892,8802;0,0898034
893,8444;0,0907918
894,8087;0,0916393
895,7729;0,0923124
896,7371;0,0927773
897,7014;0,0930043
898,6656;0,0929754
899,6298;0,0926939
900,5941;0,0921875
901,5583;0,0915052
902,5225;0,0907062
903,4868;0,0898485
904,4510;0,088982
905,4152;0,0881467
906,3795;0,0873775
907,3437;0,086706
908,3079;0,0861595
909,2722;0,0857543
910,2364;0,0854906
911,2007;0,0853539
912,1649;0,0853231
913,1292;0,0853809
914,0934;0,0855207
915,0576;0,0857434
916,0219;0,0860484
916,9861;0,0864246
917,9503;0,0868506
918,9146;0,0873018
919,8788;0,0877618
920,8430;0,088226
921,8073;0,0886958
922,7715;0,0891659
923,7357;0,0896163
924,7000;0,0900149
925,6642;0,0903313
926,6284;0,0905533
927,5927;0,0906947
928,5569;0,0907899
929,5211;0,0908782
930,4854;0,0909893
931,4496;0,091136
932,4138;0,0913178
933,3781;0,0915306
934,3423;0,0917751
935,3065;0,0920589
936,2708;0,0923938
937,2350;0,0927914
938,1992;0,0932599
939,1635;0,0938039
940,1277;0,094425
941,0919;0,0951235
942,0562;0,0958992
943,0204;0,0967536
943,9846;0,097691
944,9489;0,0987185
945,9131;0,0998423
946,8773;0,101063
947,8416;0,102375
948,8058;0,103765
949,7700;0,105223
950,7343;0,106751
951,6985;0,108366
952,6627;0,110091
953,6270;0,111948
954,5912;0,113941
955,5554;0,116059
956,5197;0,118275
957,4839;0,120564
958,4481;0,122909
959,4124;0,125303
960,3766;0,127745
961,3408;0,130233
962,3051;0,132757
963,2693;0,135309
964,2335;0,137881
965,1978;0,140476
966,1620;0,143108
967,1262;0,145801
968,0905;0,148588
969,0547;0,151505
970,0189;0,154593
970,9832;0,157893
971,9474;0,161443
972,9116;0,165275
973,8759;0,169408
974,8401;0,173856
975,8043;0,178619
976,7686;0,183688
977,7328;0,189039
978,6970;0,194618
979,6613;0,200338
980,6255;0,206072
981,5897;0,211662
982,5540;0,216939
983,5182;0,221762
984,4824;0,226038
985,4467;0,229747
986,4109;0,232929
987,3751;0,235665
988,3394;0,238043
989,3036;0,240132
990,2678;0,241976
991,2321;0,243599
992,1963;0,245022
993,1605;0,246278
994,1248;0,247411
995,0890;0,248471
996,0532;0,249498
997,0175;0,25051
997,9817;0,251507
998,9459;0,252482
999,9102;0,253431
1000,8744;0,254371
1001,8386;0,255338
1002,8029;0,256389
1003,7671;0,25759
1004,7313;0,25901
1005,6956;0,260713
1006,6598;0,26275
1007,6240;0,265159
1008,5883;0,26795
1009,5525;0,271111
1010,5167;0,274597
1011,4810;0,278338
1012,4452;0,28224
1013,4094;0,286197
1014,3737;0,2901
1015,3379;0,293856
1016,3021;0,297396
1017,2664;0,300679
1018,2306;0,303694
1019,1948;0,306444
1020,1591;0,308946
1021,1233;0,31122
1022,0875;0,313286
1023,0518;0,31517
1024,0160;0,316896
1024,9802;0,318479
1025,9445;0,319922
1026,9087;0,321208
1027,8729;0,322294
1028,8372;0,323119
1029,8014;0,323603
1030,7656;0,323659
1031,7299;0,3232
1032,6941;0,322161
1033,6583;0,320519
1034,6226;0,318317
1035,5868;0,31567
1036,5510;0,312757
1037,5153;0,309794
1038,4795;0,306995
1039,4437;0,304535
1040,4080;0,302523
1041,3722;0,300989
1042,3364;0,299886
1043,3007;0,29911
1044,2649;0,298518
1045,2291;0,297961
1046,1934;0,29731
1047,1576;0,296472
1048,1218;0,295392
1049,0861;0,294047
1050,0503;0,292424
1051,0145;0,290507
1051,9788;0,288281
1052,9430;0,285739
1053,9072;0,282894
1054,8715;0,279778
1055,8357;0,276415
1056,7999;0,272805
1057,7642;0,26891
1058,7284;0,264671
1059,6926;0,260049
1060,6569;0,255068
1061,6211;0,249838
1062,5853;0,244536
1063,5496;0,239358
1064,5138;0,234473
1065,4780;0,229983
1066,4423;0,225916
1067,4065;0,222248
1068,3707;0,218923
1069,3350;0,215879
1070,2992;0,213052
1071,2634;0,210374
1072,2277;0,207773
1073,1919;0,205172
1074,1561;0,2025
1075,1204;0,199712
1076,0846;0,196797
1077,0488;0,193788
1078,0131;0,190752
1078,9773;0,18778
1079,9415;0,18496
1080,9058;0,182363
1081,8700;0,18003
1082,8342;0,177972
1083,7985;0,176173
1084,7627;0,174604
1085,7269;0,173233
1086,6912;0,172029
1087,6554;0,170977
1088,6196;0,17007
1089,5839;0,169319
1090,5481;0,168741
1091,5123;0,168348
1092,4766;0,168144
1093,4408;0,168111
1094,4050;0,168222
1095,3693;0,168445
1096,3335;0,168753
1097,2977;0,169129
1098,2620;0,169562
1099,2262;0,170035
1100,1904;0,170519
1101,1547;0,170969
1102,1189;0,171335
1103,0831;0,171571
1104,0474;0,171642
1105,0116;0,171535
1105,9758;0,171253
1106,9401;0,170812
1107,9043;0,17023
1108,8685;0,169511
1109,8328;0,168637
1110,7970;0,167573
1111,7612;0,166283
1112,7255;0,164756
1113,6897;0,163025
1114,6539;0,161175
1115,6182;0,159319
1116,5824;0,157565
1117,5466;0,15598
1118,5109;0,154568
1119,4751;0,153275
1120,4393;0,152001
1121,4036;0,150636
1122,3678;0,14908
1123,3320;0,147261
1124,2963;0,14514
1125,2605;0,142714
1126,2247;0,140014
1127,1890;0,137095
1128,1532;0,134029
1129,1174;0,130889
1130,0817;0,127743
1131,0459;0,124644
1132,0101;0,121634
1132,9744;0,118754
1133,9386;0,116045
1134,9028;0,113557
1135,8671;0,111339
1136,8313;0,109431
1137,7955;0,107853
1138,7598;0,106604
1139,7240;0,105661
1140,6882;0,104991
1141,6525;0,104556
1142,6167;0,104319
1143,5809;0,104249
1144,5452;0,104323
1145,5094;0,104525
1146,4736;0,104846
1147,4379;0,10528
1148,4021;0,105824
1149,3663;0,106465
1150,3306;0,107183
1151,2948;0,107948
1152,2590;0,108717
1153,2233;0,10944
1154,1875;0,110063
1155,1517;0,110531
1156,1160;0,110787
1157,0802;0,110771
1158,0444;0,110417
1159,0087;0,109655
1159,9729;0,108414
1160,9371;0,106635
1161,9014;0,104288
1162,8656;0,101386
1163,8298;0,0979946
1164,7941;0,0942298
1165,7583;0,0902437
1166,7225;0,0862021
1167,6868;0,0822587
1168,6510;0,0785353
1169,6152;0,0751093
1170,5795;0,0720135
1171,5437;0,0692461
1172,5079;0,066787
1173,4722;0,064613
1174,4364;0,0627073
1175,4006;0,0610592
1176,3649;0,0596581
1177,3291;0,0584863
1178,2933;0,0575172
1179,2576;0,0567186
1180,2218;0,0560602
1181,1860;0,05552
1182,1503;0,0550865
1183,1145;0,0547555
1184,0787;0,0545248
1185,0430;0,0543911
1186,0072;0,0543494
1186,9714;0,0543957
1187,9357;0,0545299
1188,8999;0,0547572
1189,8641;0,0550863
1190,8284;0,0555261
1191,7926;0,0560828
1192,7568;0,0567573
1193,7211;0,0575451
1194,6853;0,0584366
1195,6495;0,0594175
1196,6138;0,0604692
1197,5780;0,0615688
1198,5422;0,0626922
1199,5065;0,0635071
1200,4707;0,0646555
1201,4349;0,0657853
1202,3992;0,0668956
1203,3634;0,0679887
1204,3276;0,069065
1205,2919;0,0701212
1206,2561;0,0711528
1207,2203;0,072161
1208,1846;0,0731588
1209,1488;0,0741724
1210,1130;0,0752354
1211,0773;0,0763777
1212,0415;0,077616
1213,0057;0,0789481
1213,9700;0,0803562
1214,9342;0,0818136
1215,8984;0,0832935
1216,8627;0,0847711
1217,8269;0,0862243
1218,7911;0,0876372
1219,7554;0,088997
1220,7196;0,090294
1221,6838;0,09152
1222,6481;0,0926682
1223,6123;0,0937327
1224,5765;0,0947106
1225,5408;0,095604
1226,5050;0,0964199
1227,4692;0,097168
1228,4335;0,0978558
1229,3977;0,098484
1230,3619;0,099046
1231,3262;0,0995316
1232,2904;0,0999338
1233,2546;0,100254
1234,2189;0,100501
1235,1831;0,100694
1236,1473;0,100851
1237,1116;0,100985
1238,0758;0,101102
1239,0400;0,1012
1240,0043;0,10127
1240,9685;0,101302
1241,9327;0,101285
1242,8970;0,10121
1243,8612;0,101073
1244,8254;0,100869
1245,7897;0,100599
1246,7539;0,100264
1247,7181;0,0998739
1248,6824;0,0994405
1249,6466;0,0989803
1250,6108;0,0985089
1251,5751;0,098038
1252,5393;0,0975749
1253,5035;0,0971239
1254,4678;0,0966878
1255,4320;0,0962665
1256,3962;0,0958533
1257,3605;0,0954323
1258,3247;0,0949803
1259,2889;0,0944735
1260,2532;0,0938955
1261,2174;0,0932429
1262,1816;0,092523
1263,1459;0,0917471
1264,1101;0,0909232
1265,0743;0,0900542
1266,0386;0,0891382
1267,0028;0,0881709
1267,9670;0,0871463
1268,9313;0,0860577
1269,8955;0,0848992
1270,8597;0,0836698
1271,8240;0,0823775
1272,7882;0,0810416
1273,7524;0,0796909
1274,7167;0,0783582
1275,6809;0,0770736
1276,6451;0,0758576
1277,6094;0,0747163
1278,5736;0,0736404
1279,5378;0,0726097
1280,5021;0,0716042
1281,4663;0,0706153
1282,4305;0,0696509
1283,3948;0,068732
1284,3590;0,0678821
1285,3232;0,067116
1286,2875;0,0664347
1287,2517;0,0658283
1288,2159;0,0652841
1289,1802;0,0647951
1290,1444;0,0643643
1291,1086;0,0640027
1292,0729;0,0637249
1293,0371;0,0635444
1294,0013;0,0634711
1294,9656;0,0635096
1295,9298;0,0636594
1296,8940;0,0639157
1297,8583;0,0642719
1298,8225;0,0647214
1299,7867;0,0652586
1300,7510;0,0658778
1301,7152;0,0665762
1302,6794;0,0673481
1303,6437;0,0681862
1304,6079;0,0690856
1305,5721;0,0700421
1306,5364;0,0710529
1307,5006;0,0721162
1308,4648;0,0732296
1309,4291;0,0743858
1310,3933;0,0755677
1311,3575;0,0767441
1312,3218;0,0778717
1313,2860;0,0789034
1314,2502;0,0797981
1315,2145;0,0805225
1316,1787;0,0810468
1317,1429;0,0813408
1318,1072;0,0813837
1319,0714;0,081184
1320,0356;0,0807938
1320,9999;0,0802995
1321,9641;0,0797901
1322,9283;0,0793285
1323,8926;0,0789408
1324,8568;0,0786241
1325,8210;0,0783608
1326,7853;0,0781319
1327,7495;0,077921
1328,7137;0,0777137
1329,6780;0,0774926
1330,6422;0,0772404
1331,6064;0,076947
1332,5707;0,0766156
1333,5349;0,0762665
1334,4991;0,075923
1335,4634;0,075591
1336,4276;0,075238
1337,3918;0,0747823
1338,3561;0,0741193
1339,3203;0,0731972
1340,2845;0,0720856
1341,2488;0,070947
1342,2130;0,0699328
1343,1772;0,0691165
1344,1415;0,0685021
1345,1057;0,0680633
1346,0699;0,0677713
1347,0342;0,0676037
1347,9984;0,0675489
1348,9626;0,0676044
1349,9269;0,0677724
1350,8911;0,0680512
1351,8553;0,0684312
1352,8196;0,068896
1353,7838;0,069428
1354,7480;0,0700137
1355,7123;0,0706477
1356,6765;0,0713322
1357,6407;0,0720749
1358,6050;0,072887
1359,5692;0,0737744
1360,5334;0,0747101
1361,4977;0,0756109
1362,4619;0,0763732
1363,4261;0,0769608
1364,3904;0,077431
1365,3546;0,0778643
1366,3188;0,0782972
1367,2831;0,0787167
1368,2473;0,0790871
1369,2115;0,0793772
1370,1758;0,0795749
1371,1400;0,079683
1372,1042;0,0796975
1373,0685;0,0795866
1374,0327;0,0792999
1374,9969;0,078812
1375,9612;0,0781486
1376,9254;0,0773491
1377,8896;0,0764195
1378,8539;0,0753428
1379,8181;0,0741287
1380,7823;0,0728411
1381,7466;0,0715734
1382,7108;0,0703892
1383,6750;0,0692877
1384,6393;0,0682202
1385,6035;0,0671333
1386,5677;0,0660208
1387,5320;0,0649618
1388,4962;0,0640869
1389,4604;0,0634688
1390,4247;0,063072
1391,3889;0,0628195
1392,3531;0,0626761
1393,3174;0,0626561
1394,2816;0,0627645
1395,2458;0,0629447
1396,2101;0,0630986
1397,1743;0,0631619
1398,1385;0,0631529
1399,1028;0,0631549
1400,0670;0,0632543
1401,0313;0,0634895
1401,9955;0,0638445
1402,9597;0,0642775
1403,9240;0,0647533
1404,8882;0,06526
1405,8524;0,0658102
1406,8167;0,0664279
1407,7809;0,0671247
1408,7451;0,0678951
1409,7094;0,0687335
1410,6736;0,0696467
1411,6378;0,0706381
1412,6021;0,0716831
1413,5663;0,0727216
1414,5305;0,0736842
1415,4948;0,0745313
1416,4590;0,0752605
1417,4232;0,075863
1418,3875;0,0763069
1419,3517;0,0766202
1420,3159;0,0769091
1421,2802;0,0771995
1422,2444;0,0773655
1423,2086;0,077246
1424,1729;0,0767758
1425,1371;0,0760133
1426,1013;0,0750726
1427,0656;0,0740348
1428,0298;0,0729146
1428,9940;0,0717011
1429,9583;0,0704195
1430,9225;0,0691369
1431,8867;0,0678895
1432,8510;0,0666267
1433,8152;0,0652519
1434,7794;0,0637148
1435,7437;0,0620929
1436,7079;0,0606354
1437,6721;0,0596635
1438,6364;0,0593108
1439,6006;0,0594162
1440,5648;0,0597106
1441,5291;0,0600251
1442,4933;0,0603424
1443,4575;0,0607324
1444,4218;0,0612607
1445,3860;0,0619362
1446,3502;0,0627165
1447,3145;0,0635502
1448,2787;0,0644148
1449,2429;0,0653126
1450,2072;0,0662193
1451,1714;0,0670401
1452,1356;0,0676405
1453,0999;0,0679413
1454,0641;0,0680038
1455,0283;0,0680038
1455,9926;0,067994
1456,9568;0,0677264
1457,9210;0,0671852
1458,8853;0,0668669
1459,8495;0,066962
1460,8137;0,0671604
1461,7780;0,0671048
1462,7422;0,0666139
1463,7064;0,0656587
1464,6707;0,0643234
1465,6349;0,0628145
1466,5991;0,0613498
1467,5634;0,0599567
1468,5276;0,0584717
1469,4918;0,0567122
1470,4561;0,0545849
1471,4203;0,0520656
1472,3845;0,0491794
1473,3488;0,0461349
1474,3130;0,0433668
1475,2772;0,0411947
1476,2415;0,0395995
1477,2057;0,0383908
1478,1699;0,0374055
1479,1342;0,0365583
1480,0984;0,0358181
1481,0626;0,035187
1482,0269;0,0346916
1482,9911;0,0343685
1483,9553;0,034243
1484,9196;0,0343246
1485,8838;0,0346237
1486,8480;0,0351403
1487,8123;0,0357826
1488,7765;0,0363263
1489,7407;0,0366257
1490,7050;0,0368298
1491,6692;0,0371682
1492,6334;0,0377011
1493,5977;0,0383939
1494,5619;0,0392727
1495,5261;0,0404451
1496,4904;0,0419735
1497,4546;0,0437544
1498,4188;0,0455985
1499,3831;0,0473721
1500,3473;0,0489485
1501,3115;0,0501504
1502,2758;0,0508438
1503,2400;0,051088
1504,2042;0,051246
1505,1685;0,0518995
1506,1327;0,0532314
1507,0969;0,0543091
1508,0612;0,0542769
1509,0254;0,0536546
1509,9896;0,0530435
1510,9539;0,0524717
1511,9181;0,0518153
1512,8823;0,0510422
1513,8466;0,0501903
1514,8108;0,0492779
1515,7750;0,0482638
1516,7393;0,0470922
1517,7035;0,0457598
1518,6677;0,044333
1519,6320;0,0429153
1520,5962;0,0416154
1521,5604;0,0405343
1522,5247;0,0397354
1523,4889;0,0391913
1524,4531;0,0387903
1525,4174;0,0384261
1526,3816;0,0380775
1527,3458;0,0377937
1528,3101;0,0376169
1529,2743;0,0375426
1530,2385;0,0375628
1531,2028;0,037717
1532,1670;0,0380583
1533,1312;0,0385579
1534,0955;0,0390785
1535,0597;0,0394516
1536,0239;0,0395677
1536,9882;0,0394743
1537,9524;0,0394749
1538,9166;0,0400473
1539,8809;0,0412802
1540,8451;0,0423117
1541,8093;0,0423913
1542,7736;0,0419383
1543,7378;0,0415111
1544,7020;0,0412365
1545,6663;0,0410916
1546,6305;0,0410647
1547,5947;0,0411338
1548,5590;0,0412427
1549,5232;0,0413299
1550,4874;0,0413728
1551,4517;0,041395
1552,4159;0,0414183
1553,3801;0,0414017
1554,3444;0,0412469
1555,3086;0,0408891
1556,2728;0,0403754
1557,2371;0,0397507
1558,2013;0,0388447
1559,1655;0,0378413
1560,1298;0,0377094
1561,0940;0,0387526
1562,0582;0,0403299
1563,0225;0,0417868
1563,9867;0,0428235
1564,9509;0,043429
1565,9152;0,0437542
1566,8794;0,044009
1567,8436;0,0443709
1568,8079;0,044915
1569,7721;0,0456136
1570,7363;0,0463816
1571,7006;0,0471111
1572,6648;0,0477307
1573,6290;0,0482862
1574,5933;0,0489387
1575,5575;0,0498107
1576,5217;0,0508421
1577,4860;0,0519115
1578,4502;0,0529875
1579,4144;0,0540495
1580,3787;0,0550522
1581,3429;0,0559922
1582,3071;0,0569238
1583,2714;0,0579141
1584,2356;0,0589971
1585,1998;0,0601685
1586,1641;0,0614003
1587,1283;0,0626511
1588,0925;0,0638684
1589,0568;0,0649927
1590,0210;0,0659693
1590,9852;0,0667578
1591,9495;0,0673265
1592,9137;0,0676427
1593,8779;0,0676775
1594,8422;0,0674303
1595,8064;0,0669518
1596,7706;0,066336
1597,7349;0,0656834
1598,6991;0,0650636
1599,6633;0,0645017
1600,6276;0,063988
1601,5918;0,0635022
1602,5560;0,0630372
1603,5203;0,0626067
1604,4845;0,0622293
1605,4487;0,0619055
1606,4130;0,0616121
1607,3772;0,0613201
1608,3414;0,0610239
1609,3057;0,0607547
1610,2699;0,0605522
1611,2341;0,0604097
1612,1984;0,0602662
1613,1626;0,060072
1614,1268;0,0598579
1615,0911;0,0597247
1616,0553;0,0597607
1617,0195;0,0600096
1617,9838;0,0604818
1618,9480;0,0610993
1619,9122;0,061704
1620,8765;0,0621785
1621,8407;0,0625117
1622,8049;0,0627562
1623,7692;0,0629632
1624,7334;0,0631672
1625,6976;0,0633912
1626,6619;0,0636481
1627,6261;0,063945
1628,5903;0,0642739
1629,5546;0,0645851
1630,5188;0,0647832
1631,4830;0,0647864
1632,4473;0,0646229
1633,4115;0,064481
1634,3757;0,0645877
1635,3400;0,0649306
1636,3042;0,0652673
1637,2684;0,0655412
1638,2327;0,0658648
1639,1969;0,0662205
1640,1611;0,0664846
1641,1254;0,0665614
1642,0896;0,0664409
1643,0538;0,0662158
1644,0181;0,0660729
1644,9823;0,0661816
1645,9465;0,066481
1646,9108;0,0666722
1647,8750;0,0665267
1648,8392;0,0659696
1649,8035;0,0649514
1650,7677;0,0634997
1651,7319;0,0617819
1652,6962;0,059986
1653,6604;0,0584244
1654,6246;0,0577053
1655,5889;0,0579106
1656,5531;0,0584054
1657,5173;0,0585898
1658,4816;0,0582319
1659,4458;0,0573896
1660,4100;0,0562473
1661,3743;0,0549878
1662,3385;0,053762
1663,3027;0,0527052
1664,2670;0,0518748
1665,2312;0,0511975
1666,1954;0,0505378
1667,1597;0,0497887
1668,1239;0,0488868
1669,0881;0,0478012
1670,0524;0,0465809
1671,0166;0,045352
1671,9808;0,0441693
1672,9451;0,0429615
1673,9093;0,041678
1674,8735;0,040436
1675,8378;0,0394982
1676,8020;0,0390611
1677,7662;0,0390473
1678,7305;0,0391388
1679,6947;0,0389911
1680,6589;0,0383998
1681,6232;0,0373234
1682,5874;0,0358051
1683,5516;0,0339894
1684,5159;0,0323318
1685,4801;0,0313768
1686,4443;0,0311406
1687,4086;0,0311866
1688,3728;0,0310995
1689,3370;0,0306987
1690,3013;0,0300079
1691,2655;0,0291561
1692,2297;0,0283005
1693,1940;0,0275895
1694,1582;0,0271336
1695,1224;0,0269436
1696,0867;0,0268627
1697,0509;0,0265974
1698,0151;0,025925
1698,9794;0,0249567
1699,9436;0,0241529
1700,9078;0,0239645
1701,8721;0,0244642
1702,8363;0,0253581
1703,8005;0,0262595
1704,7648;0,0269112
1705,7290;0,0272656
1706,6932;0,0274567
1707,6575;0,0276893
1708,6217;0,0280985
1709,5859;0,0286865
1710,5502;0,0293719
1711,5144;0,0300712
1712,4786;0,0307435
1713,4429;0,031391
1714,4071;0,0320176
1715,3713;0,0325433
1716,3356;0,0327767
1717,2998;0,0326717
1718,2640;0,0325803
1719,2283;0,0328906
1720,1925;0,0336118
1721,1567;0,0344981
1722,1210;0,0353184
1723,0852;0,0359708
1724,0494;0,036479
1725,0137;0,0369469
1725,9779;0,0374911
1726,9421;0,038168
1727,9064;0,0389319
1728,8706;0,0396518
1729,8348;0,040174
1730,7991;0,040385
1731,7633;0,0402379
1732,7275;0,0397649
1733,6918;0,0391449
1734,6560;0,0386989
1735,6202;0,0386102
1736,5845;0,0387334
1737,5487;0,0387794
1738,5129;0,0385633
1739,4772;0,0380846
1740,4414;0,0374732
1741,4056;0,036875
1742,3699;0,0363515
1743,3341;0,0358567
1744,2983;0,0352951
1745,2626;0,0345881
1746,2268;0,0336805
1747,1910;0,0324935
1748,1553;0,0308982
1749,1195;0,0288181
1750,0837;0,0264286
1751,0480;0,0241506
1752,0122;0,0223276
1752,9764;0,0209897
1753,9407;0,0199424
1754,9049;0,0189701
1755,8691;0,0179586
1756,8334;0,016907
1757,7976;0,0158664
1758,7618;0,0148646
1759,7261;0,0138788
1760,6903;0,0128764
1761,6545;0,0118795
1762,6188;0,0109764
1763,5830;0,0102531
1764,5472;0,00972008
1765,5115;0,00931341
1766,4757;0,00895605
1767,4399;0,00860834
1768,4042;0,00827162
1769,3684;0,00795252
1770,3326;0,00762041
1771,2969;0,0072126
1772,2611;0,00672223
1773,2253;0,00626909
1774,1896;0,0060022
1775,1538;0,00594508
1776,1180;0,00599322
1777,0823;0,0060228
1778,0465;0,00596808
1779,0107;0,00582482
1779,9750;0,00561516
1780,9392;0,00535869
1781,9034;0,00506897
1782,8677;0,00476884
1783,8319;0,00450485
1784,7961;0,00433833
1785,7604;0,00430803
1786,7246;0,00439538
1787,6888;0,00453245
1788,6531;0,00465125
1789,6173;0,0047254
1790,5815;0,00476089
1791,5458;0,00475718
1792,5100;0,00471895
1793,4742;0,00469894
1794,4385;0,00474691
1795,4027;0,00483161
1796,3669;0,00487219
1797,3312;0,00481751
1798,2954;0,00467448
1799,2596;0,00448066
1800,2239;0,00426879
1801,1881;0,0040607
1802,1523;0,00387896
1803,1166;0,00374678
1804,0808;0,00367858
1805,0450;0,0036769
1806,0093;0,0037345
1806,9735;0,00383379
1807,9377;0,00394305
1808,9020;0,0040166
1809,8662;0,00400954
1810,8304;0,00390514
1811,7947;0,00372901
1812,7589;0,00352873
1813,7231;0,0033409
1814,6874;0,00318092
1815,6516;0,0030549
1816,6158;0,0029709
1817,5801;0,00293866
1818,5443;0,00296275
1819,5085;0,00303582
1820,4728;0,00313822
1821,4370;0,00324662
1822,4012;0,00334443
1823,3655;0,00342512
1824,3297;0,00349025
1825,2939;0,00354528
1826,2582;0,0035894
1827,2224;0,00360315
1828,1866;0,00354895
1829,1509;0,00339695
1830,1151;0,00316927
1831,0793;0,00295282
1832,0436;0,00283641
1833,0078;0,00283716
1833,9720;0,00290441
1834,9363;0,00297701
1835,9005;0,00302288
1836,8647;0,00304258
1837,8290;0,00305077
1838,7932;0,0030528
1839,7574;0,00303664
1840,7217;0,00299375
1841,6859;0,00294391
1842,6501;0,0029236
1843,6144;0,00294446
1844,5786;0,00298436
1845,5428;0,0030228
1846,5071;0,00304598
1847,4713;0,00302334
1848,4355;0,00292222
1849,3998;0,00274439
1850,3640;0,00253474
1851,3282;0,00235526
1852,2925;0,00224907
1853,2567;0,00222409
1854,2209;0,00226211
1855,1852;0,00233805
1856,1494;0,00243027
1857,1136;0,0025206
1858,0779;0,00258961
1859,0421;0,00262118
1860,0063;0,00261531
1860,9706;0,00259669
1861,9348;0,00260635
1862,8990;0,00268046
1863,8633;0,00283359
1864,8275;0,00305718
1865,7917;0,00331931
1866,7560;0,00355042
1867,7202;0,00364099
1868,6844;0,00350718
1869,6487;0,00318501
1870,6129;0,00281021
1871,5771;0,00249718
1872,5414;0,00227916
1873,5056;0,002141
1874,4698;0,00206347
1875,4341;0,0020341
1876,3983;0,00204087
1877,3625;0,00206791
1878,3268;0,00210216
1879,2910;0,00213797
1880,2552;0,00217689
1881,2195;0,0022222
1882,1837;0,00227356
1883,1479;0,00232641
1884,1122;0,00237602
1885,0764;0,002422
1886,0406;0,00246829
1887,0049;0,00251668
1887,9691;0,00255782
1888,9333;0,00257181
1889,8976;0,00254503
1890,8618;0,00248628
1891,8260;0,00242122
1892,7903;0,0023723
1893,7545;0,00234543
1894,7188;0,00232941
1895,6830;0,00230556
1896,6472;0,00226295
1897,6115;0,00220886
1898,5757;0,0021641
1899,5399;0,0021472
1900,5042;0,00216112
1901,4684;0,00219087
1902,4326;0,00221387
1903,3969;0,00221743
1904,3611;0,00221098
1905,3253;0,00222198
1906,2896;0,00227696
1907,2538;0,00237887
1908,2180;0,00249566
1909,1823;0,00257268
1910,1465;0,00256677
1911,1107;0,00247581
1912,0750;0,00233673
1913,0392;0,00219898
1914,0034;0,00210191
1914,9677;0,00206676
1915,9319;0,00209553
1916,8961;0,00217382
1917,8604;0,00228286
1918,8246;0,0024117
1919,7888;0,00255178
1920,7531;0,00267963
1921,7173;0,00275198
1922,6815;0,0027235
1923,6458;0,0025766
1924,6100;0,00234126
1925,5742;0,00208416
1926,5385;0,0018733
1927,5027;0,00174849
1928,4669;0,00171511
1929,4312;0,0017525
1930,3954;0,00182733
1931,3596;0,00190642
1932,3239;0,00196214
1933,2881;0,0019739
1934,2523;0,00193035
1935,2166;0,00183563
1936,1808;0,0017153
1937,1450;0,00161362
1938,1093;0,00158021
1939,0735;0,00165218
1940,0377;0,00183653
1941,0020;0,00209632
1941,9662;0,00235275
1942,9304;0,00251629
1943,8947;0,00253159
1944,8589;0,00239784
1945,8231;0,00215439
1946,7874;0,00185844
1947,7516;0,0015736
1948,7158;0,00136204
1949,6801;0,00126894
1950,6443;0,00130211
1951,6085;0,00142122
1952,5728;0,00154918
1953,5370;0,00160426
1954,5012;0,00153803
1955,4655;0,00135884
1956,4297;0,0011274
1957,3939;0,000927191
1958,3582;0,000826025
1959,3224;0,0008487
1960,2866;0,000973288
1961,2509;0,00115107
1962,2151;0,00133585
1963,1793;0,00150285
1964,1436;0,00164683
1965,1078;0,00176492
1966,0720;0,00183943
1967,0363;0,00183677
1968,0005;0,00172683
1968,9647;0,00150753
1969,9290;0,00121345
1970,8932;0,000903337
1971,8574;0,00063678
1972,8217;0,00045298
1973,7859;0,000360811
1974,7501;0,000343923
1975,7144;0,000383401
1976,6786;0,000475174
1977,6428;0,000626142
1978,6071;0,000830564
1979,5713;0,00105216
1980,5355;0,00123272
1981,4998;0,00132121
1982,4640;0,0013021
1983,4282;0,00120532
1984,3925;0,00109417
1985,3567;0,00103883
1986,3209;0,00109147
1987,2852;0,00127552
1988,2494;0,0015878
1989,2136;0,0020002
1990,1779;0,00245305
1991,1421;0,00285204
1992,1063;0,00308999
1993,0706;0,0030938
1994,0348;0,00286516
1994,9990;0,002483
1995,9633;0,00206826
1996,9275;0,00173446
1997,8917;0,00154702
1998,8560;0,00150715
1999,8202;0,0015671
2000,7844;0,00166718
2001,7487;0,00176969
2002,7129;0,00186987
2003,6771;0,0019844
2004,6414;0,00213264
2005,6056;0,00232268
2006,5698;0,00254665
2007,5341;0,00277908
2008,4983;0,00297819
2009,4625;0,00309524
2010,4268;0,00309452
2011,3910;0,00297653
2012,3552;0,0027878
2013,3195;0,00260665
2014,2837;0,00250785
2015,2479;0,00252431
2016,2122;0,00263042
2017,1764;0,00276143
2018,1406;0,00285691
2019,1049;0,00289476
2020,0691;0,00289194
2021,0333;0,00287888
2021,9976;0,00287281
2022,9618;0,00286862
2023,9260;0,00284836
2024,8903;0,00279767
2025,8545;0,00271554
2026,8187;0,00261187
2027,7830;0,00249822
2028,7472;0,00238139
2029,7114;0,00226447
2030,6757;0,00215304
2031,6399;0,00206035
2032,6041;0,00200617
2033,5684;0,00201166
2034,5326;0,00209216
2035,4968;0,0022529
2036,4611;0,00248599
2037,4253;0,00277154
2038,3895;0,00307622
2039,3538;0,00335377
2040,3180;0,00355262
2041,2822;0,00363435
2042,2465;0,0035964
2043,2107;0,00348304
2044,1749;0,00337317
2045,1392;0,00334721
2046,1034;0,00344908
2047,0676;0,00366316
2048,0320;0,0039225
2048,9961;0,00414638
2049,9604;0,00428105
2050,9246;0,00431567
2051,8889;0,00427096
2052,8530;0,00417922
2053,8174;0,00407212
2054,7815;0,00397672
2055,7458;0,00391602
2056,7100;0,00390477
2057,6743;0,00394323
2058,6384;0,00401565
2059,6028;0,00409793
2060,5669;0,00417078
2061,5313;0,00422848
2062,4954;0,00427584
2063,4597;0,00431561
2064,4238;0,00433792
2065,3882;0,00432283
2066,3523;0,00425602
2067,3167;0,00414493
2068,2808;0,00402179
2069,2451;0,00393062
2070,2092;0,00390656
2071,1736;0,00396042
2072,1377;0,00407451
2073,1021;0,00421266
2074,0662;0,00433503
2075,0305;0,00441166
2075,9946;0,00442986
2076,9590;0,00439555
2077,9231;0,00432871
2078,8875;0,00425459
2079,8516;0,00419382
2080,8159;0,0041558
2081,7800;0,00413923
2082,7444;0,00413894
2083,7085;0,00415386
2084,6729;0,00418867
2085,6370;0,00424857
2086,6013;0,00432953
2087,5654;0,00441335
2088,5298;0,00447228
2089,4939;0,00448195
2090,4583;0,00443471
2091,4224;0,00434467
2092,3867;0,00424161
2093,3508;0,00415801
2094,3152;0,00411665
2095,2793;0,00412457
2096,2437;0,00417482
2097,2078;0,00425238
2098,1721;0,00434033
2099,1362;0,00442272
2100,1006;0,00448807
2101,0647;0,00452214
2102,0291;0,00452613
2102,9932;0,00450814
2103,9575;0,00448372
2104,9216;0,00446938
2105,8860;0,00447484
2106,8501;0,00449911
2107,8145;0,00453299
2108,7786;0,00456596
2109,7429;0,00459234
2110,7070;0,00461205
2111,6714;0,00462617
2112,6355;0,00463185
2113,5999;0,00462189
2114,5640;0,00459068
2115,5283;0,00454228
2116,4924;0,00449383
2117,4568;0,00447005
2118,4209;0,00449049
2119,3853;0,0045571
2120,3494;0,00465018
2121,3137;0,004736
2122,2778;0,0047822
2123,2422;0,00477216
2124,2063;0,00471074
2125,1707;0,00462
2126,1348;0,00452894
2127,0991;0,0044635
2128,0632;0,00444059
2129,0276;0,00446602
2129,9917;0,00453445
2130,9561;0,00463034
2131,9202;0,00473051
2132,8845;0,00480994
2133,8486;0,00485011
2134,8130;0,00484648
2135,7771;0,00481043
2136,7415;0,00476413
2137,7056;0,00473193
2138,6699;0,00473363
2139,6340;0,00478143
2140,5984;0,00487826
2141,5625;0,00501517
2142,5269;0,00516914
2143,4910;0,00530603
2144,4553;0,00539248
2145,4194;0,00541375
2146,3838;0,00538801
2147,3479;0,00536495
2148,3123;0,00540434
2149,2764;0,00554224
2150,2407;0,00576284
2151,2048;0,00599349
2152,1692;0,00612943
2153,1333;0,00607892
2154,0977;0,00580907
2155,0618;0,0053729
2156,0261;0,00490579
2156,9902;0,00458332
2157,9546;0,00454192
2158,9187;0,00479651
2159,8831;0,00522395
2160,8472;0,00563901
2161,8115;0,00589695
2162,7756;0,0059449
2163,7400;0,00581405
2164,7041;0,00558485
2165,6685;0,00534788
2166,6326;0,00516977
2167,5969;0,00507351
2168,5610;0,00504126
2169,5254;0,00503733
2170,4895;0,00503638
2171,4539;0,00503869
2172,4180;0,00506312
2173,3823;0,00512339
2174,3464;0,00520649
2175,3108;0,00527262
2176,2749;0,0052793
2177,2393;0,00521098
2178,2034;0,00508915
2179,1677;0,00495463
2180,1318;0,00483713
2181,0962;0,00473692
2182,0603;0,00463314
2183,0247;0,00451091
2183,9888;0,00438301
2184,9531;0,004287
2185,9172;0,00426176
2186,8816;0,00432409
2187,8457;0,00446204
2188,8101;0,0046452
2189,7742;0,00483947
2190,7385;0,00501512
2191,7026;0,00514708
2192,6670;0,00521483
2193,6311;0,00520743
2194,5955;0,00513062
2195,5596;0,00500745
2196,5239;0,00486817
2197,4880;0,00473544
2198,4524;0,00461624
2199,4165;0,00450683
2200,3809;0,00440599
2201,3450;0,00432435
2202,3093;0,00428193
2203,2734;0,00429639
2204,2378;0,00437203
2205,2019;0,00449729
2206,1663;0,00464955
2207,1304;0,00480045
2208,0947;0,00491739
2209,0588;0,0049648
2210,0232;0,00491245
2210,9873;0,00475207
2211,9517;0,00451286
2212,9158;0,00426084
2213,8801;0,00407431
2214,8442;0,00400489
2215,8086;0,00404748
2216,7727;0,00414089
2217,7371;0,00420254
2218,7012;0,00417769
2219,6655;0,00407241
2220,6296;0,00394964
2221,5940;0,00389077
2222,5581;0,00394701
2223,5225;0,00410987
2224,4866;0,00431637
2225,4509;0,00448292
2226,4150;0,0045456
2227,3794;0,0044835
2228,3435;0,00432278
2229,3079;0,00411585
2230,2720;0,00391747
2231,2363;0,00376798
2232,2004;0,00368739
2233,1648;0,00367752
2234,1289;0,00372688
2235,0933;0,00381574
2236,0574;0,00392073
2237,0217;0,00401995
2237,9858;0,00409792
2238,9502;0,00414903
2239,9143;0,00417788
2240,8787;0,00419609
2241,8428;0,00421667
2242,8071;0,00424836
2243,7712;0,00429256
2244,7356;0,00434438
2245,6997;0,00439748
2246,6641;0,00444942
2247,6282;0,00450382
2248,5925;0,0045671
2249,5566;0,00464165
2250,5210;0,00472055
2251,4851;0,00478852
2252,4495;0,0048301
2253,4136;0,00484042
2254,3779;0,00483098
2255,3420;0,00482527
2256,3064;0,00484548
2257,2705;0,00489844
2258,2349;0,00497018
2259,1990;0,00503313
2260,1633;0,00506206
2261,1274;0,00504942
2262,0918;0,00501097
2263,0559;0,00497789
2264,0203;0,00497981
2264,9844;0,00502845
2265,9487;0,00511177
2266,9128;0,00520164
2267,8772;0,00526925
2268,8413;0,00529859
2269,8057;0,00529055
2270,7698;0,00525765
2271,7341;0,00521495
2272,6982;0,00517368
2273,6626;0,00513952
2274,6267;0,00511375
2275,5911;0,00509337
2276,5552;0,00506985
2277,5195;0,00502977
2278,4836;0,00496073
2279,4480;0,0048619
2280,4121;0,00475308
2281,3765;0,00467421
2282,3406;0,00467251
2283,3049;0,00478252
2284,2690;0,00500958
2285,2334;0,00532627
2286,1975;0,00568468
2287,1619;0,0060384
2288,1260;0,0063626
2289,0903;0,00666056
2290,0544;0,00695347
2291,0188;0,0072605
2291,9829;0,00758282
2292,9473;0,00790124
2293,9114;0,00818768
2294,8757;0,00842093
2295,8398;0,00859527
2296,8042;0,00871642
2297,7683;0,00878996
2298,7327;0,00881281
2299,6968;0,00877623
2300,6611;0,00867934
2301,6252;0,00854393
2302,5896;0,00841696
2303,5537;0,00835806
2304,5181;0,00841259
2305,4822;0,0085827
2306,4465;0,00881064
2307,4106;0,00898705
2308,3750;0,00898705
2309,3391;0,00872228
2310,3035;0,00818466
2311,2676;0,00745733
2312,2319;0,00668193
2313,1960;0,00599565
2314,1604;0,00547229
2315,1245;0,00510162
2316,0889;0,00481616
2317,0530;0,00454455
2318,0173;0,00425913
2318,9814;0,00399464
2319,9458;0,00383319
2320,9099;0,00386693
2321,8743;0,00415485
2322,8384;0,004686
2323,8027;0,00536018
2324,7668;0,00600386
2325,7312;0,00642811
2326,6953;0,00650597
2327,6597;0,00622938
2328,6238;0,00571812
2329,5881;0,00517779
2330,5522;0,0048212
2331,5166;0,00478016
2332,4807;0,00504819
2333,4451;0,00549367
2334,4092;0,00594303
2335,3735;0,00628361
2336,3376;0,00652382
2337,3020;0,0067793
2338,2661;0,0071934
2339,2305;0,00782796
2340,1946;0,00857093
2341,1589;0,00910746
2342,1230;0,00902604
2343,0874;0,00816505
2344,0515;0,00704
2345,0159;0,0066624
2345,9800;0,00760749
2346,9443;0,00946074
2347,9084;0,0112304
2348,8728;0,0120614
2349,8369;0,0116558
2350,8013;0,0103338
2351,7654;0,00881808
2352,7297;0,00780942
2353,6938;0,00757312
2354,6582;0,00790844
2355,6223;0,00851858
2356,5867;0,00926357
2357,5508;0,0100473
2358,5151;0,0106661
2359,4792;0,0108931
2360,4436;0,0106671
2361,4077;0,0101071
2362,3721;0,00934085
2363,3362;0,00838418
2364,3005;0,0071915
2365,2646;0,00577513
2366,2290;0,0042478
2367,1931;0,00276574
2368,1575;0,00145345
2369,1216;0,000373406
2370,0859;-0,000462417
2371,0500;-0,00106685
2372,0144;-0,00145185
2372,9785;-0,00160847
2373,9429;-0,00150141
2374,9070;-0,00108575
2375,8713;-0,0003407
2376,8354;0,000698654
2377,7998;0,00193101
2378,7639;0,00320649
2379,7283;0,00436391
2380,6924;0,00527155
2381,6567;0,00585601
2382,6208;0,00611152
2383,5852;0,00609023
2384,5493;0,00587927
2385,5137;0,00557356
2386,4778;0,00525277
2387,4421;0,00496858
2388,4063;0,00474395
2389,3706;0,00458125
2390,3347;0,00447305
2391,2991;0,0044104
2392,2632;0,00438594
2393,2275;0,00439299
2394,1917;0,00442328
2395,1560;0,00446592
2396,1201;0,00450869
2397,0845;0,00454155
2398,0486;0,0045636
2399,0129;0,00457848
2399,9771;0,00459458
2400,9414;0,00462179
2401,9055;0,00466301
2402,8699;0,00471355
2403,8340;0,00476207
2404,7983;0,00479698
2405,7625;0,00481309
2406,7268;0,00481381
2407,6909;0,00481055
2408,6553;0,00481682
2409,6194;0,00484002
2410,5837;0,0048801
2411,5479;0,00493003
2412,5122;0,00498013
2413,4763;0,00502239
2414,4407;0,00505354
2415,4048;0,00507495
2416,3691;0,00509129
2417,3333;0,00510862
2418,2976;0,00513246
2419,2617;0,0051665
2420,2261;0,00521084
2421,1902;0,00526002
2422,1545;0,00530572
2423,1187;0,00533922
2424,0830;0,00535589
2425,0471;0,00535824
2426,0115;0,00535541
2426,9756;0,00535908
2427,9399;0,00537778
2428,9041;0,00541312
2429,8684;0,00546007
2430,8325;0,0055108
2431,7969;0,00555926
2432,7610;0,00560342
2433,7253;0,00564402
2434,6895;0,00568153
2435,6538;0,00571405
2436,6179;0,00573801
2437,5823;0,00575098
2438,5464;0,00575443
2439,5107;0,00575419
2440,4749;0,00575839
2441,4392;0,00577408
2442,4033;0,00580432
2443,3677;0,00584705
2444,3318;0,00589578
2445,2961;0,00594187
2446,2603;0,00597771
2447,2246;0,00599977
2448,1887;0,00601034
2449,1531;0,00601671
2450,1172;0,00602778
2451,0815;0,00604975
2452,0457;0,0060834
2453,0100;0,0061245
2453,9741;0,00616689
2454,9385;0,00620576
2455,9026;0,00623906
2456,8669;0,00626674
2457,8311;0,00628926
2458,7954;0,00630723
2459,7595;0,0063222
2460,7239;0,00633728
2461,6880;0,00635615
2462,6523;0,00638044
2463,6165;0,00640777
2464,5808;0,00643228
2465,5449;0,00644809
2466,5093;0,00645354
2467,4734;0,00645327
2468,4377;0,00645655
2469,4019;0,00647273
2470,3662;0,00650636
2471,3303;0,00655442
2472,2947;0,0066072
2473,2588;0,00665214
2474,2231;0,00667938
2475,1873;0,00668643
2476,1516;0,00667987
2477,1157;0,00667256
2478,0801;0,00667731
2479,0442;0,00670031
2480,0085;0,00673808
2480,9727;0,00678025
2481,9370;0,00681624
2482,9011;0,00684151
2483,8655;0,00685909
2484,8296;0,00687592
2485,7939;0,00689732
2486,7581;0,00692416
2487,7224;0,00695458
2488,6865;0,00698792
2489,6509;0,00702674
2490,6150;0,00707461
2491,5793;0,00713122
2492,5435;0,00718953
2493,5078;0,00723788
2494,4719;0,00726661
2495,4363;0,00727464
2496,4004;0,0072712
2497,3647;0,00727101
2498,3289;0,00728574
2499,2932;0,0073171
2500,2573;0,00735596
2501,2217;0,00738833
2502,1858;0,00740427
2503,1501;0,00740429
2504,1143;0,00739896
2505,0786;0,00740198
2506,0427;0,0074211
2507,0071;0,00745316
2507,9712;0,0074867
2508,9355;0,0075106
2509,8997;0,00752242
2510,8640;0,00753035
2511,8281;0,007547
2512,7925;0,00757937
2513,7566;0,00762257
2514,7209;0,00766206
2515,6851;0,00768315
2516,6494;0,00768082
2517,6135;0,00766285
2518,5779;0,00764439
2519,5420;0,00763824
2520,5063;0,00764809
2521,4705;0,00766871
2522,4348;0,00769194
2523,3989;0,00771306
2524,3633;0,00773285
2525,3274;0,00775472
2526,2917;0,00778034
2527,2559;0,00780771
2528,2202;0,00783269
2529,1843;0,0078523
2530,1487;0,00786639
2531,1128;0,0078768
2532,0771;0,00788513
2533,0413;0,00789163
2534,0056;0,00789621
2534,9697;0,00790032
2535,9341;0,00790755
2536,8982;0,00792182
2537,8625;0,00794446
2538,8267;0,00797236
2539,7910;0,00799906
2540,7551;0,00801818
2541,7195;0,00802698
2542,6836;0,00802765
2543,6479;0,00802547
2544,6121;0,00802538
2545,5764;0,00802915
2546,5405;0,0080352
2547,5049;0,00804096
2548,4690;0,00804592
2549,4333;0,00805295
2550,3975;0,00806656
2551,3618;0,00808914
2552,3259;0,00811786
2553,2903;0,00814491
2554,2544;0,00816167
2555,2188;0,00816417
2556,1829;0,00815641
2557,1472;0,00814861
2558,1113;0,00815138
2559,0757;0,00816948
2560,0398;0,00819929
2561,0042;0,0082315
2561,9683;0,00825689
2562,9326;0,00827117
2563,8967;0,00827589
2564,8611;0,00827578
2565,8252;0,00827516
2566,7896;0,0082762
2567,7537;0,00827974
2568,7180;0,00828683
2569,6821;0,00829898
2570,6465;0,00831653
2571,6106;0,00833697
2572,5750;0,00835517
2573,5391;0,00836636
2574,5034;0,00837001
2575,4675;0,0083715
2576,4319;0,00837977
2577,3960;0,00840194
2578,3604;0,00843823
2579,3245;0,00848088
2580,2888;0,00851817
2581,2529;0,00854114
2582,2173;0,00854876
2583,1814;0,00854805
2584,1458;0,00854921
2585,1099;0,00855916
2586,0742;0,00857789
2587,0383;0,00859991
2588,0027;0,00861923
2588,9668;0,00863408
2589,9312;0,00864785
2590,8953;0,00866595
2591,8596;0,00869153
2592,8237;0,00872313
2593,7881;0,00875616
2594,7522;0,00878629
2595,7166;0,00881227
2596,6807;0,00883604
2597,6450;0,00886082
2598,6091;0,00888894
2599,5735;0,00892104
2600,5376;0,0089565
2601,5020;0,00899402
2602,4661;0,00903147
2603,4304;0,00906569
2604,3945;0,00909336
2605,3589;0,009113
2606,3230;0,00912716
2607,2874;0,00914236
2608,2515;0,0091662
2609,2158;0,00920291
2610,1799;0,00925032
2611,1443;0,00930047
2612,1084;0,0093437
2613,0728;0,00937387
2614,0369;0,00939131
2615,0012;0,00940223
2615,9653;0,00941526
2616,9297;0,00943741
2617,8938;0,00947159
2618,8582;0,00951627
2619,8223;0,00956657
2620,7866;0,00961605
2621,7507;0,00965861
2622,7151;0,00969033
2623,6792;0,00971112
2624,6436;0,00972513
2625,6077;0,00973955
2626,5720;0,00976167
2627,5361;0,00979579
2628,5005;0,00984147
2629,4646;0,00989429
2630,4290;0,00994845
2631,3931;0,00999944
2632,3574;0,0100453
2633,3215;0,010086
2634,2859;0,0101221
2635,2500;0,0101533
2636,2144;0,0101798
2637,1785;0,0102026
2638,1428;0,0102243
2639,1069;0,0102487
2640,0713;0,010279
2641,0354;0,0103164
2641,9998;0,0103603
2642,9639;0,0104089
2643,9282;0,0104601
2644,8923;0,0105119
2645,8567;0,0105622
2646,8208;0,0106081
2647,7852;0,0106472
2648,7493;0,0106783
2649,7136;0,0107032
2650,6777;0,010726
2651,6421;0,0107515
2652,6062;0,0107831
2653,5706;0,0108212
2654,5347;0,010864
2655,4990;0,0109088
2656,4631;0,0109539
2657,4275;0,0109993
2658,3916;0,0110454
2659,3560;0,0110921
2660,3201;0,0111373
2661,2844;0,0111781
2662,2485;0,0112121
2663,2129;0,0112394
2664,1770;0,0112634
2665,1414;0,011289
2666,1055;0,0113211
2667,0698;0,0113614
2668,0339;0,0114079
2668,9983;0,0114562
2669,9624;0,0115019
2670,9268;0,0115437
2671,8909;0,011583
2672,8552;0,0116231
2673,8193;0,0116656
2674,7837;0,0117096
2675,7478;0,0117517
2676,7122;0,0117885
2677,6763;0,0118192
2678,6406;0,0118471
2679,6047;0,0118778
2680,5691;0,0119171
2681,5332;0,0119675
2682,4976;0,0120272
2683,4617;0,0120909
2684,4260;0,0121523
2685,3901;0,0122071
2686,3545;0,0122539
2687,3186;0,0122941
2688,2830;0,0123304
2689,2471;0,0123646
2690,2114;0,0123979
2691,1755;0,0124316
2692,1399;0,0124674
2693,1040;0,0125079
2694,0684;0,0125549
2695,0325;0,0126073
2695,9968;0,0126614
2696,9609;0,0127126
2697,9253;0,0127586
2698,8894;0,0128011
2699,8538;0,0128446
2700,8179;0,0128931
2701,7822;0,0129472
2702,7463;0,0130031
2703,7107;0,0130559
2704,6748;0,0131029
2705,6392;0,0131455
2706,6033;0,0131882
2707,5676;0,0132355
2708,5317;0,0132886
2709,4961;0,0133454
2710,4602;0,0134026
2711,4246;0,0134584
2712,3887;0,0135138
2713,3530;0,0135719
2714,3171;0,0136346
2715,2815;0,013701
2716,2456;0,0137675
2717,2100;0,0138294
2718,1741;0,0138838
2719,1384;0,0139309
2720,1025;0,0139723
2721,0669;0,0140091
2722,0310;0,0140408
2722,9954;0,0140664
2723,9595;0,0140867
2724,9238;0,0141064
2725,8879;0,0141335
2726,8523;0,0141753
2727,8164;0,0142348
2728,7808;0,014308
2729,7449;0,0143856
2730,7092;0,0144571
2731,6733;0,0145146
2732,6377;0,0145551
2733,6018;0,0145798
2734,5662;0,0145934
2735,5303;0,0146022
2736,4946;0,0146135
2737,4587;0,014634
2738,4231;0,0146685
2739,3872;0,0147175
2740,3516;0,0147771
2741,3157;0,0148397
2742,2800;0,0148974
2743,2441;0,0149442
2744,2085;0,0149779
2745,1726;0,0149998
2746,1370;0,015014
2747,1011;0,0150262
2748,0654;0,0150419
2749,0295;0,015066
2749,9939;0,0151007
2750,9580;0,0151455
2751,9224;0,0151978
2752,8865;0,0152545
2753,8508;0,0153136
2754,8149;0,0153736
2755,7793;0,0154331
2756,7434;0,0154898
2757,7078;0,015541
2758,6719;0,0155855
2759,6362;0,0156249
2760,6003;0,0156636
2761,5647;0,0157067
2762,5288;0,0157568
2763,4932;0,0158131
2764,4573;0,0158727
2765,4216;0,0159334
2766,3857;0,0159952
2767,3501;0,0160603
2768,3142;0,01613
2769,2786;0,0162028
2770,2427;0,0162737
2771,2070;0,0163375
2772,1711;0,0163922
2773,1355;0,0164413
2774,0996;0,0164923
2775,0640;0,0165528
2776,0281;0,0166259
2776,9924;0,0167094
2777,9565;0,0167972
2778,9209;0,0168839
2779,8850;0,016968
2780,8494;0,0170526
2781,8135;0,0171423
2782,7778;0,0172395
2783,7419;0,0173416
2784,7063;0,0174423
2785,6704;0,0175347
2786,6348;0,0176159
2787,5989;0,0176889
2788,5632;0,0177618
2789,5273;0,0178446
2790,4917;0,0179445
2791,4558;0,0180631
2792,4202;0,0181954
2793,3843;0,0183325
2794,3486;0,0184649
2795,3127;0,018587
2796,2771;0,0186996
2797,2412;0,0188087
2798,2056;0,0189232
2799,1697;0,0190499
2800,1340;0,0191916
2801,0981;0,0193463
2802,0625;0,0195091
2803,0266;0,0196748
2803,9910;0,0198393
2804,9551;0,0199997
2805,9194;0,0201538
2806,8835;0,0203012
2807,8479;0,0204438
2808,8120;0,0205871
2809,7764;0,0207384
2810,7405;0,0209049
2811,7048;0,0210904
2812,6689;0,0212943
2813,6333;0,0215125
2814,5974;0,0217403
2815,5618;0,0219742
2816,5259;0,0222127
2817,4902;0,0224555
2818,4543;0,022703
2819,4187;0,0229556
2820,3828;0,0232141
2821,3472;0,0234799
2822,3113;0,023755
2823,2756;0,0240416
2824,2397;0,0243422
2825,2041;0,0246589
2826,1682;0,024994
2827,1326;0,0253493
2828,0967;0,0257263
2829,0610;0,0261264
2830,0251;0,0265514
2830,9895;0,0270036
2831,9536;0,0274847
2832,9180;0,0279943
2833,8821;0,0285299
2834,8464;0,0290881
2835,8105;0,0296684
2836,7749;0,0302775
2837,7390;0,03093
2838,7034;0,031647
2839,6675;0,0324511
2840,6318;0,0333624
2841,5959;0,0343953
2842,5603;0,0355559
2843,5244;0,0368384
2844,4888;0,0382181
2845,4529;0,0396456
2846,4172;0,0410454
2847,3813;0,0423254
2848,3457;0,0433947
2849,3098;0,0441855
2850,2742;0,0446693
2851,2383;0,0448599
2852,2026;0,0448036
2853,1667;0,0445624
2854,1311;0,044197
2855,0952;0,0437571
2856,0596;0,0432791
2857,0237;0,0427897
2857,9880;0,0423116
2858,9521;0,0418669
2859,9165;0,0414779
2860,8806;0,0411639
2861,8450;0,0409383
2862,8091;0,0408062
2863,7734;0,0407649
2864,7375;0,0408066
2865,7019;0,0409201
2866,6660;0,0410913
2867,6304;0,0413009
2868,5945;0,0415243
2869,5588;0,0417338
2870,5229;0,0419047
2871,4873;0,0420229
2872,4514;0,0420891
2873,4158;0,042118
2874,3799;0,0421315
2875,3442;0,0421498
2876,3083;0,0421855
2877,2727;0,0422424
2878,2368;0,0423191
2879,2012;0,0424137
2880,1653;0,0425269
2881,1296;0,0426618
2882,0938;0,0428216
2883,0581;0,043007
2884,0222;0,0432151
2884,9866;0,0434407
2885,9507;0,0436786
2886,9150;0,043926
2887,8792;0,044183
2888,8435;0,0444508
2889,8076;0,0447299
2890,7720;0,0450175
2891,7361;0,0453082
2892,7004;0,0455958
2893,6646;0,0458772
2894,6289;0,0461537
2895,5930;0,0464313
2896,5574;0,0467173
2897,5215;0,0470165
2898,4858;0,0473284
2899,4500;0,0476477
2900,4143;0,0479677
2901,3784;0,0482846
2902,3428;0,0486018
2903,3069;0,0489306
2904,2712;0,0492885
2905,2354;0,049695
2906,1997;0,0501682
2907,1638;0,0507227
2908,1282;0,0513703
2909,0923;0,0521193
2910,0566;0,0529722
2911,0208;0,0539211
2911,9851;0,0549427
2912,9492;0,0559962
2913,9136;0,0570273
2914,8777;0,0579771
2915,8420;0,0587936
2916,8062;0,0594396
2917,7705;0,0598968
2918,7346;0,0601638
2919,6990;0,060251
2920,6631;0,060175
2921,6274;0,0599545
2922,5916;0,0596067
2923,5559;0,059147
2924,5200;0,0585877
2925,4844;0,0579402
2926,4485;0,0572167
2927,4128;0,0564323
2928,3770;0,0556055
2929,3413;0,0547557
2930,3054;0,0538991
2931,2698;0,0530452
2932,2339;0,0521961
2933,1982;0,0513491
2934,1624;0,0505011
2935,1267;0,0496528
2936,0908;0,0488095
2937,0552;0,0479793
2938,0193;0,0471697
2938,9836;0,0463849
2939,9478;0,0456249
2940,9121;0,0448881
2941,8762;0,0441741
2942,8406;0,0434867
2943,8047;0,0428343
2944,7690;0,0422285
2945,7332;0,0416808
2946,6975;0,0411982
2947,6616;0,0407808
2948,6260;0,0404206
2949,5901;0,0401032
2950,5544;0,0398121
2951,5186;0,0395316
2952,4829;0,0392504
2953,4470;0,0389617
2954,4114;0,0386615
2955,3755;0,0383463
2956,3398;0,038011
2957,3040;0,0376499
2958,2683;0,037259
2959,2324;0,0368394
2960,1968;0,0363975
2961,1609;0,035942
2962,1252;0,0354798
2963,0894;0,0350115
2964,0537;0,0345321
2965,0178;0,0340359
2965,9822;0,0335223
2966,9463;0,0329987
2967,9106;0,0324778
2968,8748;0,0319719
2969,8391;0,0314876
2970,8032;0,0310246
2971,7676;0,030579
2972,7317;0,0301481
2973,6960;0,0297323
2974,6602;0,0293339
2975,6245;0,0289546
2976,5886;0,0285935
2977,5530;0,0282483
2978,5171;0,027918
2979,4814;0,0276044
2980,4456;0,0273117
2981,4099;0,0270436
2982,3740;0,0268018
2983,3384;0,0265853
2984,3025;0,0263912
2985,2668;0,0262167
2986,2310;0,0260592
2987,1953;0,0259175
2988,1594;0,0257919
2989,1238;0,0256836
2990,0879;0,0255945
2991,0522;0,0255245
2992,0164;0,0254706
2992,9807;0,0254267
2993,9448;0,0253867
2994,9092;0,0253491
2995,8733;0,0253194
2996,8376;0,0253086
2997,8018;0,0253276
2998,7661;0,0253805
2999,7302;0,0254607
3000,6946;0,0255532
3001,6587;0,0256403
3002,6230;0,0257099
3003,5872;0,0257605
3004,5515;0,0258
3005,5156;0,0258411
3006,4800;0,0258938
3007,4441;0,0259602
3008,4084;0,0260348
3009,3726;0,0261075
3010,3369;0,0261688
3011,3010;0,0262139
3012,2654;0,0262434
3013,2295;0,0262618
3014,1938;0,0262751
3015,1580;0,0262895
3016,1223;0,0263114
3017,0864;0,0263465
3018,0508;0,0263993
3019,0149;0,0264714
3019,9792;0,0265606
3020,9434;0,0266616
3021,9077;0,0267688
3022,8718;0,0268797
3023,8362;0,0269961
3024,8003;0,0271244
3025,7646;0,0272718
3026,7288;0,0274421
3027,6931;0,0276308
3028,6572;0,0278244
3029,6216;0,0280033
3030,5857;0,0281492
3031,5500;0,0282535
3032,5142;0,0283223
3033,4785;0,028375
3034,4426;0,0284351
3035,4070;0,0285201
3036,3711;0,0286355
3037,3354;0,0287752
3038,2996;0,028928
3039,2639;0,0290846
3040,2280;0,0292424
3041,1924;0,0294053
3042,1565;0,0295801
3043,1208;0,0297711
3044,0850;0,0299774
3045,0493;0,0301922
3046,0134;0,0304056
3046,9778;0,0306092
3047,9419;0,0307997
3048,9063;0,0309813
3049,8704;0,0311628
3050,8347;0,0313535
3051,7988;0,0315573
3052,7632;0,0317712
3053,7273;0,0319865
3054,6917;0,0321938
3055,6558;0,0323878
3056,6201;0,0325706
3057,5842;0,0327502
3058,5486;0,032938
3059,5127;0,0331435
3060,4771;0,0333712
3061,4412;0,0336179
3062,4055;0,0338723
3063,3696;0,0341171
3064,3340;0,0343351
3065,2981;0,0345153
3066,2625;0,0346586
3067,2266;0,0347784
3068,1909;0,0348947
3069,1550;0,0350268
3070,1194;0,0351862
3071,0835;0,0353743
3072,0479;0,0355851
3073,0120;0,0358096
3073,9763;0,0360401
3074,9404;0,0362719
3075,9048;0,0365019
3076,8689;0,0367265
3077,8333;0,0369396
3078,7974;0,0371342
3079,7617;0,037305
3080,7258;0,0374526
3081,6902;0,0375851
3082,6543;0,0377154
3083,6187;0,0378567
3084,5828;0,0380166
3085,5471;0,0381946
3086,5112;0,0383842
3087,4756;0,0385773
3088,4397;0,0387706
3089,4041;0,0389666
3090,3682;0,0391711
3091,3325;0,0393882
3092,2966;0,0396163
3093,2610;0,0398482
3094,2251;0,0400764
3095,1895;0,0402978
3096,1536;0,040516
3097,1179;0,0407376
3098,0820;0,0409663
3099,0464;0,0411985
3100,0105;0,0414239
3100,9749;0,0416313
3101,9390;0,0418156
3102,9033;0,0419816
3103,8674;0,0421419
3104,8318;0,0423107
3105,7959;0,042498
3106,7603;0,0427069
3107,7244;0,0429347
3108,6887;0,043177
3109,6528;0,0434312
3110,6172;0,0436976
3111,5813;0,0439771
3112,5457;0,044268
3113,5098;0,0445636
3114,4741;0,0448523
3115,4382;0,0451221
3116,4026;0,0453657
3117,3667;0,0455845
3118,3311;0,0457876
3119,2952;0,0459888
3120,2595;0,0462
3121,2236;0,0464274
3122,1880;0,0466697
3123,1521;0,0469195
3124,1165;0,0471674
3125,0806;0,0474065
3126,0449;0,0476364
3127,0090;0,0478642
3127,9734;0,048102
3128,9375;0,0483613
3129,9019;0,0486458
3130,8660;0,0489482
3131,8303;0,0492516
3132,7944;0,0495375
3133,7588;0,0497954
3134,7229;0,0500278
3135,6873;0,050249
3136,6514;0,0504764
3137,6157;0,0507224
3138,5798;0,0509896
3139,5442;0,0512728
3140,5083;0,051564
3141,4727;0,051858
3142,4368;0,0521547
3143,4011;0,0524567
3144,3652;0,0527654
3145,3296;0,0530782
3146,2937;0,053388
3147,2581;0,0536861
3148,2222;0,0539674
3149,1865;0,054234
3150,1506;0,0544954
3151,1150;0,0547648
3152,0791;0,0550526
3153,0435;0,0553607
3154,0076;0,055682
3154,9719;0,0560045
3155,9360;0,0563182
3156,9004;0,0566207
3157,8645;0,0569169
3158,8289;0,0572149
3159,7930;0,0575208
3160,7573;0,0578348
3161,7214;0,058153
3162,6858;0,0584703
3163,6499;0,0587835
3164,6143;0,059092
3165,5784;0,0593967
3166,5427;0,0596985
3167,5068;0,0599983
3168,4712;0,0602986
3169,4353;0,0604601
3170,3997;0,0607755
3171,3638;0,0611049
3172,3281;0,0614459
3173,2922;0,0617917
3174,2566;0,0621342
3175,2207;0,0624674
3176,1851;0,0627891
3177,1492;0,0630997
3178,1135;0,0634011
3179,0776;0,0636954
3180,0420;0,0639852
3181,0061;0,0642745
3181,9705;0,064568
3182,9346;0,0648686
3183,8989;0,0651756
3184,8630;0,0654832
3185,8274;0,0657839
3186,7915;0,0660727
3187,7559;0,0663501
3188,7200;0,0666225
3189,6843;0,0668986
3190,6484;0,0671859
3191,6128;0,0674876
3192,5769;0,0678025
3193,5413;0,0681257
3194,5054;0,0684496
3195,4697;0,0687661
3196,4338;0,0690678
3197,3982;0,0693512
3198,3623;0,069618
3199,3267;0,0698748
3200,2908;0,0701302
3201,2551;0,0703918
3202,2192;0,0706635
3203,1836;0,0709456
3204,1477;0,0712357
3205,1121;0,0715302
3206,0762;0,0718253
3207,0405;0,0721176
3208,0046;0,0724054
3208,9690;0,0726887
3209,9331;0,0729686
3210,8975;0,0732463
3211,8616;0,0735217
3212,8259;0,0737931
3213,7900;0,07406
3214,7544;0,0743238
3215,7185;0,0745877
3216,6829;0,0748538
3217,6470;0,0751206
3218,6113;0,0753827
3219,5754;0,0756349
3220,5398;0,0758766
3221,5039;0,076114
3222,4683;0,076358
3223,4324;0,0766178
3224,3967;0,076896
3225,3608;0,0771875
3226,3252;0,0774821
3227,2893;0,077769
3228,2537;0,07804
3229,2178;0,0782919
3230,1821;0,0785267
3231,1462;0,0787508
3232,1106;0,0789741
3233,0747;0,0792066
3234,0391;0,0794551
3235,0032;0,0797203
3235,9675;0,0799967
3236,9316;0,0802762
3237,8960;0,0805527
3238,8601;0,0808247
3239,8245;0,0810951
3240,7886;0,0813675
3241,7529;0,0816429
3242,7170;0,0819178
3243,6814;0,0821858
3244,6455;0,082441
3245,6099;0,0826823
3246,5740;0,0829143
3247,5383;0,0831456
3248,5024;0,083385
3249,4668;0,0836375
3250,4309;0,083903
3251,3953;0,0841778
3252,3594;0,0844574
3253,3237;0,0847396
3254,2878;0,0850253
3255,2522;0,0853156
3256,2163;0,0856095
3257,1807;0,0859023
3258,1448;0,0861879
3259,1091;0,0864634
3260,0732;0,0867318
3261,0376;0,0870002
3262,0017;0,0872754
3262,9661;0,0875582
3263,9302;0,0878425
3264,8945;0,0881186
3265,8586;0,088379
3266,8230;0,0886226
3267,7871;0,088855
3268,7515;0,0890841
3269,7156;0,089315
3270,6799;0,0895463
3271,6440;0,089771
3272,6084;0,0899789
3273,5725;0,0901618
3274,5369;0,0903156
3275,5010;0,0904421
3276,4653;0,0905479
3277,4294;0,0906414
3278,3938;0,0907311
3279,3579;0,0908236
3280,3223;0,0909221
3281,2864;0,0910267
3282,2507;0,091134
3283,2148;0,0912393
3284,1792;0,0913379
3285,1433;0,0914277
3286,1077;0,0915086
3287,0718;0,0915816
3288,0361;0,0916463
3289,0002;0,0916994
3289,9646;0,0917358
3290,9287;0,0917522
3291,8931;0,0917505
3292,8572;0,0917375
3293,8215;0,0917228
3294,7856;0,0917139
3295,7500;0,0917125
3296,7141;0,0917153
3297,6785;0,0917161
3298,6426;0,09171
3299,6069;0,0916955
3300,5710;0,0916742
3301,5354;0,0916506
3302,4995;0,0916302
3303,4639;0,0916179
3304,4280;0,0916163
3305,3923;0,0916243
3306,3564;0,0916363
3307,3208;0,0916448
3308,2849;0,0916432
3309,2493;0,0916298
3310,2134;0,0916086
3311,1777;0,0915875
3312,1418;0,0915747
3313,1062;0,0915757
3314,0703;0,0915926
3315,0347;0,0916251
3315,9988;0,0916722
3316,9631;0,0917328
3317,9272;0,091806
3318,8916;0,0918903
3319,8557;0,0919835
3320,8201;0,0920825
3321,7842;0,092184
3322,7485;0,0922849
3323,7126;0,0923827
3324,6770;0,0924755
3325,6411;0,0925616
3326,6055;0,0926403
3327,5696;0,0927113
3328,5339;0,092776
3329,4980;0,0928369
3330,4624;0,0928962
3331,4265;0,0929546
3332,3909;0,0930091
3333,3550;0,0930524
3334,3193;0,0930743
3335,2834;0,0930651
3336,2478;0,0930203
3337,2119;0,0929423
3338,1763;0,0928395
3339,1404;0,0927216
3340,1047;0,092595
3341,0688;0,0924607
3342,0332;0,0923147
3342,9973;0,0921523
3343,9617;0,0919718
3344,9258;0,0917763
3345,8901;0,0915726
3346,8542;0,0913677
3347,8186;0,0911657
3348,7827;0,0909663
3349,7471;0,090766
3350,7112;0,0905612
3351,6755;0,0903506
3352,6396;0,0901368
3353,6040;0,0899252
3354,5681;0,0897213
3355,5325;0,0895283
3356,4966;0,089345
3357,4609;0,0891669
3358,4250;0,0889873
3359,3894;0,0888009
3360,3535;0,0886055
3361,3179;0,088402
3362,2820;0,0881923
3363,2463;0,0879765
3364,2104;0,0877517
3365,1748;0,0875132
3366,1389;0,0872582
3367,1033;0,086988
3368,0674;0,0867087
3369,0317;0,0864279
3369,9958;0,0861511
3370,9602;0,0858803
3371,9243;0,0856146
3372,8887;0,0853534
3373,8528;0,0850971
3374,8171;0,0848464
3375,7813;0,0846007
3376,7456;0,0843569
3377,7097;0,0841126
3378,6741;0,0838682
3379,6382;0,0836288
3380,6025;0,0834011
3381,5667;0,0831886
3382,5310;0,0829867
3383,4951;0,0827846
3384,4595;0,0825714
3385,4236;0,0823442
3386,3879;0,0821114
3387,3521;0,0818872
3388,3164;0,081683
3389,2805;0,0814988
3390,2449;0,0813227
3391,2090;0,0811364
3392,1733;0,0809259
3393,1375;0,0806891
3394,1018;0,0804352
3395,0659;0,0801781
3396,0303;0,079927
3396,9944;0,079682
3397,9587;0,0794358
3398,9229;0,0791784
3399,8872;0,078903
3400,8513;0,0786096
3401,8157;0,0783048
3402,7798;0,0779998
3403,7441;0,0777052
3404,7083;0,077427
3405,6726;0,0771637
3406,6367;0,076907
3407,6011;0,0766462
3408,5652;0,0763729
3409,5295;0,0760837
3410,4937;0,0757801
3411,4580;0,0754663
3412,4221;0,0751478
3413,3865;0,0748313
3414,3506;0,0745252
3415,3149;0,0742379
3416,2791;0,0739743
3417,2434;0,0737299
3418,2075;0,0734876
3419,1719;0,0732219
3420,1360;0,07291
3421,1003;0,0725436
3422,0645;0,0721353
3423,0288;0,0717123
3423,9929;0,0713029
3424,9573;0,0709244
3425,9214;0,0705788
3426,8857;0,0702542
3427,8499;0,0699325
3428,8142;0,0695981
3429,7783;0,0692441
3430,7427;0,0688732
3431,7068;0,0684942
3432,6711;0,0681169
3433,6353;0,0677483
3434,5996;0,0673921
3435,5637;0,0670498
3436,5281;0,0667211
3437,4922;0,0664046
3438,4565;0,0660975
3439,4207;0,0657969
3440,3850;0,0655016
3441,3491;0,0652124
3442,3135;0,0649296
3443,2776;0,0646478
3444,2419;0,0643524
3445,2061;0,0640221
3446,1704;0,0636389
3447,1345;0,0632011
3448,0989;0,062729
3449,0630;0,0622555
3450,0273;0,0618092
3450,9915;0,061402
3451,9558;0,0610297
3452,9199;0,0606792
3453,8843;0,0603381
3454,8484;0,0600005
3455,8127;0,0596678
3456,7769;0,0593449
3457,7412;0,0590345
3458,7053;0,0587341
3459,6697;0,0584363
3460,6338;0,0581317
3461,5981;0,0578125
3462,5623;0,0574749
3463,5266;0,0571181
3464,4907;0,0567423
3465,4551;0,0563477
3466,4192;0,0559364
3467,3835;0,0555155
3468,3477;0,0550986
3469,3120;0,0547013
3470,2761;0,0543332
3471,2405;0,0539914
3472,2046;0,0536608
3473,1689;0,0533238
3474,1331;0,0529742
3475,0974;0,0526243
3476,0615;0,0522995
3477,0259;0,05202
3477,9900;0,0517844
3478,9543;0,0515646
3479,9185;0,0513176
3480,8828;0,0510087
3481,8469;0,0506337
3482,8113;0,0502208
3483,7754;0,0498097
3484,7397;0,0494249
3485,7039;0,0490633
3486,6682;0,0487017
3487,6323;0,0483169
3488,5967;0,0479046
3489,5608;0,0474847
3490,5251;0,0470884
3491,4893;0,0467386
3492,4536;0,0464362
3493,4177;0,0461613
3494,3821;0,0458871
3495,3462;0,0455991
3496,3105;0,0453076
3497,2747;0,045043
3498,2390;0,0448324
3499,2031;0,0446769
3500,1675;0,0445403
3501,1316;0,0443581
3502,0959;0,0440686
3503,0601;0,0436552
3504,0244;0,0431645
3504,9885;0,0426761
3505,9529;0,0422499
3506,9170;0,0418958
3507,8813;0,0415778
3508,8455;0,0412395
3509,8098;0,0408388
3510,7739;0,0403738
3511,7383;0,0398811
3512,7024;0,0394087
3513,6667;0,0389884
3514,6309;0,038629
3515,5952;0,0383236
3516,5593;0,0380632
3517,5237;0,037845
3518,4878;0,0376717
3519,4521;0,0375429
3520,4163;0,0374461
3521,3806;0,0373543
3522,3447;0,0372325
3523,3091;0,0370519
3524,2732;0,0367995
3525,2375;0,0364761
3526,2017;0,0360844
3527,1660;0,0356241
3528,1301;0,0350993
3529,0945;0,0345323
3530,0586;0,0339662
3531,0229;0,0334475
3531,9871;0,0330058
3532,9514;0,0326423
3533,9155;0,0323319
3534,8799;0,0320346
3535,8440;0,0317164
3536,8083;0,0313709
3537,7725;0,031028
3538,7368;0,0307392
3539,7009;0,0305497
3540,6653;0,0304759
3541,6294;0,0304956
3542,5938;0,0305437
3543,5579;0,0305186
3544,5222;0,0303185
3545,4863;0,0299043
3546,4507;0,0293384
3547,4148;0,0287447
3548,3792;0,0282235
3549,3433;0,0278028
3550,3076;0,0274466
3551,2717;0,0270917
3552,2361;0,0266895
3553,2002;0,026239
3554,1646;0,0257855
3555,1287;0,0253872
3556,0930;0,0250798
3557,0571;0,02487
3558,0215;0,0247474
3558,9856;0,0246971
3559,9500;0,0247074
3560,9141;0,0247698
3561,8784;0,024873
3562,8425;0,0249936
3563,8069;0,0250797
3564,7710;0,0250211
3565,7354;0,0246528
3566,6995;0,0238827
3567,6638;0,0228596
3568,6279;0,0218926
3569,5923;0,0211812
3570,5564;0,0207189
3571,5208;0,0204007
3572,4849;0,0201349
3573,4492;0,0198797
3574,4133;0,019629
3575,3777;0,0193899
3576,3418;0,0191694
3577,3062;0,0189737
3578,2703;0,0188117
3579,2346;0,0186968
3580,1987;0,0186396
3581,1631;0,0186376
3582,1272;0,0186713
3583,0916;0,0187126
3584,0557;0,0187337
3585,0200;0,0186956
3585,9841;0,0185326
3586,9485;0,0182036
3587,9126;0,0177983
3588,8770;0,0175067
3589,8411;0,0174386
3590,8054;0,0175465
3591,7695;0,0177027
3592,7339;0,0177877
3593,6980;0,0177319
3594,6624;0,0175347
3595,6265;0,0172615
3596,5908;0,0169919
3597,5549;0,0167504
3598,5193;0,0164918
3599,4834;0,01615
3600,4478;0,0157046
3601,4119;0,0152076
3602,3762;0,0147404
3603,3403;0,0143473
3604,3047;0,0140106
3605,2688;0,0136655
3606,2332;0,0132305
3607,1973;0,0126505
3608,1616;0,0119551
3609,1257;0,0112728
3610,0901;0,0107599
3611,0542;0,0105036
3612,0186;0,0104833
3612,9827;0,0105961
3613,9470;0,0107113
3614,9111;0,0107252
3615,8755;0,0105928
3616,8396;0,0103318
3617,8040;0,0100096
3618,7681;0,00972862
3619,7324;0,00960717
3620,6965;0,00972329
3621,6609;0,010039
3622,6250;0,0103974
3623,5894;0,0106102
3624,5535;0,0105556
3625,5178;0,0102216
3626,4819;0,00967527
3627,4463;0,00898369
3628,4104;0,00820822
3629,3748;0,00750621
3630,3389;0,00705039
3631,3032;0,0068063
3632,2673;0,00656985
3633,2317;0,00617006
3634,1958;0,0055765
3635,1602;0,00487891
3636,1243;0,00420368
3637,0886;0,00363454
3638,0527;0,00318711
3639,0171;0,0028394
3639,9812;0,00257414
3640,9456;0,0023906
3641,9097;0,00228366
3642,8740;0,00222388
3643,8381;0,00217109
3644,8025;0,00211682
3645,7666;0,00210334
3646,7310;0,00213753
3647,6951;0,0020051
3648,6594;0,00134999
3649,6235;0,00025621
3650,5879;-0,000718619
3651,5520;-0,00128509
3652,5164;-0,00159427
3653,4805;-0,00188752
3654,4448;-0,00227132
3655,4089;-0,00270179
3656,3733;-0,00306428
3657,3374;-0,00327155
3658,3018;-0,00332902
3659,2659;-0,00332188
3660,2302;-0,00333596
3661,1943;-0,00339045
3662,1587;-0,00344084
3663,1228;-0,00343877
3664,0872;-0,00338716
3665,0513;-0,00332904
3666,0156;-0,00328943
3666,9797;-0,00323405
3667,9441;-0,00311232
3668,9082;-0,00295006
3669,8726;-0,00284871
3670,8367;-0,00287713
3671,8010;-0,0030297
3672,7651;-0,0032556
3673,7295;-0,00347692
3674,6936;-0,00363235
3675,6580;-0,00371348
3676,6221;-0,00371348
3677,5864;-0,00361749
3678,5505;-0,00347079
3679,5149;-0,00334933
3680,4790;-0,00327528
3681,4434;-0,00320957
3682,4075;-0,00311639
3683,3718;-0,00301679
3684,3359;-0,00297076
3685,3003;-0,00300107
3686,2644;-0,00303051
3687,2288;-0,00291305
3688,1929;-0,002577
3689,1572;-0,00212795
3690,1213;-0,00172463
3691,0857;-0,00141718
3692,0498;-0,0011868
3693,0142;-0,0010219
3693,9783;-0,000916022
3694,9426;-0,000856911
3695,9067;-0,000837111
3696,8711;-0,000860449
3697,8352;-0,000927427
3698,7996;-0,00101304
3699,7637;-0,00106369
3700,7280;-0,0010237
3701,6921;-0,000869998
3702,6565;-0,000624786
3703,6206;-0,000344669
3704,5850;-0,000100614
3705,5491;4,88454E-05
3706,5134;8,1621E-05
3707,4775;7,0347E-06
3708,4419;-0,000189477
3709,4060;-0,000617918
3710,3704;-0,00142558
3711,3345;-0,00253515
3712,2988;-0,00355306
3713,2629;-0,00411355
3714,2273;-0,00415623
3715,1914;-0,00383215
3716,1558;-0,0033076
3717,1199;-0,00267197
3718,0842;-0,00194746
3719,0483;-0,00114117
3720,0127;-0,000287156
3720,9768;0,000549348
3721,9412;0,00129566
3722,9053;0,00189359
3723,8696;0,00230655
3724,8337;0,00252361
3725,7981;0,00256285
3726,7622;0,00245874
3727,7266;0,00223972
3728,6907;0,00192735
3729,6550;0,00156238
3730,6191;0,00122359
3731,5835;0,00100058
3732,5476;0,000907781
3733,5120;0,000799327
3734,4761;0,000451255
3735,4404;-0,00015428
3736,4045;-0,000746795
3737,3689;-0,00110542
3738,3330;-0,00131197
3739,2974;-0,00163914
3740,2615;-0,00231855
3741,2258;-0,00338731
3742,1899;-0,00463627
3743,1543;-0,00567785
3744,1184;-0,00615719
3745,0828;-0,00599846
3746,0469;-0,00545488
3747,0112;-0,00490835
3747,9753;-0,00463628
3748,9397;-0,00473414
3749,9038;-0,00515825
3750,8682;-0,00572683
3751,8323;-0,00612374
3752,7966;-0,00614279
3753,7607;-0,00588514
3754,7251;-0,00560233
3755,6892;-0,0054709
3756,6536;-0,00552777
3757,6177;-0,00571714
3758,5820;-0,00594905
3759,5461;-0,00613277
3760,5105;-0,00621092
3761,4746;-0,00618839
3762,4390;-0,00611732
3763,4031;-0,00605495
3764,3674;-0,00603767
3765,3315;-0,00607928
3766,2959;-0,00617721
3767,2600;-0,00631713
3768,2244;-0,00647742
3769,1885;-0,00663247
3770,1528;-0,00675147
3771,1169;-0,00680473
3772,0813;-0,00678453
3773,0454;-0,0067205
3774,0098;-0,00666273
3774,9739;-0,00664452
3775,9382;-0,00665989
3776,9023;-0,00667681
3777,8667;-0,00666963
3778,8308;-0,00662847
3779,7952;-0,00654357
3780,7593;-0,00640665
3781,7236;-0,00623453
3782,6877;-0,0060766
3783,6521;-0,00599609
3784,6162;-0,00604
3785,5806;-0,00620998
3786,5447;-0,00645409
3787,5090;-0,00669157
3788,4731;-0,00685703
3789,4375;-0,00692921
3790,4016;-0,00692393
3791,3660;-0,00686146
3792,3301;-0,00673703
3793,2944;-0,00652179
3794,2585;-0,00619923
3795,2229;-0,00580785
3796,1870;-0,00544389
3797,1514;-0,00521098
3798,1155;-0,00515852
3799,0798;-0,00526205
3800,0439;-0,00545713
3801,0083;-0,00568517
3801,9724;-0,00591272
3802,9368;-0,00614513
3803,9009;-0,00642996
3804,8652;-0,00680421
3805,8293;-0,0072185
3806,7937;-0,00752587
3807,7578;-0,00757037
3808,7222;-0,00732181
3809,6863;-0,00692677
3810,6506;-0,00660836
3811,6147;-0,0065079
3812,5791;-0,0065945
3813,5432;-0,00669146
3814,5076;-0,00660638
3815,4717;-0,00627977
3816,4360;-0,00582271
3817,4001;-0,00542419
3818,3645;-0,00524082
3819,3286;-0,00533986
3820,2930;-0,00567021
3821,2571;-0,00605533
3822,2214;-0,00628415
3823,1855;-0,00627531
3824,1499;-0,00612147
3825,1140;-0,00597727
3826,0784;-0,00594123
3827,0425;-0,00601682
3828,0068;-0,00613775
3828,9709;-0,00621993
3829,9353;-0,00620965
3830,8994;-0,00610708
3831,8638;-0,00595898
3832,8279;-0,00582769
3833,7922;-0,00575273
3834,7563;-0,00572685
3835,7207;-0,00570702
3836,6848;-0,00566078
3837,6492;-0,00560821
3838,6133;-0,00560428
3839,5776;-0,00568339
3840,5417;-0,00584153
3841,5061;-0,00605391
3842,4702;-0,006273
3843,4346;-0,00641816
3844,3987;-0,00640157
3845,3630;-0,00619168
3846,3271;-0,0058627
3847,2915;-0,00558104
3848,2556;-0,00553197
3849,2200;-0,00582923
3850,1841;-0,00645146
3851,1484;-0,00725046
3852,1125;-0,00805
3853,0769;-0,00867538
3854,0410;-0,00883957
3855,0054;-0,00836756
3855,9695;-0,00750182
3856,9338;-0,00666565
3857,8979;-0,00613259
3858,8623;-0,00594156
3859,8264;-0,0059604
3860,7908;-0,00599885
3861,7549;-0,00593299
3862,7192;-0,00578045
3863,6833;-0,00565434
3864,6477;-0,00564178
3865,6118;-0,00574408
3866,5762;-0,00590274
3867,5403;-0,00604163
3868,5046;-0,00610374
3869,4688;-0,00608646
3870,4331;-0,0060463
3871,3972;-0,00605064
3872,3616;-0,00612416
3873,3257;-0,00624789
3874,2900;-0,006393
3875,2542;-0,0065382
3876,2185;-0,00665803
3877,1826;-0,00670959
3878,1470;-0,0066448
3879,1111;-0,00645484
3880,0754;-0,00620757
3881,0396;-0,00602557
3882,0039;-0,00601239
3882,9680;-0,00619256
3883,9324;-0,00650201
3884,8965;-0,00682075
3885,8608;-0,00703465
3886,8250;-0,00709836
3887,7893;-0,00704904
3888,7534;-0,00695518
3889,7178;-0,00685573
3890,6819;-0,0067467
3891,6462;-0,00660654
3892,6104;-0,00642152
3893,5747;-0,00620958
3894,5388;-0,0060298
3895,5032;-0,00594295
3896,4673;-0,00595575
3897,4316;-0,00601366
3898,3958;-0,00605207
3899,3601;-0,00605225
3900,3242;-0,00604787
3901,2886;-0,00608729
3902,2527;-0,00620355
3903,2170;-0,00640041
3904,1812;-0,00664207
3905,1455;-0,00686835
3906,1096;-0,00703861
3907,0740;-0,0071536
3908,0381;-0,00723256
3909,0024;-0,00728208
3909,9666;-0,00729027
3910,9309;-0,0072439
3911,8950;-0,00714574
3912,8594;-0,00701635
3913,8235;-0,00688287
3914,7878;-0,00676907
3915,7520;-0,00669301
3916,7163;-0,00666201
3917,6804;-0,00665828
3918,6448;-0,00663851
3919,6089;-0,00656512
3920,5732;-0,00644034
3921,5374;-0,0063045
3922,5017;-0,00620937
3923,4658;-0,00618885
3924,4302;-0,00623704
3925,3943;-0,00630815
3926,3586;-0,00634866
3927,3228;-0,00633534
3928,2871;-0,0062851
3929,2512;-0,00624025
3930,2156;-0,00624903
3931,1797;-0,00634184
3932,1440;-0,00650581
3933,1082;-0,00668639
3934,0725;-0,00682702
3935,0366;-0,00690548
3936,0010;-0,00693314
3936,9651;-0,00693073
3937,9294;-0,00690904
3938,8936;-0,00686629
3939,8579;-0,00679837
3940,8220;-0,00671084
3941,7864;-0,00662027
3942,7505;-0,00654213
3943,7148;-0,00647843
3944,6790;-0,00642214
3945,6433;-0,00637022
3946,6074;-0,0063322
3947,5718;-0,00632928
3948,5359;-0,00638347
3949,5002;-0,00649967
3950,4644;-0,00665544
3951,4287;-0,00681268
3952,3928;-0,00694022
3953,3572;-0,00702595
3954,3213;-0,00707385
3955,2856;-0,00709472
3956,2498;-0,0070979
3957,2141;-0,00708758
3958,1782;-0,00706506
3959,1426;-0,00703488
3960,1067;-0,00700902
3961,0710;-0,00700381
3962,0352;-0,00703019
3962,9995;-0,00708476
3963,9636;-0,00715031
3964,9280;-0,00720441
3965,8921;-0,0072314
3966,8564;-0,00722798
3967,8206;-0,00720178
3968,7849;-0,0071646
3969,7490;-0,00712569
3970,7134;-0,00708944
3971,6775;-0,00705857
3972,6418;-0,00703835
3973,6060;-0,00703706
3974,5703;-0,00706135
3975,5344;-0,00711029
3976,4988;-0,00717346
3977,4629;-0,00723533
3978,4272;-0,00728276
3979,3914;-0,00731087
3980,3557;-0,00732408
3981,3198;-0,0073325
3982,2842;-0,00734533
3983,2483;-0,00736533
3984,2126;-0,00738727
3985,1768;-0,00740131
3986,1411;-0,00739861
3987,1052;-0,00737635
3988,0696;-0,00733961
3989,0337;-0,00729868
3989,9980;-0,00726536
3990,9622;-0,00724829
3991,9265;-0,00725107
3992,8906;-0,00727311
3993,8550;-0,00731134
3994,8191;-0,007361
3995,7834;-0,00741535
3996,7476;-0,00746581
3997,7119;-0,00750367
3998,6760;-0,00752303
3999,6404;-0,00752309
4000,6045;-0,00704053

##### Extended Information
[Comments]
Sample name
Comment
Username
Division
Organization;UNIVERSIDAD INDUSTRIAL DE SANTANDER

[Detailed Information]
Creation date;5/02/2025 11:44 a.m.

Data array type;Linear data array
Horizontal axis;Wavenumber [cm-1]
Vertical axis;Abs
Start;399,193 cm-1
End;4000,6 cm-1
Data interval;0,964233 cm-1
Data points;3736    

[Measurement Information]
Model name;FT/IR-4X1typeA
Serial No.;A035162111

Accessory;ATR PRO 4X
Accessory S/N;A021162126
Incident angle;45 deg

Measurement date;5/02/2025 11:44 a.m.

Light source;Standard
Detector;TGS
Accumulation;Auto (79)
Resolution;4 cm-1
Zero filling;On
Apodization;Cosine
Gain;Auto (8)
Aperture;Auto (7 mm)
Scan speed;Auto (2 mm/sec)
Filter;Auto (12800 Hz)

