TITLE;
DATA TYPE;INFRARED SPECTRUM
ORIGIN;JASCO
OWNER;
DATE;25/02/04
TIME;14:26:35
SPECTROMETER/DATA SYSTEM;
LOCALE;9226
RESOLUTION;
DELTAX;0,964233
XUNITS;1/CM
YUNITS;ABSORBANCE
FIRSTX;  399,1927
LASTX; 4000,6047
NPOINTS;    3736
FIRSTY;     0,13250
MAXY;     0,18376
MINY;     0,01102
XYDATA
399,1927;0,132504
400,1569;0,132231
401,1211;0,132378
402,0854;0,132816
403,0496;0,133347
404,0138;0,133811
404,9781;0,134096
405,9423;0,134116
406,9065;0,133798
407,8708;0,133107
408,8350;0,132096
409,7992;0,130964
410,7635;0,130041
411,7277;0,129662
412,6919;0,129984
413,6562;0,130918
414,6204;0,132207
415,5846;0,133557
416,5489;0,134687
417,5131;0,135346
418,4773;0,1354
419,4416;0,13501
420,4058;0,134571
421,3700;0,134383
422,3343;0,134511
423,2985;0,13488
424,2627;0,13537
425,2270;0,135856
426,1912;0,136235
427,1554;0,136458
428,1197;0,136543
429,0839;0,13656
430,0481;0,136598
431,0124;0,136735
431,9766;0,137027
432,9408;0,137491
433,9051;0,138092
434,8693;0,138735
435,8335;0,139279
436,7978;0,139585
437,7620;0,13959
438,7262;0,139351
439,6905;0,139015
440,6547;0,138752
441,6189;0,138664
442,5832;0,138719
443,5474;0,138758
444,5116;0,138598
445,4759;0,138178
446,4401;0,137593
447,4043;0,137034
448,3686;0,136661
449,3328;0,136527
450,2970;0,136566
451,2613;0,136656
452,2255;0,136704
453,1897;0,136701
454,1540;0,136709
455,1182;0,136812
456,0824;0,137055
457,0467;0,137404
458,0109;0,137752
458,9751;0,137967
459,9394;0,137966
460,9036;0,137745
461,8678;0,137356
462,8321;0,136886
463,7963;0,136442
464,7605;0,13613
465,7248;0,136015
466,6890;0,136079
467,6532;0,136226
468,6175;0,136334
469,5817;0,136329
470,5459;0,136224
471,5102;0,136121
472,4744;0,136142
473,4386;0,136336
474,4029;0,136637
475,3671;0,136909
476,3313;0,13703
477,2956;0,136956
478,2598;0,136726
479,2240;0,136439
480,1883;0,136203
481,1525;0,136094
482,1167;0,136129
483,0810;0,13628
484,0452;0,136505
485,0094;0,136777
485,9737;0,137097
486,9379;0,13747
487,9021;0,137891
488,8664;0,138324
489,8306;0,13871
490,7948;0,138986
491,7591;0,13911
492,7233;0,139086
493,6875;0,138959
494,6518;0,1388
495,6160;0,138675
496,5802;0,138624
497,5445;0,138658
498,5087;0,138755
499,4729;0,138877
500,4372;0,138982
501,4014;0,13904
502,3656;0,13905
503,3299;0,139043
504,2941;0,139058
505,2583;0,139128
506,2226;0,139267
507,1868;0,139466
508,1510;0,139709
509,1153;0,139976
510,0795;0,140257
511,0437;0,140555
512,0080;0,14088
512,9722;0,141239
513,9365;0,141625
514,9007;0,142012
515,8649;0,142361
516,8292;0,142632
517,7934;0,142807
518,7576;0,142902
519,7219;0,142955
520,6861;0,142999
521,6503;0,143043
522,6146;0,143073
523,5788;0,143068
524,5430;0,143024
525,5073;0,142959
526,4715;0,14291
527,4357;0,142899
528,4000;0,142917
529,3642;0,142925
530,3284;0,142877
531,2927;0,142748
532,2569;0,14255
533,2211;0,142318
534,1854;0,142099
535,1496;0,14192
536,1138;0,141783
537,0781;0,141672
538,0423;0,141574
539,0065;0,141489
539,9708;0,141429
540,9350;0,141408
541,8992;0,141429
542,8635;0,141481
543,8277;0,141552
544,7919;0,141633
545,7562;0,141733
546,7204;0,141869
547,6846;0,142061
548,6489;0,142317
549,6131;0,142627
550,5773;0,142962
551,5416;0,143281
552,5058;0,143554
553,4700;0,143766
554,4343;0,143928
555,3985;0,144061
556,3627;0,144176
557,3270;0,144258
558,2912;0,144252
559,2554;0,144088
560,2197;0,143704
561,1839;0,143084
562,1481;0,142265
563,1124;0,141333
564,0766;0,140387
565,0408;0,139512
566,0051;0,138758
566,9693;0,138133
567,9335;0,137614
568,8978;0,137168
569,8620;0,136769
570,8262;0,136411
571,7905;0,136107
572,7547;0,135875
573,7189;0,135722
574,6832;0,135637
575,6474;0,135586
576,6116;0,135529
577,5759;0,135438
578,5401;0,135309
579,5043;0,135155
580,4686;0,134998
581,4328;0,134854
582,3970;0,134733
583,3613;0,134638
584,3255;0,134568
585,2897;0,134514
586,2540;0,134461
587,2182;0,134397
588,1824;0,13432
589,1467;0,134245
590,1109;0,1342
591,0751;0,134201
592,0394;0,134236
593,0036;0,134263
593,9678;0,134228
594,9321;0,134098
595,8963;0,133879
596,8605;0,133603
597,8248;0,133303
598,7890;0,132997
599,7532;0,132681
600,7175;0,132343
601,6817;0,131985
602,6459;0,131628
603,6102;0,1313
604,5744;0,13102
605,5386;0,130777
606,5029;0,13054
607,4671;0,130266
608,4313;0,129926
609,3956;0,129514
610,3598;0,129052
611,3240;0,128581
612,2883;0,128146
613,2525;0,127777
614,2167;0,127474
615,1810;0,127198
616,1452;0,126877
617,1094;0,126435
618,0737;0,125829
619,0379;0,125078
620,0021;0,124249
620,9664;0,123423
621,9306;0,122654
622,8948;0,121953
623,8591;0,121299
624,8233;0,120641
625,7875;0,120004
626,7518;0,119394
627,7160;0,118835
628,6802;0,118343
629,6445;0,117916
630,6087;0,117538
631,5729;0,117183
632,5372;0,116833
633,5014;0,116476
634,4656;0,116113
635,4299;0,115747
636,3941;0,115379
637,3583;0,11501
638,3226;0,114645
639,2868;0,11429
640,2510;0,113955
641,2153;0,113645
642,1795;0,113359
643,1437;0,113091
644,1080;0,112831
645,0722;0,112574
646,0364;0,112319
647,0007;0,112071
647,9649;0,111842
648,9291;0,111643
649,8934;0,111487
650,8576;0,111384
651,8218;0,111342
652,7861;0,111369
653,7503;0,111464
654,7145;0,111611
655,6788;0,111777
656,6430;0,111919
657,6072;0,112006
658,5715;0,112034
659,5357;0,112018
660,4999;0,11197
661,4642;0,111864
662,4284;0,111621
663,3926;0,111135
664,3569;0,110328
665,3211;0,109226
666,2853;0,108019
667,2496;0,107013
668,2138;0,106415
669,1780;0,106178
670,1423;0,106159
671,1065;0,106159
672,0707;0,105943
673,0350;0,105367
673,9992;0,104439
674,9634;0,103281
675,9277;0,102058
676,8919;0,100897
677,8561;0,0998527
678,8204;0,0989212
679,7846;0,0980884
680,7488;0,0973486
681,7131;0,0966999
682,6773;0,0961256
683,6415;0,0955987
684,6058;0,0950973
685,5700;0,0946173
686,5342;0,0941688
687,4985;0,0937625
688,4627;0,0934039
689,4269;0,0930836
690,3912;0,0927903
691,3554;0,0925145
692,3196;0,0922461
693,2839;0,0919741
694,2481;0,0916904
695,2123;0,0913957
696,1766;0,0911008
697,1408;0,0908196
698,1050;0,0905596
699,0693;0,0903174
700,0335;0,0900821
700,9977;0,0898427
701,9620;0,0895919
702,9262;0,0893255
703,8904;0,0890308
704,8547;0,0887027
705,8189;0,0883374
706,7831;0,0879383
707,7474;0,0875168
708,7116;0,0870875
709,6758;0,0866615
710,6401;0,0862416
711,6043;0,0858226
712,5685;0,0853969
713,5328;0,0849606
714,4970;0,0845167
715,4612;0,0836579
716,4255;0,083306
717,3897;0,0829869
718,3539;0,0826591
719,3182;0,0822644
720,2824;0,0817562
721,2466;0,0811274
722,2109;0,080414
723,1751;0,0796734
724,1393;0,0789557
725,1036;0,0782882
726,0678;0,0776763
727,0320;0,077113
727,9963;0,0765863
728,9605;0,0760836
729,9247;0,0755926
730,8890;0,0751043
731,8532;0,0746169
732,8174;0,0741393
733,7817;0,0736877
734,7459;0,0732768
735,7101;0,072911
736,6744;0,0725814
737,6386;0,0722714
738,6028;0,0719666
739,5671;0,0716628
740,5313;0,0713645
741,4955;0,0710768
742,4598;0,0707974
743,4240;0,0705137
744,3882;0,0702087
745,3525;0,0698704
746,3167;0,0694978
747,2809;0,0691006
748,2452;0,0686937
749,2094;0,0682912
750,1736;0,0679044
751,1379;0,0675412
752,1021;0,0672066
753,0663;0,0669006
754,0306;0,0666151
754,9948;0,0663343
755,9590;0,0660411
756,9233;0,0657247
757,8875;0,0653863
758,8517;0,0650382
759,8160;0,0646965
760,7802;0,0643726
761,7444;0,0640701
762,7087;0,0637863
763,6729;0,0635183
764,6371;0,063267
765,6014;0,0630375
766,5656;0,0628364
767,5298;0,0626664
768,4941;0,0625235
769,4583;0,0623964
770,4225;0,0622695
771,3868;0,0621278
772,3510;0,0619618
773,3152;0,0617707
774,2795;0,0615612
775,2437;0,0613429
776,2079;0,0611234
777,1722;0,0609053
778,1364;0,0606873
779,1006;0,0604671
780,0649;0,0602446
781,0291;0,0600219
781,9933;0,0598014
782,9576;0,0595825
783,9218;0,0593611
784,8860;0,0591317
785,8503;0,0588917
786,8145;0,0586447
787,7787;0,058401
788,7430;0,0581753
789,7072;0,057982
790,6714;0,0578297
791,6357;0,0577184
792,5999;0,0576395
793,5641;0,0575781
794,5284;0,0575172
795,4926;0,0574411
796,4568;0,0573393
797,4211;0,0572092
798,3853;0,0570588
799,3495;0,0569054
800,3138;0,056771
801,2780;0,056673
802,2422;0,0566151
803,2065;0,0565834
804,1707;0,0565533
805,1349;0,0565017
806,0992;0,0564211
807,0634;0,0563236
808,0276;0,0562336
808,9919;0,0561724
809,9561;0,0561456
810,9203;0,0561401
811,8846;0,0561328
812,8488;0,0561049
813,8130;0,0560521
814,7773;0,0559857
815,7415;0,0559246
816,7057;0,055884
817,6700;0,0558675
818,6342;0,0558668
819,5984;0,0558677
820,5627;0,0558584
821,5269;0,0558361
822,4911;0,0558069
823,4554;0,0557819
824,4196;0,0557698
825,3839;0,0557719
826,3481;0,0557826
827,3123;0,0557929
828,2766;0,0557956
829,2408;0,055788
830,2050;0,0557698
831,1693;0,0557393
832,1335;0,0556909
833,0977;0,0556159
834,0620;0,0555069
835,0262;0,0553624
835,9904;0,0551887
836,9547;0,054999
837,9189;0,0548091
838,8831;0,0546334
839,8474;0,0544814
840,8116;0,0543579
841,7758;0,0542631
842,7401;0,0541957
843,7043;0,0541541
844,6685;0,054137
845,6328;0,0541415
846,5970;0,0541622
847,5612;0,0541905
848,5255;0,0542171
849,4897;0,054235
850,4539;0,054242
851,4182;0,0542392
852,3824;0,0542269
853,3466;0,054203
854,3109;0,0541628
855,2751;0,0541037
856,2393;0,0540288
857,2036;0,0539466
858,1678;0,0538669
859,1320;0,0537955
860,0963;0,0537318
861,0605;0,0536721
862,0247;0,0536149
862,9890;0,0535652
863,9532;0,053533
864,9174;0,0535285
865,8817;0,0535571
866,8459;0,0536171
867,8101;0,0537023
868,7744;0,0538063
869,7386;0,0539251
870,7028;0,0540566
871,6671;0,0541979
872,6313;0,054343
873,5955;0,0544831
874,5598;0,0546097
875,5240;0,0547195
876,4882;0,0548178
877,4525;0,0549173
878,4167;0,0550343
879,3809;0,0551829
880,3452;0,0553715
881,3094;0,0556036
882,2736;0,0558804
883,2379;0,0562042
884,2021;0,0565792
885,1663;0,0570087
886,1306;0,0574926
887,0948;0,0580272
888,0590;0,0586062
889,0233;0,0592228
889,9875;0,0598681
890,9517;0,0605281
891,9160;0,0611808
892,8802;0,0617981
893,8444;0,062351
894,8087;0,0628173
895,7729;0,0631834
896,7371;0,0634416
897,7014;0,0635845
898,6656;0,0636031
899,6298;0,0634909
900,5941;0,0632525
901,5583;0,0629088
902,5225;0,062496
903,4868;0,062056
904,4510;0,0616257
905,4152;0,0612306
906,3795;0,0608851
907,3437;0,0605982
908,3079;0,0603775
909,2722;0,0602298
910,2364;0,0601574
911,2007;0,060155
912,1649;0,0602096
913,1292;0,0603046
914,0934;0,0604259
915,0576;0,0605664
916,0219;0,0607276
916,9861;0,0609174
917,9503;0,0611452
918,9146;0,0614161
919,8788;0,0617251
920,8430;0,0620559
921,8073;0,0623832
922,7715;0,0626812
923,7357;0,0629324
924,7000;0,0631342
925,6642;0,0632985
926,6284;0,063444
927,5927;0,0635872
928,5569;0,0637351
929,5211;0,063885
930,4854;0,0640294
931,4496;0,0641632
932,4138;0,0642898
933,3781;0,0644214
934,3423;0,0645766
935,3065;0,0647736
936,2708;0,0650245
937,2350;0,0653313
938,1992;0,0656866
939,1635;0,066079
940,1277;0,0665009
941,0919;0,0669536
942,0562;0,0674475
943,0204;0,0679959
943,9846;0,0686081
944,9489;0,0692849
945,9131;0,0700201
946,8773;0,0708061
947,8416;0,0716392
948,8058;0,0725204
949,7700;0,0734541
950,7343;0,0744438
951,6985;0,0754914
952,6627;0,0765973
953,6270;0,0777608
954,5912;0,0789794
955,5554;0,0802477
956,5197;0,0815577
957,4839;0,0829016
958,4481;0,0842755
959,4124;0,0856802
960,3766;0,0871186
961,3408;0,0885907
962,3051;0,090089
963,2693;0,0916012
964,2335;0,0931149
965,1978;0,0946256
966,1620;0,0961403
967,1262;0,0976761
968,0905;0,0992554
969,0547;0,100901
970,0189;0,102634
970,9832;0,104471
971,9474;0,106429
972,9116;0,108524
973,8759;0,11077
974,8401;0,113181
975,8043;0,115762
976,7686;0,118512
977,7328;0,121412
978,6970;0,124425
979,6613;0,127485
980,6255;0,130506
981,5897;0,13339
982,5540;0,136045
983,5182;0,138405
984,4824;0,140442
985,4467;0,142166
986,4109;0,143614
987,3751;0,144837
988,3394;0,14588
989,3036;0,146779
990,2678;0,147558
991,2321;0,148236
992,1963;0,148827
993,1605;0,14935
994,1248;0,149826
995,0890;0,150277
996,0532;0,150722
997,0175;0,151176
997,9817;0,151646
998,9459;0,152133
999,9102;0,152636
1000,8744;0,153157
1001,8386;0,153707
1002,8029;0,154304
1003,7671;0,154968
1004,7313;0,155722
1005,6956;0,156585
1006,6598;0,157571
1007,6240;0,158687
1008,5883;0,15993
1009,5525;0,161284
1010,5167;0,162723
1011,4810;0,164212
1012,4452;0,165712
1013,4094;0,167196
1014,3737;0,168646
1015,3379;0,170058
1016,3021;0,171431
1017,2664;0,172763
1018,2306;0,174043
1019,1948;0,175256
1020,1591;0,176387
1021,1233;0,177428
1022,0875;0,178384
1023,0518;0,179269
1024,0160;0,1801
1024,9802;0,180886
1025,9445;0,181626
1026,9087;0,182307
1027,8729;0,182903
1028,8372;0,183376
1029,8014;0,183679
1030,7656;0,183758
1031,7299;0,183557
1032,6941;0,183036
1033,6583;0,182177
1034,6226;0,181007
1035,5868;0,179593
1036,5510;0,17804
1037,5153;0,176469
1038,4795;0,174994
1039,4437;0,173701
1040,4080;0,172639
1041,3722;0,171818
1042,3364;0,17122
1043,3007;0,170806
1044,2649;0,170527
1045,2291;0,170328
1046,1934;0,170152
1047,1576;0,169944
1048,1218;0,16966
1049,0861;0,169268
1050,0503;0,168752
1051,0145;0,1681
1051,9788;0,167308
1052,9430;0,166373
1053,9072;0,165299
1054,8715;0,164087
1055,8357;0,162737
1056,7999;0,161231
1057,7642;0,159534
1058,7284;0,157603
1059,6926;0,155407
1060,6569;0,15296
1061,6211;0,150324
1062,5853;0,147608
1063,5496;0,144934
1064,5138;0,142408
1065,4780;0,140088
1066,4423;0,137989
1067,4065;0,136089
1068,3707;0,134353
1069,3350;0,132745
1070,2992;0,131237
1071,2634;0,129802
1072,2277;0,128408
1073,1919;0,127023
1074,1561;0,125613
1075,1204;0,124158
1076,0846;0,122654
1077,0488;0,121118
1078,0131;0,119586
1078,9773;0,118101
1079,9415;0,116708
1080,9058;0,115443
1081,8700;0,114326
1082,8342;0,113361
1083,7985;0,112536
1084,7627;0,111826
1085,7269;0,111207
1086,6912;0,110663
1087,6554;0,110188
1088,6196;0,109792
1089,5839;0,109487
1090,5481;0,109282
1091,5123;0,109174
1092,4766;0,109152
1093,4408;0,109198
1094,4050;0,109299
1095,3693;0,109449
1096,3335;0,10965
1097,2977;0,109907
1098,2620;0,110218
1099,2262;0,110568
1100,1904;0,110929
1101,1547;0,111261
1102,1189;0,111524
1103,0831;0,111689
1104,0474;0,111744
1105,0116;0,111695
1105,9758;0,111563
1106,9401;0,111368
1107,9043;0,111124
1108,8685;0,110819
1109,8328;0,110424
1110,7970;0,109901
1111,7612;0,109214
1112,7255;0,108357
1113,6897;0,107355
1114,6539;0,106264
1115,6182;0,105155
1116,5824;0,104092
1117,5466;0,103114
1118,5109;0,102224
1119,4751;0,101394
1120,4393;0,100574
1121,4036;0,0997052
1122,3678;0,0987316
1123,3320;0,0976086
1124,2963;0,0963093
1125,2605;0,0948285
1126,2247;0,0931818
1127,1890;0,0914013
1128,1532;0,0895274
1129,1174;0,0876008
1130,0817;0,0856577
1131,0459;0,083729
1132,0101;0,0818441
1132,9744;0,0800336
1133,9386;0,0783306
1134,9028;0,0767685
1135,8671;0,0753773
1136,8313;0,0741794
1137,7955;0,0731882
1138,7598;0,0724064
1139,7240;0,0718268
1140,6882;0,0714321
1141,6525;0,0711981
1142,6167;0,0710966
1143,5809;0,0711007
1144,5452;0,0711894
1145,5094;0,0713505
1146,4736;0,0715797
1147,4379;0,0718778
1148,4021;0,0722456
1149,3663;0,0726791
1150,3306;0,073166
1151,2948;0,0736847
1152,2590;0,0742071
1153,2233;0,0747015
1154,1875;0,0751368
1155,1517;0,0754828
1156,1160;0,0757087
1157,0802;0,0757784
1158,0444;0,0756489
1159,0087;0,0752712
1159,9729;0,0745974
1160,9371;0,0735909
1161,9014;0,0722368
1162,8656;0,0705486
1163,8298;0,0685695
1164,7941;0,0663684
1165,7583;0,0640318
1166,7225;0,0616529
1167,6868;0,0593205
1168,6510;0,0571085
1169,6152;0,0550682
1170,5795;0,0532265
1171,5437;0,0515903
1172,5079;0,0501537
1173,4722;0,0489052
1174,4364;0,0478313
1175,4006;0,0469168
1176,3649;0,0461436
1177,3291;0,0454915
1178,2933;0,0449413
1179,2576;0,0444788
1180,2218;0,0440956
1181,1860;0,0437868
1182,1503;0,0435466
1183,1145;0,0433662
1184,0787;0,0432355
1185,0430;0,0431476
1186,0072;0,0431035
1186,9714;0,043112
1187,9357;0,0431847
1188,8999;0,0433308
1189,8641;0,0435516
1190,8284;0,0438416
1191,7926;0,0441918
1192,7568;0,0445945
1193,7211;0,045045
1194,6853;0,0455409
1195,6495;0,0460795
1196,6138;0,0466557
1197,5780;0,0472611
1198,5422;0,0478854
1199,5065;0,0484692
1200,4707;0,0491054
1201,4349;0,0497318
1202,3992;0,0503424
1203,3634;0,0509334
1204,3276;0,0515038
1205,2919;0,0520543
1206,2561;0,0525879
1207,2203;0,0531102
1208,1846;0,053631
1209,1488;0,0541646
1210,1130;0,0547292
1211,0773;0,0553419
1212,0415;0,0560143
1213,0057;0,0567474
1213,9700;0,0575312
1214,9342;0,0583477
1215,8984;0,0591767
1216,8627;0,0599999
1217,8269;0,0608044
1218,7911;0,0615831
1219,7554;0,0623334
1220,7196;0,0630539
1221,6838;0,0637421
1222,6481;0,0643925
1223,6123;0,0649974
1224,5765;0,0655489
1225,5408;0,0660429
1226,5050;0,0664809
1227,4692;0,0668702
1228,4335;0,0672199
1229,3977;0,0675365
1230,3619;0,0678203
1231,3262;0,0680657
1232,2904;0,0682644
1233,2546;0,0684108
1234,2189;0,0685051
1235,1831;0,0685549
1236,1473;0,0685723
1237,1116;0,068569
1238,0758;0,0685532
1239,0400;0,0685275
1240,0043;0,0684901
1240,9685;0,0684365
1241,9327;0,0683615
1242,8970;0,0682588
1243,8612;0,0681213
1244,8254;0,0679419
1245,7897;0,067717
1246,7539;0,0674492
1247,7181;0,0671486
1248,6824;0,0668291
1249,6466;0,0665044
1250,6108;0,0661831
1251,5751;0,0658691
1252,5393;0,0655647
1253,5035;0,0652737
1254,4678;0,0650004
1255,4320;0,0647461
1256,3962;0,0645038
1257,3605;0,0642577
1258,3247;0,0639884
1259,2889;0,0636811
1260,2532;0,0633318
1261,2174;0,0629476
1262,1816;0,06254
1263,1459;0,0621172
1264,1101;0,0616801
1265,0743;0,0612229
1266,0386;0,0607381
1267,0028;0,0602198
1267,9670;0,0596658
1268,9313;0,0590776
1269,8955;0,0584587
1270,8597;0,0578147
1271,8240;0,0571524
1272,7882;0,0564797
1273,7524;0,0558052
1274,7167;0,055138
1275,6809;0,0544874
1276,6451;0,0538617
1277,6094;0,0532658
1278,5736;0,0526988
1279,5378;0,0521538
1280,5021;0,0516209
1281,4663;0,051093
1282,4305;0,0505699
1283,3948;0,0500594
1284,3590;0,0495742
1285,3232;0,0491269
1286,2875;0,0487264
1287,2517;0,0483773
1288,2159;0,0480816
1289,1802;0,0478402
1290,1444;0,0476532
1291,1086;0,04752
1292,0729;0,0474388
1293,0371;0,0474077
1294,0013;0,0474272
1294,9656;0,0475008
1295,9298;0,0476338
1296,8940;0,0478309
1297,8583;0,0480927
1298,8225;0,0484147
1299,7867;0,0487883
1300,7510;0,049204
1301,7152;0,049655
1302,6794;0,0501385
1303,6437;0,0506549
1304,6079;0,0512051
1305,5721;0,0517871
1306,5364;0,0523942
1307,5006;0,0530167
1308,4648;0,0536451
1309,4291;0,0542721
1310,3933;0,0548917
1311,3575;0,0554953
1312,3218;0,0560677
1313,2860;0,0565878
1314,2502;0,0570315
1315,2145;0,0573772
1316,1787;0,0576087
1317,1429;0,057718
1318,1072;0,0577091
1319,0714;0,0576002
1320,0356;0,0574229
1320,9999;0,057213
1321,9641;0,0570004
1322,9283;0,0568021
1323,8926;0,0566229
1324,8568;0,0564606
1325,8210;0,0563114
1326,7853;0,0561723
1327,7495;0,0560416
1328,7137;0,0559165
1329,6780;0,055791
1330,6422;0,0556563
1331,6064;0,055503
1332,5707;0,0553243
1333,5349;0,0551167
1334,4991;0,0548772
1335,4634;0,0545986
1336,4276;0,0542676
1337,3918;0,053869
1338,3561;0,0533997
1339,3203;0,052883
1340,2845;0,0523675
1341,2488;0,0519026
1342,2130;0,0515135
1343,1772;0,0511987
1344,1415;0,0509448
1345,1057;0,050741
1346,0699;0,0505863
1347,0342;0,0504878
1347,9984;0,0504563
1348,9626;0,0504997
1349,9269;0,0506177
1350,8911;0,0508007
1351,8553;0,0510325
1352,8196;0,051297
1353,7838;0,0515841
1354,7480;0,0518928
1355,7123;0,0522278
1356,6765;0,0525933
1357,6407;0,0529873
1358,6050;0,0534025
1359,5692;0,0538279
1360,5334;0,0542479
1361,4977;0,0546419
1362,4619;0,0549903
1363,4261;0,0552877
1364,3904;0,0555444
1365,3546;0,0557739
1366,3188;0,0559824
1367,2831;0,0561678
1368,2473;0,0563239
1369,2115;0,0564416
1370,1758;0,0565099
1371,1400;0,0565138
1372,1042;0,0564354
1373,0685;0,0562599
1374,0327;0,0559878
1374,9969;0,05564
1375,9612;0,055243
1376,9254;0,0548026
1377,8896;0,0542977
1378,8539;0,0537015
1379,8181;0,0530139
1380,7823;0,0522742
1381,7466;0,0515432
1382,7108;0,050863
1383,6750;0,050232
1384,6393;0,0496142
1385,6035;0,048975
1386,5677;0,0483233
1387,5320;0,0477254
1388,4962;0,0472619
1389,4604;0,0469633
1390,4247;0,0467979
1391,3889;0,0467094
1392,3531;0,0466548
1393,3174;0,0466168
1394,2816;0,0465977
1395,2458;0,0466061
1396,2101;0,0466469
1397,1743;0,0467216
1398,1385;0,0468334
1399,1028;0,0469888
1400,0670;0,0471916
1401,0313;0,0474373
1401,9955;0,0477141
1402,9597;0,0480099
1403,9240;0,04832
1404,8882;0,0486486
1405,8524;0,0490049
1406,8167;0,0493953
1407,7809;0,0498193
1408,7451;0,050273
1409,7094;0,0507562
1410,6736;0,0512726
1411,6378;0,0518224
1412,6021;0,0523943
1413,5663;0,0529656
1414,5305;0,0535097
1415,4948;0,0540033
1416,4590;0,0544261
1417,4232;0,0547571
1418,3875;0,0549843
1419,3517;0,0551255
1420,3159;0,0552151
1421,2802;0,0552575
1422,2444;0,0552173
1423,2086;0,0550549
1424,1729;0,0547603
1425,1371;0,0543565
1426,1013;0,0538715
1427,0656;0,0533097
1428,0298;0,0526527
1428,9940;0,0518958
1429,9583;0,0510851
1430,9225;0,0503042
1431,8867;0,0496099
1432,8510;0,048986
1433,8152;0,0483575
1434,7794;0,0476477
1435,7437;0,0468527
1436,7079;0,0460912
1437,6721;0,045539
1438,6364;0,0452799
1439,6006;0,0452625
1440,5648;0,0453887
1441,5291;0,0455922
1442,4933;0,0458528
1443,4575;0,0461746
1444,4218;0,0465604
1445,3860;0,046998
1446,3502;0,047463
1447,3145;0,0479312
1448,2787;0,0483885
1449,2429;0,0488326
1450,2072;0,0492615
1451,1714;0,0496624
1452,1356;0,0500098
1453,0999;0,0502737
1454,0641;0,0504245
1455,0283;0,0504245
1455,9926;0,0502249
1456,9568;0,0498404
1457,9210;0,0494553
1458,8853;0,0492678
1459,8495;0,0492671
1460,8137;0,0493088
1461,7780;0,0492484
1462,7422;0,0489767
1463,7064;0,0484292
1464,6707;0,047628
1465,6349;0,0467061
1466,5991;0,0458155
1467,5634;0,0449991
1468,5276;0,0441795
1469,4918;0,0432263
1470,4561;0,0420127
1471,4203;0,0404695
1472,3845;0,0386791
1473,3488;0,0369207
1474,3130;0,0354898
1475,2772;0,0344604
1476,2415;0,0337182
1477,2057;0,0331272
1478,1699;0,0326074
1479,1342;0,0321296
1480,0984;0,0316929
1481,0626;0,0313112
1482,0269;0,0310059
1482,9911;0,0307962
1483,9553;0,0306866
1484,9196;0,0306624
1485,8838;0,0306977
1486,8480;0,0307659
1487,8123;0,0308504
1488,7765;0,0309561
1489,7407;0,0311187
1490,7050;0,0313789
1491,6692;0,0317409
1492,6334;0,0321756
1493,5977;0,0326561
1494,5619;0,0331803
1495,5261;0,0337685
1496,4904;0,0344409
1497,4546;0,0351919
1498,4188;0,0359865
1499,3831;0,0367785
1500,3473;0,0375203
1501,3115;0,0381659
1502,2758;0,0386795
1503,2400;0,0390464
1504,2042;0,0392738
1505,1685;0,0393675
1506,1327;0,0392848
1507,0969;0,038975
1508,0612;0,0385546
1509,0254;0,0382094
1509,9896;0,0379614
1510,9539;0,0377299
1511,9181;0,0374438
1512,8823;0,0370641
1513,8466;0,0365745
1514,8108;0,0359768
1515,7750;0,0352955
1516,7393;0,0345729
1517,7035;0,0338451
1518,6677;0,0331228
1519,6320;0,0324009
1520,5962;0,0316966
1521,5604;0,0310705
1522,5247;0,0305914
1523,4889;0,0302784
1524,4531;0,0300938
1525,4174;0,0299872
1526,3816;0,0299335
1527,3458;0,029933
1528,3101;0,0299873
1529,2743;0,0300832
1530,2385;0,0302005
1531,2028;0,0303302
1532,1670;0,0304833
1533,1312;0,0306823
1534,0955;0,0309375
1535,0597;0,0312287
1536,0239;0,0315126
1536,9882;0,0317496
1537,9524;0,0319222
1538,9166;0,0320273
1539,8809;0,032053
1540,8451;0,032008
1541,8093;0,0319867
1542,7736;0,0320739
1543,7378;0,0322465
1544,7020;0,0324459
1545,6663;0,0326447
1546,6305;0,0328428
1547,5947;0,0330423
1548,5590;0,0332342
1549,5232;0,0334041
1550,4874;0,0335479
1551,4517;0,0336799
1552,4159;0,0338221
1553,3801;0,0339803
1554,3444;0,034132
1555,3086;0,0342349
1556,2728;0,0342403
1557,2371;0,0341049
1558,2013;0,0338549
1559,1655;0,0337067
1560,1298;0,0339003
1561,0940;0,034403
1562,0582;0,0350369
1563,0225;0,0356703
1563,9867;0,036243
1564,9509;0,0367359
1565,9152;0,037153
1566,8794;0,0375217
1567,8436;0,0378948
1568,8079;0,038334
1569,7721;0,0388675
1570,7363;0,0394643
1571,7006;0,0400629
1572,6648;0,0406214
1573,6290;0,0411445
1574,5933;0,0416784
1575,5575;0,0422737
1576,5217;0,0429371
1577,4860;0,0436301
1578,4502;0,0443166
1579,4144;0,0449856
1580,3787;0,0456411
1581,3429;0,0462919
1582,3071;0,0469446
1583,2714;0,0476004
1584,2356;0,0482577
1585,1998;0,0489159
1586,1641;0,0495727
1587,1283;0,050215
1588,0925;0,0508162
1589,0568;0,0513423
1590,0210;0,0517629
1590,9852;0,0520572
1591,9495;0,0522111
1592,9137;0,0522144
1593,8779;0,0520653
1594,8422;0,0517788
1595,8064;0,0513887
1596,7706;0,0509366
1597,7349;0,0504562
1598,6991;0,0499662
1599,6633;0,0494734
1600,6276;0,0489807
1601,5918;0,0484942
1602,5560;0,0480247
1603,5203;0,0475838
1604,4845;0,0471756
1605,4487;0,0467922
1606,4130;0,0464171
1607,3772;0,0460392
1608,3414;0,0456697
1609,3057;0,0453448
1610,2699;0,0451022
1611,2341;0,0449476
1612,1984;0,0448444
1613,1626;0,0447322
1614,1268;0,0445552
1615,0911;0,0442948
1616,0553;0,0440049
1617,0195;0,043803
1617,9838;0,0437728
1618,9480;0,043887
1619,9122;0,0440504
1620,8765;0,0441779
1621,8407;0,0442303
1622,8049;0,0442168
1623,7692;0,0441804
1624,7334;0,0441647
1625,6976;0,0441854
1626,6619;0,0442337
1627,6261;0,0443019
1628,5903;0,0443948
1629,5546;0,0445167
1630,5188;0,0446531
1631,4830;0,0447704
1632,4473;0,0448299
1633,4115;0,0448015
1634,3757;0,0446732
1635,3400;0,0444752
1636,3042;0,0443028
1637,2684;0,0442527
1638,2327;0,0443282
1639,1969;0,0444653
1640,1611;0,0446054
1641,1254;0,0447198
1642,0896;0,0447977
1643,0538;0,0448311
1644,0181;0,0448067
1644,9823;0,0447117
1645,9465;0,0445613
1646,9108;0,0444247
1647,8750;0,044374
1648,8392;0,0443942
1649,8035;0,0443893
1650,7677;0,044236
1651,7319;0,0438117
1652,6962;0,0430802
1653,6604;0,0422954
1654,6246;0,0418513
1655,5889;0,041789
1656,5531;0,0418786
1657,5173;0,0419243
1658,4816;0,0418311
1659,4458;0,0415654
1660,4100;0,0411266
1661,3743;0,0405544
1662,3385;0,0399456
1663,3027;0,0394162
1664,2670;0,03902
1665,2312;0,0387174
1666,1954;0,0384144
1667,1597;0,0380098
1668,1239;0,0374371
1669,0881;0,0367179
1670,0524;0,0359785
1671,0166;0,0353525
1671,9808;0,0348575
1672,9451;0,0344061
1673,9093;0,0339061
1674,8735;0,0333437
1675,8378;0,0327995
1676,8020;0,0323812
1677,7662;0,0321261
1678,7305;0,0319776
1679,6947;0,0318318
1680,6589;0,0315787
1681,6232;0,0311129
1682,5874;0,0303644
1683,5516;0,0294111
1684,5159;0,0285401
1685,4801;0,0279989
1686,4443;0,0277619
1687,4086;0,0276582
1688,3728;0,0275535
1689,3370;0,0273991
1690,3013;0,0272069
1691,2655;0,0270097
1692,2297;0,0268319
1693,1940;0,0266792
1694,1582;0,0265415
1695,1224;0,026399
1696,0867;0,0262288
1697,0509;0,0260149
1698,0151;0,0257665
1698,9794;0,0255347
1699,9436;0,0254016
1700,9078;0,0254282
1701,8721;0,0256097
1702,8363;0,0258873
1703,8005;0,0261935
1704,7648;0,0264858
1705,7290;0,0267569
1706,6932;0,0270274
1707,6575;0,0273268
1708,6217;0,0276724
1709,5859;0,0280609
1710,5502;0,0284745
1711,5144;0,0288893
1712,4786;0,0292803
1713,4429;0,0296233
1714,4071;0,029899
1715,3713;0,0301016
1716,3356;0,0302564
1717,2998;0,0304338
1718,2640;0,030712
1719,2283;0,0311103
1720,1925;0,031587
1721,1567;0,0320861
1722,1210;0,0325671
1723,0852;0,033009
1724,0494;0,0334065
1725,0137;0,033769
1725,9779;0,0341159
1726,9421;0,0344653
1727,9064;0,0348199
1728,8706;0,0351592
1729,8348;0,0354414
1730,7991;0,0356103
1731,7633;0,0356104
1732,7275;0,0354262
1733,6918;0,0351372
1734,6560;0,03489
1735,6202;0,0347648
1736,5845;0,0347159
1737,5487;0,034642
1738,5129;0,0344622
1739,4772;0,0341492
1740,4414;0,0337313
1741,4056;0,0332669
1742,3699;0,0328014
1743,3341;0,0323399
1744,2983;0,0318593
1745,2626;0,0313322
1746,2268;0,0307321
1747,1910;0,0300202
1748,1553;0,0291473
1749,1195;0,0281003
1750,0837;0,0269643
1751,0480;0,0258973
1752,0122;0,0250114
1752,9764;0,0243039
1753,9407;0,0236966
1754,9049;0,0231083
1755,8691;0,0225008
1756,8334;0,0218839
1757,7976;0,0212857
1758,7618;0,0207133
1759,7261;0,020143
1760,6903;0,0195508
1761,6545;0,0189532
1762,6188;0,0184098
1763,5830;0,0179783
1764,5472;0,0176702
1765,5115;0,0174499
1766,4757;0,0172652
1767,4399;0,0170756
1768,4042;0,016861
1769,3684;0,0166141
1770,3326;0,0163309
1771,2969;0,0160159
1772,2611;0,0157013
1773,2253;0,0154458
1774,1896;0,0152935
1775,1538;0,015239
1776,1180;0,015239
1777,0823;0,0152445
1778,0465;0,0152232
1779,0107;0,0151673
1779,9750;0,0150883
1780,9392;0,0150044
1781,9034;0,0149274
1782,8677;0,0148602
1783,8319;0,0148057
1784,7961;0,0147745
1785,7604;0,0147797
1786,7246;0,0148243
1787,6888;0,0148931
1788,6531;0,0149565
1789,6173;0,01498
1790,5815;0,0149369
1791,5458;0,0148271
1792,5100;0,0146934
1793,4742;0,0146005
1794,4385;0,0145825
1795,4027;0,0146227
1796,3669;0,0146793
1797,3312;0,0147145
1798,2954;0,0147079
1799,2596;0,0146578
1800,2239;0,0145787
1801,1881;0,0144939
1802,1523;0,0144258
1803,1166;0,0143875
1804,0808;0,014382
1805,0450;0,0144054
1806,0093;0,0144494
1806,9735;0,0145008
1807,9377;0,0145421
1808,9020;0,0145559
1809,8662;0,0145331
1810,8304;0,0144803
1811,7947;0,0144177
1812,7589;0,0143661
1813,7231;0,0143354
1814,6874;0,0143233
1815,6516;0,0143218
1816,6158;0,0143251
1817,5801;0,0143341
1818,5443;0,0143546
1819,5085;0,0143905
1820,4728;0,0144387
1821,4370;0,0144886
1822,4012;0,0145268
1823,3655;0,0145434
1824,3297;0,0145367
1825,2939;0,0145117
1826,2582;0,0144739
1827,2224;0,0144237
1828,1866;0,0143591
1829,1509;0,0142854
1830,1151;0,0142227
1831,0793;0,0141966
1832,0436;0,0142184
1833,0078;0,0142752
1833,9720;0,0143397
1834,9363;0,0143876
1835,9005;0,0144102
1836,8647;0,014418
1837,8290;0,0144325
1838,7932;0,0144699
1839,7574;0,0145294
1840,7217;0,0145949
1841,6859;0,0146435
1842,6501;0,0146536
1843,6144;0,0146154
1844,5786;0,0145408
1845,5428;0,0144598
1846,5071;0,0143964
1847,4713;0,0143535
1848,4355;0,0143211
1849,3998;0,014292
1850,3640;0,0142676
1851,3282;0,0142551
1852,2925;0,0142595
1853,2567;0,01428
1854,2209;0,0143115
1855,1852;0,014349
1856,1494;0,0143898
1857,1136;0,014432
1858,0779;0,0144712
1859,0421;0,0145003
1860,0063;0,0145139
1860,9706;0,0145144
1861,9348;0,0145132
1862,8990;0,0145245
1863,8633;0,0145568
1864,8275;0,0146067
1865,7917;0,0146585
1866,7560;0,0146879
1867,7202;0,0146745
1868,6844;0,01462
1869,6487;0,0145535
1870,6129;0,0145092
1871,5771;0,0144991
1872,5414;0,0145106
1873,5056;0,0145223
1874,4698;0,0145188
1875,4341;0,0144989
1876,3983;0,014475
1877,3625;0,0144644
1878,3268;0,0144783
1879,2910;0,0145142
1880,2552;0,0145587
1881,2195;0,0145959
1882,1837;0,0146171
1883,1479;0,0146253
1884,1122;0,0146326
1885,0764;0,0146528
1886,0406;0,0146933
1887,0049;0,0147509
1887,9691;0,014812
1888,9333;0,0148581
1889,8976;0,0148765
1890,8618;0,0148677
1891,8260;0,0148439
1892,7903;0,01482
1893,7545;0,0148046
1894,7188;0,0147978
1895,6830;0,0147928
1896,6472;0,0147836
1897,6115;0,0147706
1898,5757;0,0147612
1899,5399;0,0147646
1900,5042;0,0147846
1901,4684;0,0148158
1902,4326;0,0148454
1903,3969;0,0148597
1904,3611;0,0148512
1905,3253;0,0148209
1906,2896;0,0147761
1907,2538;0,0147262
1908,2180;0,0146811
1909,1823;0,0146516
1910,1465;0,0146493
1911,1107;0,0146828
1912,0750;0,0147526
1913,0392;0,0148479
1914,0034;0,0149499
1914,9677;0,0150368
1915,9319;0,0150918
1916,8961;0,0151101
1917,8604;0,0151028
1918,8246;0,0150905
1919,7888;0,0150894
1920,7531;0,0151015
1921,7173;0,0151157
1922,6815;0,0151184
1923,6458;0,0151029
1924,6100;0,0150746
1925,5742;0,0150459
1926,5385;0,0150275
1927,5027;0,0150228
1928,4669;0,0150298
1929,4312;0,0150473
1930,3954;0,0150781
1931,3596;0,015128
1932,3239;0,0151971
1933,2881;0,0152722
1934,2523;0,0153272
1935,2166;0,015334
1936,1808;0,0152813
1937,1450;0,0151864
1938,1093;0,0150934
1939,0735;0,0150549
1940,0377;0,0151078
1941,0020;0,0152524
1941,9662;0,015445
1942,9304;0,0156174
1943,8947;0,0157147
1944,8589;0,0157227
1945,8231;0,0156637
1946,7874;0,0155719
1947,7516;0,0154734
1948,7158;0,0153803
1949,6801;0,015297
1950,6443;0,0152303
1951,6085;0,0151923
1952,5728;0,0151951
1953,5370;0,0152426
1954,5012;0,0153246
1955,4655;0,0154209
1956,4297;0,0155098
1957,3939;0,0155774
1958,3582;0,0156194
1959,3224;0,0156394
1960,2866;0,0156471
1961,2509;0,0156573
1962,2151;0,0156906
1963,1793;0,0157677
1964,1436;0,0158995
1965,1078;0,0160735
1966,0720;0,0162479
1967,0363;0,0163621
1968,0005;0,0163652
1968,9647;0,0162461
1969,9290;0,0160444
1970,8932;0,0158335
1971,8574;0,0156917
1972,8217;0,0156716
1973,7859;0,0157814
1974,7501;0,0159829
1975,7144;0,0162117
1976,6786;0,0164099
1977,6428;0,0165523
1978,6071;0,0166455
1979,5713;0,0167041
1980,5355;0,0167271
1981,4998;0,016694
1982,4640;0,0165816
1983,4282;0,0163858
1984,3925;0,0161356
1985,3567;0,0158892
1986,3209;0,0157138
1987,2852;0,0156612
1988,2494;0,015751
1989,2136;0,0159662
1990,1779;0,0162576
1991,1421;0,0165551
1992,1063;0,0167882
1993,0706;0,0169096
1994,0348;0,0169105
1994,9990;0,0168171
1995,9633;0,0166728
1996,9275;0,016519
1997,8917;0,0163842
1998,8560;0,0162839
1999,8202;0,0162288
2000,7844;0,0162311
2001,7487;0,0163033
2002,7129;0,0164467
2003,6771;0,0166407
2004,6414;0,0168432
2005,6056;0,0170084
2006,5698;0,0171138
2007,5341;0,0171756
2008,4983;0,017237
2009,4625;0,0173355
2010,4268;0,0174749
2011,3910;0,017623
2012,3552;0,0177324
2013,3195;0,0177687
2014,2837;0,0177282
2015,2479;0,0176385
2016,2122;0,0175462
2017,1764;0,0175002
2018,1406;0,0175359
2019,1049;0,0176665
2020,0691;0,0178765
2021,0333;0,0181205
2021,9976;0,0183287
2022,9618;0,018427
2023,9260;0,0183692
2024,8903;0,0181669
2025,8545;0,0178952
2026,8187;0,0176612
2027,7830;0,0175496
2028,7472;0,0175759
2029,7114;0,0176798
2030,6757;0,0177641
2031,6399;0,0177564
2032,6041;0,0176526
2033,5684;0,017516
2034,5326;0,017431
2035,4968;0,0174498
2036,4611;0,0175658
2037,4253;0,017727
2038,3895;0,0178678
2039,3538;0,0179364
2040,3180;0,0179062
2041,2822;0,0177779
2042,2465;0,0175791
2043,2107;0,0173616
2044,1749;0,0171886
2045,1392;0,0171103
2046,1034;0,0171357
2047,0676;0,0172205
2048,0320;0,0172861
2048,9961;0,0172662
2049,9604;0,0171472
2050,9246;0,016972
2051,8889;0,0168098
2052,8530;0,0167179
2053,8174;0,0167164
2054,7815;0,0167856
2055,7458;0,016882
2056,7100;0,0169627
2057,6743;0,0170035
2058,6384;0,0170026
2059,6028;0,0169743
2060,5669;0,0169401
2061,5313;0,0169208
2062,4954;0,0169316
2063,4597;0,0169764
2064,4238;0,0170452
2065,3882;0,0171158
2066,3523;0,0171629
2067,3167;0,0171697
2068,2808;0,0171335
2069,2451;0,0170644
2070,2092;0,016978
2071,1736;0,0168893
2072,1377;0,0168108
2073,1021;0,0167547
2074,0662;0,0167345
2075,0305;0,0167614
2075,9946;0,0168366
2076,9590;0,0169455
2077,9231;0,0170583
2078,8875;0,0171403
2079,8516;0,0171659
2080,8159;0,017129
2081,7800;0,0170445
2082,7444;0,0169405
2083,7085;0,0168474
2084,6729;0,0167876
2085,6370;0,0167713
2086,6013;0,0167964
2087,5654;0,0168509
2088,5298;0,0169159
2089,4939;0,0169707
2090,4583;0,0169987
2091,4224;0,0169947
2092,3867;0,0169671
2093,3508;0,0169341
2094,3152;0,0169142
2095,2793;0,0169148
2096,2437;0,0169287
2097,2078;0,016939
2098,1721;0,0169318
2099,1362;0,0169053
2100,1006;0,0168706
2101,0647;0,0168422
2102,0291;0,0168295
2102,9932;0,0168306
2103,9575;0,0168348
2104,9216;0,0168306
2105,8860;0,0168132
2106,8501;0,0167867
2107,8145;0,0167612
2108,7786;0,0167473
2109,7429;0,016752
2110,7070;0,0167771
2111,6714;0,0168202
2112,6355;0,0168763
2113,5999;0,016938
2114,5640;0,0169957
2115,5283;0,0170387
2116,4924;0,0170583
2117,4568;0,0170526
2118,4209;0,0170295
2119,3853;0,017005
2120,3494;0,0169971
2121,3137;0,0170179
2122,2778;0,0170682
2123,2422;0,0171392
2124,2063;0,017219
2125,1707;0,0172988
2126,1348;0,0173752
2127,0991;0,0174458
2128,0632;0,0175046
2129,0276;0,0175426
2129,9917;0,0175549
2130,9561;0,0175502
2131,9202;0,0175547
2132,8845;0,0176033
2133,8486;0,01772
2134,8130;0,0178972
2135,7771;0,0180911
2136,7415;0,0182386
2137,7056;0,0182902
2138,6699;0,0182361
2139,6340;0,0181128
2140,5984;0,0179862
2141,5625;0,0179212
2142,5269;0,0179556
2143,4910;0,018088
2144,4553;0,0182873
2145,4194;0,0185132
2146,3838;0,018736
2147,3479;0,0189427
2148,3123;0,0191298
2149,2764;0,019291
2150,2407;0,0194122
2151,2048;0,0194794
2152,1692;0,0194954
2153,1333;0,01949
2154,0977;0,0195186
2155,0618;0,0196424
2156,0261;0,0198997
2156,9902;0,0202762
2157,9546;0,0206936
2158,9187;0,0210355
2159,8831;0,0212059
2160,8472;0,0211748
2161,8115;0,0209787
2162,7756;0,0206892
2163,7400;0,0203823
2164,7041;0,0201194
2165,6685;0,0199351
2166,6326;0,0198315
2167,5969;0,0197809
2168,5610;0,019741
2169,5254;0,0196753
2170,4895;0,0195705
2171,4539;0,0194399
2172,4180;0,0193133
2173,3823;0,019218
2174,3464;0,0191645
2175,3108;0,0191437
2176,2749;0,0191378
2177,2393;0,0191335
2178,2034;0,0191257
2179,1677;0,0191118
2180,1318;0,0190842
2181,0962;0,0190321
2182,0603;0,0189521
2183,0247;0,0188577
2183,9888;0,018775
2184,9531;0,0187272
2185,9172;0,0187194
2186,8816;0,0187378
2187,8457;0,0187638
2188,8101;0,0187869
2189,7742;0,0188061
2190,7385;0,0188185
2191,7026;0,0188091
2192,6670;0,0187557
2193,6311;0,0186491
2194,5955;0,0185094
2195,5596;0,0183819
2196,5239;0,0183086
2197,4880;0,0182961
2198,4524;0,018305
2199,4165;0,0182742
2200,3809;0,0181637
2201,3450;0,0179853
2202,3093;0,0177984
2203,2734;0,0176737
2204,2378;0,0176504
2205,2019;0,0177163
2206,1663;0,0178208
2207,1304;0,0179076
2208,0947;0,0179451
2209,0588;0,0179363
2210,0232;0,0179078
2210,9873;0,0178893
2211,9517;0,0178981
2212,9158;0,0179332
2213,8801;0,0179801
2214,8442;0,0180193
2215,8086;0,0180344
2216,7727;0,0180191
2217,7371;0,01798
2218,7012;0,0179343
2219,6655;0,0179025
2220,6296;0,0178984
2221,5940;0,0179202
2222,5581;0,0179492
2223,5225;0,0179575
2224,4866;0,0179217
2225,4509;0,0178366
2226,4150;0,0177202
2227,3794;0,0176073
2228,3435;0,017534
2229,3079;0,0175199
2230,2720;0,0175582
2231,2363;0,0176193
2232,2004;0,0176657
2233,1648;0,0176711
2234,1289;0,0176321
2235,0933;0,0175672
2236,0574;0,0175054
2237,0217;0,0174711
2237,9858;0,0174741
2238,9502;0,0175077
2239,9143;0,0175548
2240,8787;0,0175961
2241,8428;0,0176175
2242,8071;0,0176142
2243,7712;0,0175918
2244,7356;0,0175636
2245,6997;0,0175441
2246,6641;0,0175424
2247,6282;0,0175563
2248,5925;0,0175736
2249,5566;0,017578
2250,5210;0,017558
2251,4851;0,0175132
2252,4495;0,0174533
2253,4136;0,0173933
2254,3779;0,0173468
2255,3420;0,0173212
2256,3064;0,0173164
2257,2705;0,0173259
2258,2349;0,0173381
2259,1990;0,0173402
2260,1633;0,0173227
2261,1274;0,0172844
2262,0918;0,0172344
2263,0559;0,0171886
2264,0203;0,0171619
2264,9844;0,0171608
2265,9487;0,0171812
2266,9128;0,0172119
2267,8772;0,0172409
2268,8413;0,0172588
2269,8057;0,0172601
2270,7698;0,0172417
2271,7341;0,0172043
2272,6982;0,017153
2273,6626;0,0170973
2274,6267;0,0170473
2275,5911;0,0170088
2276,5552;0,016982
2277,5195;0,0169638
2278,4836;0,0169538
2279,4480;0,0169563
2280,4121;0,016978
2281,3765;0,0170208
2282,3406;0,0170782
2283,3049;0,0171369
2284,2690;0,0171844
2285,2334;0,017216
2286,1975;0,0172372
2287,1619;0,0172598
2288,1260;0,0172939
2289,0903;0,0173426
2290,0544;0,0174009
2291,0188;0,0174599
2291,9829;0,0175123
2292,9473;0,0175568
2293,9114;0,0175974
2294,8757;0,0176398
2295,8398;0,0176865
2296,8042;0,0177338
2297,7683;0,0177727
2298,7327;0,0177932
2299,6968;0,0177891
2300,6611;0,0177611
2301,6252;0,0177169
2302,5896;0,0176675
2303,5537;0,0176247
2304,5181;0,0175985
2305,4822;0,0175946
2306,4465;0,0176126
2307,4106;0,0176438
2308,3750;0,0176723
2309,3391;0,0176797
2310,3035;0,0176529
2311,2676;0,0175912
2312,2319;0,0175076
2313,1960;0,0174229
2314,1604;0,0173552
2315,1245;0,0173118
2316,0889;0,0172882
2317,0530;0,0172727
2318,0173;0,0172514
2318,9814;0,0172141
2319,9458;0,0171597
2320,9099;0,0171016
2321,8743;0,0170687
2322,8384;0,0170924
2323,8027;0,0171847
2324,7668;0,0173232
2325,7312;0,0174573
2326,6953;0,0175313
2327,6597;0,0175103
2328,6238;0,0173982
2329,5881;0,017241
2330,5522;0,0171095
2331,5166;0,017064
2332,4807;0,0171225
2333,4451;0,0172542
2334,4092;0,0174032
2335,3735;0,0175233
2336,3376;0,0176015
2337,3020;0,0176587
2338,2661;0,0177289
2339,2305;0,0178278
2340,1946;0,0179277
2341,1589;0,0179557
2342,1230;0,017829
2343,0874;0,0175366
2344,0515;0,0172173
2345,0159;0,0171003
2345,9800;0,0173083
2346,9443;0,0177539
2347,9084;0,0182301
2348,8728;0,0185541
2349,8369;0,0186486
2350,8013;0,0185527
2351,7654;0,0183838
2352,7297;0,0182673
2353,6938;0,0182674
2354,6582;0,0183718
2355,6223;0,0185302
2356,5867;0,0186837
2357,5508;0,0187675
2358,5151;0,0187247
2359,4792;0,0185452
2360,4436;0,01828
2361,4077;0,0180013
2362,3721;0,0177442
2363,3362;0,0174936
2364,3005;0,0172209
2365,2646;0,0169258
2366,2290;0,0166417
2367,1931;0,0164062
2368,1575;0,0162318
2369,1216;0,0161011
2370,0859;0,0159861
2371,0500;0,0158699
2372,0144;0,0157575
2372,9785;0,0156711
2373,9429;0,0156373
2374,9070;0,0156757
2375,8713;0,0157917
2376,8354;0,0159767
2377,7998;0,0162116
2378,7639;0,0164705
2379,7283;0,0167252
2380,6924;0,0169483
2381,6567;0,0171188
2382,6208;0,017226
2383,5852;0,0172728
2384,5493;0,0172746
2385,5137;0,017254
2386,4778;0,0172326
2387,4421;0,0172244
2388,4063;0,0172314
2389,3706;0,0172462
2390,3347;0,017258
2391,2991;0,0172599
2392,2632;0,0172527
2393,2275;0,0172439
2394,1917;0,0172429
2395,1560;0,0172551
2396,1201;0,0172797
2397,0845;0,0173114
2398,0486;0,017345
2399,0129;0,0173785
2399,9771;0,0174137
2400,9414;0,0174543
2401,9055;0,0175015
2402,8699;0,0175516
2403,8340;0,0175966
2404,7983;0,0176279
2405,7625;0,0176406
2406,7268;0,0176364
2407,6909;0,0176234
2408,6553;0,0176125
2409,6194;0,0176119
2410,5837;0,017624
2411,5479;0,0176452
2412,5122;0,0176694
2413,4763;0,017692
2414,4407;0,0177126
2415,4048;0,0177341
2416,3691;0,0177589
2417,3333;0,0177862
2418,2976;0,0178112
2419,2617;0,017829
2420,2261;0,017838
2421,1902;0,0178425
2422,1545;0,0178499
2423,1187;0,0178666
2424,0830;0,0178933
2425,0471;0,0179245
2426,0115;0,017952
2426,9756;0,0179706
2427,9399;0,0179815
2428,9041;0,0179919
2429,8684;0,0180111
2430,8325;0,0180445
2431,7969;0,0180899
2432,7610;0,0181382
2433,7253;0,0181774
2434,6895;0,0181986
2435,6538;0,0181999
2436,6179;0,0181876
2437,5823;0,0181728
2438,5464;0,0181658
2439,5107;0,018172
2440,4749;0,0181913
2441,4392;0,0182195
2442,4033;0,018252
2443,3677;0,0182856
2444,3318;0,0183181
2445,2961;0,0183476
2446,2603;0,0183716
2447,2246;0,0183879
2448,1887;0,0183966
2449,1531;0,018401
2450,1172;0,0184068
2451,0815;0,0184186
2452,0457;0,0184384
2453,0100;0,018464
2453,9741;0,0184905
2454,9385;0,0185126
2455,9026;0,018526
2456,8669;0,0185283
2457,8311;0,0185198
2458,7954;0,0185028
2459,7595;0,0184822
2460,7239;0,0184649
2461,6880;0,018459
2462,6523;0,018471
2463,6165;0,0185038
2464,5808;0,0185546
2465,5449;0,0186146
2466,5093;0,0186719
2467,4734;0,0187149
2468,4377;0,0187377
2469,4019;0,0187419
2470,3662;0,0187362
2471,3303;0,0187317
2472,2947;0,0187365
2473,2588;0,0187525
2474,2231;0,0187758
2475,1873;0,0188008
2476,1516;0,0188236
2477,1157;0,018844
2478,0801;0,0188637
2479,0442;0,0188836
2480,0085;0,0189028
2480,9727;0,0189197
2481,9370;0,0189337
2482,9011;0,0189463
2483,8655;0,0189592
2484,8296;0,0189722
2485,7939;0,0189827
2486,7581;0,0189872
2487,7224;0,0189856
2488,6865;0,0189828
2489,6509;0,0189869
2490,6150;0,019005
2491,5793;0,0190376
2492,5435;0,0190774
2493,5078;0,0191127
2494,4719;0,019133
2495,4363;0,0191355
2496,4004;0,0191264
2497,3647;0,0191172
2498,3289;0,0191185
2499,2932;0,0191334
2500,2573;0,0191561
2501,2217;0,0191753
2502,1858;0,0191814
2503,1501;0,0191726
2504,1143;0,0191563
2505,0786;0,0191452
2506,0427;0,01915
2507,0071;0,0191742
2507,9712;0,0192126
2508,9355;0,0192557
2509,8997;0,0192945
2510,8640;0,019324
2511,8281;0,0193433
2512,7925;0,0193528
2513,7566;0,0193531
2514,7209;0,0193453
2515,6851;0,019333
2516,6494;0,0193224
2517,6135;0,0193204
2518,5779;0,0193309
2519,5420;0,0193529
2520,5063;0,0193806
2521,4705;0,0194075
2522,4348;0,0194291
2523,3989;0,0194447
2524,3633;0,0194553
2525,3274;0,0194623
2526,2917;0,019467
2527,2559;0,0194716
2528,2202;0,0194795
2529,1843;0,0194943
2530,1487;0,019516
2531,1128;0,0195395
2532,0771;0,0195559
2533,0413;0,0195572
2534,0056;0,019542
2534,9697;0,0195174
2535,9341;0,0194962
2536,8982;0,0194902
2537,8625;0,0195044
2538,8267;0,0195341
2539,7910;0,0195683
2540,7551;0,0195949
2541,7195;0,0196066
2542,6836;0,019603
2543,6479;0,0195905
2544,6121;0,0195777
2545,5764;0,019572
2546,5405;0,0195766
2547,5049;0,0195906
2548,4690;0,0196113
2549,4333;0,0196361
2550,3975;0,0196637
2551,3618;0,0196932
2552,3259;0,0197219
2553,2903;0,0197449
2554,2544;0,019757
2555,2188;0,0197551
2556,1829;0,0197412
2557,1472;0,0197217
2558,1113;0,0197046
2559,0757;0,0196957
2560,0398;0,0196971
2561,0042;0,0197072
2561,9683;0,0197226
2562,9326;0,0197404
2563,8967;0,0197583
2564,8611;0,0197745
2565,8252;0,0197875
2566,7896;0,0197961
2567,7537;0,0197996
2568,7180;0,0197987
2569,6821;0,0197953
2570,6465;0,0197921
2571,6106;0,0197925
2572,5750;0,0197991
2573,5391;0,0198133
2574,5034;0,0198338
2575,4675;0,0198568
2576,4319;0,0198768
2577,3960;0,0198887
2578,3604;0,0198903
2579,3245;0,0198835
2580,2888;0,0198735
2581,2529;0,0198672
2582,2173;0,0198703
2583,1814;0,0198852
2584,1458;0,0199106
2585,1099;0,0199419
2586,0742;0,0199728
2587,0383;0,0199973
2588,0027;0,0200116
2588,9668;0,0200153
2589,9312;0,0200115
2590,8953;0,020006
2591,8596;0,0200053
2592,8237;0,0200142
2593,7881;0,0200336
2594,7522;0,0200599
2595,7166;0,0200864
2596,6807;0,0201068
2597,6450;0,0201184
2598,6091;0,0201239
2599,5735;0,0201302
2600,5376;0,0201442
2601,5020;0,020169
2602,4661;0,0202013
2603,4304;0,0202335
2604,3945;0,0202578
2605,3589;0,0202713
2606,3230;0,020277
2607,2874;0,020282
2608,2515;0,020293
2609,2158;0,0203116
2610,1799;0,0203339
2611,1443;0,0203526
2612,1084;0,0203614
2613,0728;0,020359
2614,0369;0,0203494
2615,0012;0,0203406
2615,9653;0,0203406
2616,9297;0,0203545
2617,8938;0,020383
2618,8582;0,0204227
2619,8223;0,020468
2620,7866;0,0205131
2621,7507;0,020553
2622,7151;0,0205852
2623,6792;0,0206089
2624,6436;0,0206254
2625,6077;0,0206377
2626,5720;0,0206493
2627,5361;0,0206633
2628,5005;0,020681
2629,4646;0,0207017
2630,4290;0,0207232
2631,3931;0,0207432
2632,3574;0,0207614
2633,3215;0,0207792
2634,2859;0,020799
2635,2500;0,0208218
2636,2144;0,0208462
2637,1785;0,0208699
2638,1428;0,0208908
2639,1069;0,0209097
2640,0713;0,0209296
2641,0354;0,0209539
2641,9998;0,0209837
2642,9639;0,0210168
2643,9282;0,0210489
2644,8923;0,0210768
2645,8567;0,0211001
2646,8208;0,0211211
2647,7852;0,0211435
2648,7493;0,0211689
2649,7136;0,0211961
2650,6777;0,0212219
2651,6421;0,0212429
2652,6062;0,0212583
2653,5706;0,0212698
2654,5347;0,0212817
2655,4990;0,0212981
2656,4631;0,0213214
2657,4275;0,0213506
2658,3916;0,0213822
2659,3560;0,0214113
2660,3201;0,021434
2661,2844;0,0214494
2662,2485;0,0214592
2663,2129;0,021467
2664,1770;0,0214759
2665,1414;0,0214877
2666,1055;0,0215024
2667,0698;0,0215197
2668,0339;0,0215398
2668,9983;0,0215631
2669,9624;0,0215895
2670,9268;0,0216173
2671,8909;0,0216435
2672,8552;0,0216655
2673,8193;0,0216824
2674,7837;0,0216956
2675,7478;0,0217085
2676,7122;0,0217244
2677,6763;0,0217454
2678,6406;0,0217721
2679,6047;0,0218042
2680,5691;0,0218403
2681,5332;0,0218789
2682,4976;0,0219175
2683,4617;0,0219535
2684,4260;0,0219845
2685,3901;0,0220098
2686,3545;0,0220304
2687,3186;0,0220487
2688,2830;0,0220674
2689,2471;0,0220885
2690,2114;0,0221127
2691,1755;0,0221396
2692,1399;0,0221686
2693,1040;0,0221991
2694,0684;0,0222307
2695,0325;0,0222627
2695,9968;0,0222945
2696,9609;0,0223252
2697,9253;0,0223537
2698,8894;0,0223796
2699,8538;0,0224032
2700,8179;0,0224259
2701,7822;0,0224497
2702,7463;0,0224765
2703,7107;0,022507
2704,6748;0,0225405
2705,6392;0,0225752
2706,6033;0,0226093
2707,5676;0,0226421
2708,5317;0,0226746
2709,4961;0,0227083
2710,4602;0,0227438
2711,4246;0,0227804
2712,3887;0,0228161
2713,3530;0,0228494
2714,3171;0,0228801
2715,2815;0,0229093
2716,2456;0,0229383
2717,2100;0,0229676
2718,1741;0,022996
2719,1384;0,0230216
2720,1025;0,0230426
2721,0669;0,0230584
2722,0310;0,0230698
2722,9954;0,0230789
2723,9595;0,0230889
2724,9238;0,0231037
2725,8879;0,0231265
2726,8523;0,0231593
2727,8164;0,0232015
2728,7808;0,02325
2729,7449;0,0232998
2730,7092;0,0233459
2731,6733;0,0233847
2732,6377;0,0234137
2733,6018;0,0234322
2734,5662;0,0234408
2735,5303;0,023442
2736,4946;0,0234404
2737,4587;0,0234425
2738,4231;0,0234544
2739,3872;0,0234786
2740,3516;0,0235131
2741,3157;0,0235516
2742,2800;0,023587
2743,2441;0,0236146
2744,2085;0,0236337
2745,1726;0,0236468
2746,1370;0,0236573
2747,1011;0,0236676
2748,0654;0,023679
2749,0295;0,0236926
2749,9939;0,0237102
2750,9580;0,0237341
2751,9224;0,0237646
2752,8865;0,0237999
2753,8508;0,0238358
2754,8149;0,0238686
2755,7793;0,023897
2756,7434;0,0239237
2757,7078;0,0239532
2758,6719;0,0239895
2759,6362;0,0240338
2760,6003;0,0240838
2761,5647;0,0241344
2762,5288;0,0241797
2763,4932;0,0242152
2764,4573;0,0242391
2765,4216;0,024253
2766,3857;0,0242625
2767,3501;0,0242756
2768,3142;0,0242996
2769,2786;0,0243381
2770,2427;0,0243887
2771,2070;0,0244438
2772,1711;0,0244947
2773,1355;0,0245361
2774,0996;0,0245691
2775,0640;0,0246
2776,0281;0,0246365
2776,9924;0,0246833
2777,9565;0,0247393
2778,9209;0,0247994
2779,8850;0,0248579
2780,8494;0,0249113
2781,8135;0,0249603
2782,7778;0,0250075
2783,7419;0,0250554
2784,7063;0,0251046
2785,6704;0,0251535
2786,6348;0,0252
2787,5989;0,0252443
2788,5632;0,0252894
2789,5273;0,0253405
2790,4917;0,0254023
2791,4558;0,0254766
2792,4202;0,0255602
2793,3843;0,0256464
2794,3486;0,0257284
2795,3127;0,0258028
2796,2771;0,0258715
2797,2412;0,0259413
2798,2056;0,0260191
2799,1697;0,0261089
2800,1340;0,0262091
2801,0981;0,0263145
2802,0625;0,0264192
2803,0266;0,0265199
2803,9910;0,0266166
2804,9551;0,0267109
2805,9194;0,026804
2806,8835;0,0268953
2807,8479;0,0269841
2808,8120;0,0270711
2809,7764;0,0271595
2810,7405;0,0272542
2811,7048;0,0273594
2812,6689;0,0274773
2813,6333;0,027607
2814,5974;0,0277462
2815,5618;0,0278922
2816,5259;0,0280423
2817,4902;0,0281943
2818,4543;0,0283461
2819,4187;0,0284966
2820,3828;0,0286468
2821,3472;0,0287996
2822,3113;0,0289597
2823,2756;0,0291311
2824,2397;0,029316
2825,2041;0,0295142
2826,1682;0,0297236
2827,1326;0,0299419
2828,0967;0,0301682
2829,0610;0,0304028
2830,0251;0,0306477
2830,9895;0,0309054
2831,9536;0,0311784
2832,9180;0,0314682
2833,8821;0,0317747
2834,8464;0,0320968
2835,8105;0,0324334
2836,7749;0,0327851
2837,7390;0,0331561
2838,7034;0,0335547
2839,6675;0,0339921
2840,6318;0,0344802
2841,5959;0,0350284
2842,5603;0,0356403
2843,5244;0,0363114
2844,4888;0,0370273
2845,4529;0,037764
2846,4172;0,0384892
2847,3813;0,0391664
2848,3457;0,0397591
2849,3098;0,0402367
2850,2742;0,0405787
2851,2383;0,040778
2852,2026;0,0408411
2853,1667;0,0407861
2854,1311;0,0406382
2855,0952;0,0404238
2856,0596;0,0401664
2857,0237;0,0398856
2857,9880;0,0395981
2858,9521;0,03932
2859,9165;0,0390677
2860,8806;0,0388563
2861,8450;0,0386968
2862,8091;0,0385937
2863,7734;0,0385457
2864,7375;0,038548
2865,7019;0,0385942
2866,6660;0,0386763
2867,6304;0,0387835
2868,5945;0,0389007
2869,5588;0,0390101
2870,5229;0,0390952
2871,4873;0,0391466
2872,4514;0,039165
2873,4158;0,0391607
2874,3799;0,0391488
2875,3442;0,0391436
2876,3083;0,0391535
2877,2727;0,0391803
2878,2368;0,0392217
2879,2012;0,0392749
2880,1653;0,0393394
2881,1296;0,0394177
2882,0938;0,0395132
2883,0581;0,0396279
2884,0222;0,0397596
2884,9866;0,0399028
2885,9507;0,0400509
2886,9150;0,0401994
2887,8792;0,0403479
2888,8435;0,0404996
2889,8076;0,0406582
2890,7720;0,0408252
2891,7361;0,040998
2892,7004;0,0411717
2893,6646;0,0413417
2894,6289;0,0415066
2895,5930;0,041669
2896,5574;0,0418335
2897,5215;0,042004
2898,4858;0,0421817
2899,4500;0,0423645
2900,4143;0,0425488
2901,3784;0,0427322
2902,3428;0,0429156
2903,3069;0,0431035
2904,2712;0,0433029
2905,2354;0,0435207
2906,1997;0,0437622
2907,1638;0,0440312
2908,1282;0,0443317
2909,0923;0,0446693
2910,0566;0,0450501
2911,0208;0,0454775
2911,9851;0,0459464
2912,9492;0,0464405
2913,9136;0,0469337
2914,8777;0,0473967
2915,8420;0,0478053
2916,8062;0,048146
2917,7705;0,0484156
2918,7346;0,0486159
2919,6990;0,048747
2920,6631;0,0488046
2921,6274;0,048781
2922,5916;0,0486703
2923,5559;0,0484727
2924,5200;0,0481965
2925,4844;0,0478553
2926,4485;0,0474638
2927,4128;0,047035
2928,3770;0,0465784
2929,3413;0,0461006
2930,3054;0,0456073
2931,2698;0,0451036
2932,2339;0,0445945
2933,1982;0,0440849
2934,1624;0,043578
2935,1267;0,0430757
2936,0908;0,0425787
2937,0552;0,0420874
2938,0193;0,0416044
2938,9836;0,0411343
2939,9478;0,0406834
2940,9121;0,0402567
2941,8762;0,0398555
2942,8406;0,039477
2943,8047;0,0391167
2944,7690;0,038772
2945,7332;0,0384456
2946,6975;0,0381449
2947,6616;0,0378786
2948,6260;0,0376521
2949,5901;0,0374644
2950,5544;0,0373079
2951,5186;0,0371704
2952,4829;0,0370385
2953,4470;0,0368999
2954,4114;0,0367459
2955,3755;0,0365722
2956,3398;0,0363795
2957,3040;0,036172
2958,2683;0,0359551
2959,2324;0,0357329
2960,1968;0,0355058
2961,1609;0,0352712
2962,1252;0,0350248
2963,0894;0,0347636
2964,0537;0,0344877
2965,0178;0,0342002
2965,9822;0,0339065
2966,9463;0,0336128
2967,9106;0,0333249
2968,8748;0,033047
2969,8391;0,0327818
2970,8032;0,0325296
2971,7676;0,0322893
2972,7317;0,0320593
2973,6960;0,0318378
2974,6602;0,0316239
2975,6245;0,0314169
2976,5886;0,031216
2977,5530;0,0310209
2978,5171;0,030832
2979,4814;0,0306518
2980,4456;0,0304847
2981,4099;0,0303361
2982,3740;0,0302097
2983,3384;0,0301061
2984,3025;0,0300211
2985,2668;0,0299475
2986,2310;0,0298765
2987,1953;0,0298007
2988,1594;0,0297169
2989,1238;0,0296264
2990,0879;0,029535
2991,0522;0,0294507
2992,0164;0,0293813
2992,9807;0,0293317
2993,9448;0,0293028
2994,9092;0,0292922
2995,8733;0,0292959
2996,8376;0,0293099
2997,8018;0,0293312
2998,7661;0,0293575
2999,7302;0,0293865
3000,6946;0,0294155
3001,6587;0,0294421
3002,6230;0,0294654
3003,5872;0,0294857
3004,5515;0,0295042
3005,5156;0,0295211
3006,4800;0,0295344
3007,4441;0,0295412
3008,4084;0,0295398
3009,3726;0,0295313
3010,3369;0,0295206
3011,3010;0,0295135
3012,2654;0,0295136
3013,2295;0,0295204
3014,1938;0,0295307
3015,1580;0,0295417
3016,1223;0,0295541
3017,0864;0,0295722
3018,0508;0,0296007
3019,0149;0,0296412
3019,9792;0,02969
3020,9434;0,0297397
3021,9077;0,029784
3022,8718;0,0298217
3023,8362;0,0298573
3024,8003;0,0298984
3025,7646;0,0299512
3026,7288;0,0300162
3027,6931;0,030089
3028,6572;0,0301625
3029,6216;0,0302311
3030,5857;0,0302934
3031,5500;0,0303519
3032,5142;0,0304106
3033,4785;0,0304727
3034,4426;0,0305391
3035,4070;0,0306089
3036,3711;0,0306809
3037,3354;0,0307544
3038,2996;0,03083
3039,2639;0,0309088
3040,2280;0,0309914
3041,1924;0,0310782
3042,1565;0,0311686
3043,1208;0,0312618
3044,0850;0,0313566
3045,0493;0,0314513
3046,0134;0,031545
3046,9778;0,0316379
3047,9419;0,0317319
3048,9063;0,0318301
3049,8704;0,0319351
3050,8347;0,0320467
3051,7988;0,0321615
3052,7632;0,0322735
3053,7273;0,0323774
3054,6917;0,0324705
3055,6558;0,0325548
3056,6201;0,0326364
3057,5842;0,0327223
3058,5486;0,0328185
3059,5127;0,0329269
3060,4771;0,0330455
3061,4412;0,0331687
3062,4055;0,0332895
3063,3696;0,0334016
3064,3340;0,0335013
3065,2981;0,0335892
3066,2625;0,0336692
3067,2266;0,033747
3068,1909;0,0338278
3069,1550;0,0339151
3070,1194;0,0340102
3071,0835;0,0341135
3072,0479;0,0342242
3073,0120;0,0343398
3073,9763;0,0344562
3074,9404;0,0345678
3075,9048;0,03467
3076,8689;0,0347619
3077,8333;0,0348472
3078,7974;0,034932
3079,7617;0,0350216
3080,7258;0,0351169
3081,6902;0,035215
3082,6543;0,0353115
3083,6187;0,0354048
3084,5828;0,0354965
3085,5471;0,0355898
3086,5112;0,0356864
3087,4756;0,0357847
3088,4397;0,0358813
3089,4041;0,0359738
3090,3682;0,0360635
3091,3325;0,0361549
3092,2966;0,0362532
3093,2610;0,0363614
3094,2251;0,0364783
3095,1895;0,0365993
3096,1536;0,0367187
3097,1179;0,0368313
3098,0820;0,0369343
3099,0464;0,0370277
3100,0105;0,0371141
3100,9749;0,037199
3101,9390;0,0372889
3102,9033;0,0373899
3103,8674;0,0375042
3104,8318;0,03763
3105,7959;0,0377617
3106,7603;0,0378923
3107,7244;0,0380167
3108,6887;0,0381332
3109,6528;0,0382435
3110,6172;0,0383511
3111,5813;0,0384597
3112,5457;0,0385708
3113,5098;0,0386838
3114,4741;0,0387968
3115,4382;0,0389079
3116,4026;0,0390171
3117,3667;0,0391269
3118,3311;0,0392412
3119,2952;0,0393637
3120,2595;0,0394954
3121,2236;0,0396339
3122,1880;0,0397744
3123,1521;0,0399118
3124,1165;0,0400436
3125,0806;0,04017
3126,0449;0,0402932
3127,0090;0,0404152
3127,9734;0,0405366
3128,9375;0,0406568
3129,9019;0,0407758
3130,8660;0,0408957
3131,8303;0,0410209
3132,7944;0,0411556
3133,7588;0,0413015
3134,7229;0,0414557
3135,6873;0,0416124
3136,6514;0,041765
3137,6157;0,0419094
3138,5798;0,0420454
3139,5442;0,0421756
3140,5083;0,0423034
3141,4727;0,042431
3142,4368;0,0425588
3143,4011;0,0426869
3144,3652;0,0428161
3145,3296;0,0429484
3146,2937;0,0430858
3147,2581;0,0432291
3148,2222;0,0433772
3149,1865;0,0435279
3150,1506;0,0436795
3151,1150;0,0438317
3152,0791;0,0439845
3153,0435;0,0441368
3154,0076;0,0442863
3154,9719;0,0444301
3155,9360;0,0445674
3156,9004;0,0447021
3157,8645;0,0448417
3158,8289;0,0449941
3159,7930;0,0451627
3160,7573;0,0453437
3161,7214;0,0455269
3162,6858;0,0457002
3163,6499;0,0458557
3164,6143;0,0459928
3165,5784;0,0461183
3166,5427;0,0462431
3167,5068;0,0463771
3168,4712;0,0465249
3169,4353;0,0466689
3170,3997;0,0468352
3171,3638;0,0469996
3172,3281;0,0471554
3173,2922;0,0473005
3174,2566;0,0474373
3175,2207;0,0475718
3176,1851;0,0477105
3177,1492;0,0478579
3178,1135;0,0480145
3179,0776;0,0481773
3180,0420;0,048341
3181,0061;0,0485015
3181,9705;0,0486565
3182,9346;0,0488063
3183,8989;0,0489524
3184,8630;0,0490961
3185,8274;0,0492376
3186,7915;0,0493765
3187,7559;0,0495128
3188,7200;0,0496476
3189,6843;0,0497833
3190,6484;0,0499225
3191,6128;0,0500667
3192,5769;0,0502151
3193,5413;0,0503649
3194,5054;0,0505123
3195,4697;0,0506541
3196,4338;0,0507893
3197,3982;0,0509189
3198,3623;0,0510459
3199,3267;0,0511745
3200,2908;0,051308
3201,2551;0,0514479
3202,2192;0,0515932
3203,1836;0,0517407
3204,1477;0,0518869
3205,1121;0,0520296
3206,0762;0,052169
3207,0405;0,0523071
3208,0046;0,0524449
3208,9690;0,0525814
3209,9331;0,0527138
3210,8975;0,0528403
3211,8616;0,0529625
3212,8259;0,0530855
3213,7900;0,0532142
3214,7544;0,0533493
3215,7185;0,0534855
3216,6829;0,0536146
3217,6470;0,053732
3218,6113;0,0538415
3219,5754;0,0539553
3220,5398;0,0540861
3221,5039;0,0542392
3222,4683;0,0544073
3223,4324;0,0545747
3224,3967;0,0547264
3225,3608;0,0548571
3226,3252;0,0549743
3227,2893;0,0550924
3228,2537;0,0552235
3229,2178;0,055369
3230,1821;0,0555201
3231,1462;0,055664
3232,1106;0,0557925
3233,0747;0,0559063
3234,0391;0,0560137
3235,0032;0,0561245
3235,9675;0,0562445
3236,9316;0,0563742
3237,8960;0,056511
3238,8601;0,0566526
3239,8245;0,0567985
3240,7886;0,0569484
3241,7529;0,0571006
3242,7170;0,0572512
3243,6814;0,0573963
3244,6455;0,0575349
3245,6099;0,0576704
3246,5740;0,0578097
3247,5383;0,0579595
3248,5024;0,0581223
3249,4668;0,0582951
3250,4309;0,0584698
3251,3953;0,0586365
3252,3594;0,058788
3253,3237;0,0589234
3254,2878;0,0590496
3255,2522;0,0591789
3256,2163;0,0593238
3257,1807;0,0594909
3258,1448;0,0596777
3259,1091;0,0598735
3260,0732;0,0600647
3261,0376;0,0602409
3262,0017;0,0603995
3262,9661;0,0605448
3263,9302;0,0606852
3264,8945;0,0608273
3265,8586;0,0609736
3266,8230;0,0611218
3267,7871;0,0612667
3268,7515;0,0614028
3269,7156;0,0615264
3270,6799;0,0616367
3271,6440;0,0617358
3272,6084;0,0618272
3273,5725;0,0619138
3274,5369;0,0619966
3275,5010;0,0620739
3276,4653;0,0621435
3277,4294;0,0622047
3278,3938;0,06226
3279,3579;0,0623142
3280,3223;0,0623716
3281,2864;0,0624331
3282,2507;0,0624963
3283,2148;0,0625562
3284,1792;0,0626093
3285,1433;0,0626547
3286,1077;0,0626939
3287,0718;0,062729
3288,0361;0,0627609
3289,0002;0,0627895
3289,9646;0,0628139
3290,9287;0,0628336
3291,8931;0,062848
3292,8572;0,0628567
3293,8215;0,0628592
3294,7856;0,0628567
3295,7500;0,0628519
3296,7141;0,0628484
3297,6785;0,062848
3298,6426;0,0628495
3299,6069;0,0628494
3300,5710;0,0628455
3301,5354;0,0628405
3302,4995;0,0628413
3303,4639;0,0628546
3304,4280;0,0628816
3305,3923;0,0629145
3306,3564;0,0629402
3307,3208;0,0629474
3308,2849;0,0629344
3309,2493;0,0629105
3310,2134;0,0628913
3311,1777;0,0628896
3312,1418;0,0629098
3313,1062;0,062947
3314,0703;0,0629923
3315,0347;0,0630386
3315,9988;0,0630843
3316,9631;0,0631321
3317,9272;0,0631854
3318,8916;0,0632447
3319,8557;0,063307
3320,8201;0,0633679
3321,7842;0,0634244
3322,7485;0,0634766
3323,7126;0,063527
3324,6770;0,0635787
3325,6411;0,0636333
3326,6055;0,0636908
3327,5696;0,0637499
3328,5339;0,0638095
3329,4980;0,063869
3330,4624;0,0639273
3331,4265;0,0639817
3332,3909;0,0640273
3333,3550;0,0640579
3334,3193;0,0640683
3335,2834;0,0640564
3336,2478;0,0640236
3337,2119;0,0639741
3338,1763;0,063912
3339,1404;0,0638403
3340,1047;0,0637606
3341,0688;0,0636743
3342,0332;0,0635841
3342,9973;0,063493
3343,9617;0,0634032
3344,9258;0,0633142
3345,8901;0,0632234
3346,8542;0,063127
3347,8186;0,0630222
3348,7827;0,0629069
3349,7471;0,0627794
3350,7112;0,0626383
3351,6755;0,0624834
3352,6396;0,062319
3353,6040;0,062154
3354,5681;0,0620002
3355,5325;0,0618665
3356,4966;0,0617544
3357,4609;0,0616566
3358,4250;0,0615608
3359,3894;0,061456
3360,3535;0,0613381
3361,3179;0,0612099
3362,2820;0,0610779
3363,2463;0,060948
3364,2104;0,060822
3365,1748;0,0606982
3366,1389;0,0605725
3367,1033;0,0604404
3368,0674;0,0602988
3369,0317;0,0601469
3369,9958;0,059987
3370,9602;0,0598253
3371,9243;0,0596696
3372,8887;0,059527
3373,8528;0,0593995
3374,8171;0,0592831
3375,7813;0,0591695
3376,7456;0,0590505
3377,7097;0,0589214
3378,6741;0,0587827
3379,6382;0,0586374
3380,6025;0,0584879
3381,5667;0,0583348
3382,5310;0,0581788
3383,4951;0,0580236
3384,4595;0,0578777
3385,4236;0,0577506
3386,3879;0,0576478
3387,3521;0,0575655
3388,3164;0,0574913
3389,2805;0,0574093
3390,2449;0,0573078
3391,2090;0,0571846
3392,1733;0,0570468
3393,1375;0,0569058
3394,1018;0,0567703
3395,0659;0,056643
3396,0303;0,0565205
3396,9944;0,0563976
3397,9587;0,0562702
3398,9229;0,0561369
3399,8872;0,0559985
3400,8513;0,0558568
3401,8157;0,0557133
3402,7798;0,0555684
3403,7441;0,0554215
3404,7083;0,0552709
3405,6726;0,0551164
3406,6367;0,0549598
3407,6011;0,0548047
3408,5652;0,0546542
3409,5295;0,0545071
3410,4937;0,0543574
3411,4580;0,0541983
3412,4221;0,0540275
3413,3865;0,0538515
3414,3506;0,0536825
3415,3149;0,0535307
3416,2791;0,0533963
3417,2434;0,0532681
3418,2075;0,0531292
3419,1719;0,0529667
3420,1360;0,0527787
3421,1003;0,0525749
3422,0645;0,0523688
3423,0288;0,0521704
3423,9929;0,0519823
3424,9573;0,0518028
3425,9214;0,0516295
3426,8857;0,0514615
3427,8499;0,0512979
3428,8142;0,0511352
3429,7783;0,0509671
3430,7427;0,0507869
3431,7068;0,0505918
3432,6711;0,050386
3433,6353;0,0501793
3434,5996;0,0499825
3435,5637;0,0498013
3436,5281;0,0496333
3437,4922;0,04947
3438,4565;0,0493021
3439,4207;0,0491258
3440,3850;0,0489447
3441,3491;0,0487661
3442,3135;0,0485941
3443,2776;0,0484245
3444,2419;0,048246
3445,2061;0,0480473
3446,1704;0,0478255
3447,1345;0,0475898
3448,0989;0,0473562
3449,0630;0,0471375
3450,0273;0,0469373
3450,9915;0,0467507
3451,9558;0,0465709
3452,9199;0,0463943
3453,8843;0,0462215
3454,8484;0,0460533
3455,8127;0,0458873
3456,7769;0,0457172
3457,7412;0,0455358
3458,7053;0,0453397
3459,6697;0,0451314
3460,6338;0,0449181
3461,5981;0,0447071
3462,5623;0,0445028
3463,5266;0,0443043
3464,4907;0,0441082
3465,4551;0,0439113
3466,4192;0,043713
3467,3835;0,043515
3468,3477;0,0433197
3469,3120;0,0431266
3470,2761;0,0429319
3471,2405;0,0427305
3472,2046;0,0425206
3473,1689;0,0423072
3474,1331;0,0421007
3475,0974;0,0419112
3476,0615;0,0417403
3477,0259;0,0415786
3477,9900;0,0414095
3478,9543;0,0412197
3479,9185;0,041008
3480,8828;0,0407874
3481,8469;0,0405776
3482,8113;0,0403911
3483,7754;0,0402247
3484,7397;0,0400615
3485,7039;0,0398821
3486,6682;0,0396771
3487,6323;0,0394527
3488,5967;0,0392272
3489,5608;0,0390197
3490,5251;0,0388386
3491,4893;0,0386779
3492,4536;0,0385227
3493,4177;0,0383601
3494,3821;0,0381879
3495,3462;0,0380172
3496,3105;0,0378646
3497,2747;0,0377386
3498,2390;0,0376305
3499,2031;0,0375148
3500,1675;0,0373614
3501,1316;0,0371522
3502,0959;0,0368949
3503,0601;0,0366225
3504,0244;0,0363747
3504,9885;0,0361727
3505,9529;0,0360096
3506,9170;0,0358596
3507,8813;0,0356956
3508,8455;0,0355036
3509,8098;0,0352884
3510,7739;0,0350659
3511,7383;0,0348512
3512,7024;0,0346498
3513,6667;0,0344594
3514,6309;0,0342774
3515,5952;0,0341059
3516,5593;0,0339511
3517,5237;0,0338167
3518,4878;0,0336995
3519,4521;0,0335886
3520,4163;0,0334709
3521,3806;0,0333371
3522,3447;0,0331841
3523,3091;0,0330132
3524,2732;0,0328247
3525,2375;0,0326151
3526,2017;0,03238
3527,1660;0,032122
3528,1301;0,0318571
3529,0945;0,0316108
3530,0586;0,0314065
3531,0229;0,0312521
3531,9871;0,0311357
3532,9514;0,0310313
3533,9155;0,0309095
3534,8799;0,030751
3535,8440;0,0305559
3536,8083;0,030346
3537,7725;0,0301557
3538,7368;0,0300143
3539,7009;0,0299315
3540,6653;0,0298916
3541,6294;0,0298572
3542,5938;0,0297809
3543,5579;0,0296234
3544,5222;0,0293774
3545,4863;0,0290785
3546,4507;0,0287872
3547,4148;0,02855
3548,3792;0,0283729
3549,3433;0,0282272
3550,3076;0,0280738
3551,2717;0,0278884
3552,2361;0,0276759
3553,2002;0,0274647
3554,1646;0,0272859
3555,1287;0,0271501
3556,0930;0,0270451
3557,0571;0,0269491
3558,0215;0,0268499
3558,9856;0,0267553
3559,9500;0,0266881
3560,9141;0,0266663
3561,8784;0,0266824
3562,8425;0,0266949
3563,8069;0,026635
3564,7710;0,0264286
3565,7354;0,0260431
3566,6995;0,0255405
3567,6638;0,0250634
3568,6279;0,0247287
3569,5923;0,0245511
3570,5564;0,0244713
3571,5208;0,0244184
3572,4849;0,0243471
3573,4492;0,0242442
3574,4133;0,0241195
3575,3777;0,0239877
3576,3418;0,0238552
3577,3062;0,0237198
3578,2703;0,0235839
3579,2346;0,0234655
3580,1987;0,0233936
3581,1631;0,023387
3582,1272;0,0234336
3583,0916;0,0234845
3584,0557;0,0234656
3585,0200;0,0233061
3585,9841;0,0229863
3586,9485;0,0225855
3587,9126;0,0222556
3588,8770;0,0221051
3589,8411;0,0221227
3590,8054;0,0222145
3591,7695;0,0222765
3592,7339;0,0222409
3593,6980;0,0220963
3594,6624;0,0218847
3595,6265;0,0216684
3596,5908;0,0214822
3597,5549;0,0213167
3598,5193;0,021144
3599,4834;0,0209565
3600,4478;0,0207833
3601,4119;0,0206679
3602,3762;0,0206286
3603,3403;0,0206388
3604,3047;0,0206393
3605,2688;0,0205673
3606,2332;0,0203861
3607,1973;0,0201068
3608,1616;0,0197865
3609,1257;0,0194937
3610,0901;0,0192694
3611,0542;0,0191188
3612,0186;0,0190292
3612,9827;0,0189867
3613,9470;0,018975
3614,9111;0,018966
3615,8755;0,0189173
3616,8396;0,0187864
3617,8040;0,0185605
3618,7681;0,0182877
3619,7324;0,018071
3620,6965;0,0180045
3621,6609;0,0181082
3622,6250;0,0183272
3623,5894;0,0185729
3624,5535;0,0187529
3625,5178;0,0187772
3626,4819;0,0185665
3627,4463;0,0181012
3628,4104;0,0175013
3629,3748;0,0169944
3630,3389;0,0167202
3631,3032;0,0166372
3632,2673;0,0166227
3633,2317;0,0165816
3634,1958;0,0164796
3635,1602;0,0163316
3636,1243;0,0161726
3637,0886;0,0160288
3638,0527;0,0159075
3639,0171;0,0158073
3639,9812;0,0157349
3640,9456;0,01571
3641,9097;0,0157516
3642,8740;0,0158593
3643,8381;0,0160022
3644,8025;0,0161179
3645,7666;0,0161125
3646,7310;0,0158698
3647,6951;0,0153198
3648,6594;0,0145881
3649,6235;0,0139946
3650,5879;0,013747
3651,5520;0,01378
3652,5164;0,0139119
3653,4805;0,013993
3654,4448;0,013949
3655,4089;0,0137862
3656,3733;0,0135793
3657,3374;0,0134206
3658,3018;0,0133528
3659,2659;0,0133522
3660,2302;0,0133718
3661,1943;0,0133897
3662,1587;0,0134228
3663,1228;0,0135026
3664,0872;0,0136373
3665,0513;0,0137918
3666,0156;0,0139004
3666,9797;0,0139004
3667,9441;0,0137751
3668,9082;0,0135889
3669,8726;0,0134602
3670,8367;0,0134567
3671,8010;0,0135282
3672,7651;0,0135499
3673,7295;0,0134069
3674,6936;0,0130746
3675,6580;0,0126701
3676,6221;0,0123785
3677,5864;0,0122887
3678,5505;0,012353
3679,5149;0,0124831
3680,4790;0,0126279
3681,4434;0,0127833
3682,4075;0,0129646
3683,3718;0,0131733
3684,3359;0,0133821
3685,3003;0,0135389
3686,2644;0,0135841
3687,2288;0,0134756
3688,1929;0,0132285
3689,1572;0,0129446
3690,1213;0,0127593
3691,0857;0,0127348
3692,0498;0,012837
3693,0142;0,0129997
3693,9783;0,013176
3694,9426;0,0133454
3695,9067;0,013499
3696,8711;0,0136249
3697,8352;0,0137022
3698,7996;0,0137071
3699,7637;0,0136303
3700,7280;0,0134956
3701,6921;0,0133643
3702,6565;0,0133069
3703,6206;0,01336
3704,5850;0,0135091
3705,5491;0,0137023
3706,5134;0,0138708
3707,4775;0,0139372
3708,4419;0,0138215
3709,4060;0,0134742
3710,3704;0,0129485
3711,3345;0,0124311
3712,2988;0,0121243
3713,2629;0,0120942
3714,2273;0,0122708
3715,1914;0,0125431
3716,1558;0,0128238
3717,1199;0,0130675
3718,0842;0,0132664
3719,0483;0,0134373
3720,0127;0,0136015
3720,9768;0,0137633
3721,9412;0,013903
3722,9053;0,0139908
3723,8696;0,014013
3724,8337;0,0139899
3725,7981;0,0139667
3726,7622;0,0139826
3727,7266;0,0140486
3728,6907;0,0141491
3729,6550;0,0142573
3730,6191;0,0143437
3731,5835;0,0143698
3732,5476;0,0142794
3733,5120;0,0140143
3734,4761;0,0135851
3735,4404;0,0131298
3736,4045;0,0128364
3737,3689;0,0127915
3738,3330;0,012943
3739,2974;0,013168
3740,2615;0,0133368
3741,2258;0,0133428
3742,1899;0,0131313
3743,1543;0,0127532
3744,1184;0,0123919
3745,0828;0,0122465
3746,0469;0,0123466
3747,0112;0,0125429
3747,9753;0,0126362
3748,9397;0,0124849
3749,9038;0,0120902
3750,8682;0,0116507
3751,8323;0,0114318
3752,7966;0,0115208
3753,7607;0,0118006
3754,7251;0,0121
3755,6892;0,0122933
3756,6536;0,0123244
3757,6177;0,0122121
3758,5820;0,0120429
3759,5461;0,0119236
3760,5105;0,0119132
3761,4746;0,0119992
3762,4390;0,0121284
3763,4031;0,0122465
3764,3674;0,0123176
3765,3315;0,0123253
3766,2959;0,0122661
3767,2600;0,0121447
3768,2244;0,0119776
3769,1885;0,0118023
3770,1528;0,0116753
3771,1169;0,0116487
3772,0813;0,0117381
3773,0454;0,0119118
3774,0098;0,0121081
3774,9739;0,0122603
3775,9382;0,0123191
3776,9023;0,0122694
3777,8667;0,012143
3778,8308;0,012009
3779,7952;0,0119325
3780,7593;0,0119331
3781,7236;0,0119827
3782,6877;0,0120343
3783,6521;0,012053
3784,6162;0,0120286
3785,5806;0,0119751
3786,5447;0,0119195
3787,5090;0,0118878
3788,4731;0,0118964
3789,4375;0,0119473
3790,4016;0,0120304
3791,3660;0,0121285
3792,3301;0,0122256
3793,2944;0,012315
3794,2585;0,0124009
3795,2229;0,0124895
3796,1870;0,012573
3797,1514;0,012619
3798,1155;0,0125803
3799,0798;0,0124265
3800,0439;0,0121839
3801,0083;0,0119466
3801,9724;0,011816
3802,9368;0,0118117
3803,9009;0,0118575
3804,8652;0,0118518
3805,8293;0,0117482
3806,7937;0,011598
3807,7578;0,0115218
3808,7222;0,0116102
3809,6863;0,0118509
3810,6506;0,0121511
3811,6147;0,0124054
3812,5791;0,0125434
3813,5432;0,0125529
3814,5076;0,0124862
3815,4717;0,0124294
3816,4360;0,0124317
3817,4001;0,0124578
3818,3645;0,0124197
3819,3286;0,0122572
3820,2930;0,0120027
3821,2571;0,0117755
3822,2214;0,0116857
3823,1855;0,0117469
3824,1499;0,0118916
3825,1140;0,012041
3826,0784;0,0121492
3827,0425;0,0122101
3828,0068;0,0122422
3828,9709;0,012269
3829,9353;0,012306
3830,8994;0,0123589
3831,8638;0,0124271
3832,8279;0,012504
3833,7922;0,0125722
3834,7563;0,0126025
3835,7207;0,012563
3836,6848;0,0124407
3837,6492;0,0122618
3838,6133;0,0120857
3839,5776;0,0119634
3840,5417;0,0119011
3841,5061;0,0118709
3842,4702;0,0118501
3843,4346;0,0118491
3844,3987;0,0119077
3845,3630;0,0120656
3846,3271;0,0123309
3847,2915;0,01267
3848,2556;0,0130147
3849,2200;0,0132721
3850,1841;0,0133241
3851,1484;0,0130426
3852,1125;0,0123878
3853,0769;0,0115895
3854,0410;0,0110707
3855,0054;0,0110243
3855,9695;0,0113128
3856,9338;0,0117216
3857,8979;0,0121073
3858,8623;0,0123995
3859,8264;0,0125716
3860,7908;0,0126244
3861,7549;0,0125855
3862,7192;0,0125112
3863,6833;0,0124659
3864,6477;0,0124845
3865,6118;0,0125524
3866,5762;0,0126217
3867,5403;0,0126412
3868,5046;0,0125785
3869,4688;0,0124329
3870,4331;0,0122401
3871,3972;0,0120602
3872,3616;0,0119505
3873,3257;0,0119404
3874,2900;0,0120228
3875,2542;0,0121627
3876,2185;0,0123128
3877,1826;0,0124311
3878,1470;0,0124948
3879,1111;0,0125086
3880,0754;0,0124961
3881,0396;0,0124751
3882,0039;0,0124374
3882,9680;0,0123603
3883,9324;0,0122426
3884,8965;0,012126
3885,8608;0,0120719
3886,8250;0,012107
3887,7893;0,0121947
3888,7534;0,0122585
3889,7178;0,0122362
3890,6819;0,0121301
3891,6462;0,0120203
3892,6104;0,0120106
3893,5747;0,0121421
3894,5388;0,0123704
3895,5032;0,012612
3896,4673;0,0127962
3897,4316;0,0128879
3898,3958;0,0128879
3899,3601;0,0128183
3900,3242;0,0126991
3901,2886;0,0125348
3902,2527;0,0123278
3903,2170;0,0121055
3904,1812;0,0119213
3905,1455;0,0118216
3906,1096;0,0118141
3907,0740;0,0118714
3908,0381;0,0119575
3909,0024;0,0120495
3909,9666;0,0121427
3910,9309;0,0122426
3911,8950;0,0123504
3912,8594;0,0124524
3913,8235;0,0125217
3914,7878;0,0125315
3915,7520;0,0124748
3916,7163;0,0123792
3917,6804;0,0122982
3918,6448;0,0122776
3919,6089;0,0123233
3920,5732;0,0124004
3921,5374;0,012459
3922,5017;0,0124657
3923,4658;0,0124236
3924,4302;0,0123711
3925,3943;0,0123552
3926,3586;0,0123969
3927,3228;0,0124776
3928,2871;0,0125518
3929,2512;0,0125729
3930,2156;0,0125169
3931,1797;0,0123975
3932,1440;0,0122616
3933,1082;0,0121628
3934,0725;0,0121333
3935,0366;0,0121744
3936,0010;0,0122665
3936,9651;0,0123807
3937,9294;0,012486
3938,8936;0,0125548
3939,8579;0,0125701
3940,8220;0,0125343
3941,7864;0,0124722
3942,7505;0,01242
3943,7148;0,0124039
3944,6790;0,0124239
3945,6433;0,0124562
3946,6074;0,0124702
3947,5718;0,0124475
3948,5359;0,0123919
3949,5002;0,0123254
3950,4644;0,0122724
3951,4287;0,0122447
3952,3928;0,012239
3953,3572;0,0122464
3954,3213;0,0122617
3955,2856;0,0122858
3956,2498;0,0123204
3957,2141;0,0123615
3958,1782;0,0123978
3959,1426;0,0124146
3960,1067;0,0124033
3961,0710;0,0123669
3962,0352;0,0123205
3962,9995;0,0122834
3963,9636;0,0122705
3964,9280;0,0122852
3965,8921;0,0123202
3966,8564;0,0123615
3967,8206;0,0123954
3968,7849;0,0124135
3969,7490;0,0124154
3970,7134;0,0124068
3971,6775;0,0123947
3972,6418;0,0123843
3973,6060;0,0123765
3974,5703;0,0123702
3975,5344;0,0123636
3976,4988;0,0123561
3977,4629;0,0123477
3978,4272;0,012338
3979,3914;0,0123258
3980,3557;0,0123107
3981,3198;0,0122948
3982,2842;0,0122831
3983,2483;0,0122818
3984,2126;0,0122944
3985,1768;0,0123196
3986,1411;0,0123516
3987,1052;0,0123825
3988,0696;0,0124061
3989,0337;0,01242
3989,9980;0,0124252
3990,9622;0,0124234
3991,9265;0,0124155
3992,8906;0,0124012
3993,8550;0,0123812
3994,8191;0,0123585
3995,7834;0,0123386
3996,7476;0,0123271
3997,7119;0,0123267
3998,6760;0,0123357
3999,6404;0,0123491
4000,6045;0,0123958

##### Extended Information
[Comments]
Sample name
Comment
Username
Division
Organization;UNIVERSIDAD INDUSTRIAL DE SANTANDER

[Detailed Information]
Creation date;4/02/2025 2:26 p.m.

Data array type;Linear data array
Horizontal axis;Wavenumber [cm-1]
Vertical axis;Abs
Start;399,193 cm-1
End;4000,6 cm-1
Data interval;0,964233 cm-1
Data points;3736    

[Measurement Information]
Model name;FT/IR-4X1typeA
Serial No.;A035162111

Accessory;ATR PRO 4X
Accessory S/N;A021162126
Incident angle;45 deg

Measurement date;4/02/2025 2:26 p.m.

Light source;Standard
Detector;TGS
Accumulation;Auto (74)
Resolution;4 cm-1
Zero filling;On
Apodization;Cosine
Gain;Auto (8)
Aperture;Auto (7 mm)
Scan speed;Auto (2 mm/sec)
Filter;Auto (12800 Hz)

