TITLE;
DATA TYPE;INFRARED SPECTRUM
ORIGIN;JASCO
OWNER;
DATE;25/02/04
TIME;11:25:19
SPECTROMETER/DATA SYSTEM;
LOCALE;9226
RESOLUTION;
DELTAX;0,964233
XUNITS;1/CM
YUNITS;ABSORBANCE
FIRSTX;  399,1927
LASTX; 4000,6047
NPOINTS;    3736
FIRSTY;     0,20048
MAXY;     0,25728
MINY;     0,00954
XYDATA
399,1927;0,200482
400,1569;0,200627
401,1211;0,199605
402,0854;0,198037
403,0496;0,19646
404,0138;0,195289
404,9781;0,194796
405,9423;0,195027
406,9065;0,195748
407,8708;0,19655
408,8350;0,197069
409,7992;0,197165
410,7635;0,196933
411,7277;0,196568
412,6919;0,196183
413,6562;0,195765
414,6204;0,195256
415,5846;0,194711
416,5489;0,1944
417,5131;0,194775
418,4773;0,196129
419,4416;0,198084
420,4058;0,199762
421,3700;0,200652
422,3343;0,200908
423,2985;0,200979
424,2627;0,201237
425,2270;0,201815
426,1912;0,2026
427,1554;0,203363
428,1197;0,203939
429,0839;0,204321
430,0481;0,204624
431,0124;0,204976
431,9766;0,20543
432,9408;0,205949
433,9051;0,206453
434,8693;0,206868
435,8335;0,207147
436,7978;0,207246
437,7620;0,207126
438,7262;0,206767
439,6905;0,206213
440,6547;0,205588
441,6189;0,205065
442,5832;0,204794
443,5474;0,204809
444,5116;0,205002
445,4759;0,205202
446,4401;0,205288
447,4043;0,205252
448,3686;0,205164
449,3328;0,205101
450,2970;0,205089
451,2613;0,205089
452,2255;0,205032
453,1897;0,20487
454,1540;0,204608
455,1182;0,204298
456,0824;0,204019
457,0467;0,203843
458,0109;0,203807
458,9751;0,203908
459,9394;0,204116
460,9036;0,204404
461,8678;0,204748
462,8321;0,205104
463,7963;0,205387
464,7605;0,205484
465,7248;0,205299
466,6890;0,204819
467,6532;0,20414
468,6175;0,203441
469,5817;0,202926
470,5459;0,202756
471,5102;0,202986
472,4744;0,203521
473,4386;0,20414
474,4029;0,20461
475,3671;0,204799
476,3313;0,204707
477,2956;0,204426
478,2598;0,204081
479,2240;0,203778
480,1883;0,203582
481,1525;0,203512
482,1167;0,20356
483,0810;0,203714
484,0452;0,203958
485,0094;0,204268
485,9737;0,204599
486,9379;0,204895
487,9021;0,20511
488,8664;0,20522
489,8306;0,205226
490,7948;0,205147
491,7591;0,205014
492,7233;0,204862
493,6875;0,204733
494,6518;0,20467
495,6160;0,204712
496,5802;0,204875
497,5445;0,205139
498,5087;0,205451
499,4729;0,205739
500,4372;0,205933
501,4014;0,205992
502,3656;0,205924
503,3299;0,205784
504,2941;0,205652
505,2583;0,205605
506,2226;0,205699
507,1868;0,205957
508,1510;0,206363
509,1153;0,206861
510,0795;0,207374
511,0437;0,207831
512,0080;0,208193
512,9722;0,20846
513,9365;0,208664
514,9007;0,208851
515,8649;0,209067
516,8292;0,20934
517,7934;0,209666
518,7576;0,210001
519,7219;0,210267
520,6861;0,21039
521,6503;0,210319
522,6146;0,210054
523,5788;0,209649
524,5430;0,209207
525,5073;0,208844
526,4715;0,208633
527,4357;0,208555
528,4000;0,208514
529,3642;0,208398
530,3284;0,208148
531,2927;0,207779
532,2569;0,207359
533,2211;0,206969
534,1854;0,20666
535,1496;0,206433
536,1138;0,206254
537,0781;0,206089
538,0423;0,20592
539,0065;0,205754
539,9708;0,205613
540,9350;0,205524
541,8992;0,205511
542,8635;0,205598
543,8277;0,2058
544,7919;0,206115
545,7562;0,206519
546,7204;0,206971
547,6846;0,207435
548,6489;0,207893
549,6131;0,208348
550,5773;0,208804
551,5416;0,209254
552,5058;0,209672
553,4700;0,210029
554,4343;0,2103
555,3985;0,210469
556,3627;0,210507
557,3270;0,210348
558,2912;0,209898
559,2554;0,209062
560,2197;0,207804
561,1839;0,206183
562,1481;0,204353
563,1124;0,202512
564,0766;0,200828
565,0408;0,199393
566,0051;0,198216
566,9693;0,197253
567,9335;0,196451
568,8978;0,195776
569,8620;0,195213
570,8262;0,194753
571,7905;0,194383
572,7547;0,194083
573,7189;0,193833
574,6832;0,193619
575,6474;0,193424
576,6116;0,193221
577,5759;0,192977
578,5401;0,192664
579,5043;0,192274
580,4686;0,191837
581,4328;0,191412
582,3970;0,19107
583,3613;0,190859
584,3255;0,190787
585,2897;0,190819
586,2540;0,190893
587,2182;0,190955
588,1824;0,190972
589,1467;0,190939
590,1109;0,190873
591,0751;0,190789
592,0394;0,190695
593,0036;0,19058
593,9678;0,190423
594,9321;0,190202
595,8963;0,189911
596,8605;0,189559
597,8248;0,18917
598,7890;0,188772
599,7532;0,188382
600,7175;0,187998
601,6817;0,187606
602,6459;0,187193
603,6102;0,186764
604,5744;0,186336
605,5386;0,18592
606,5029;0,185505
607,4671;0,185051
608,4313;0,184513
609,3956;0,183871
610,3598;0,183151
611,3240;0,182421
612,2883;0,181747
613,2525;0,181162
614,2167;0,180639
615,1810;0,180106
616,1452;0,179477
617,1094;0,17869
618,0737;0,177729
619,0379;0,176626
620,0021;0,175434
620,9664;0,174199
621,9306;0,172966
622,8948;0,171776
623,8591;0,170682
624,8233;0,169734
625,7875;0,168955
626,7518;0,168335
627,7160;0,167824
628,6802;0,167348
629,6445;0,166837
630,6087;0,166246
631,5729;0,165567
632,5372;0,164827
633,5014;0,164072
634,4656;0,163351
635,4299;0,162691
636,3941;0,1621
637,3583;0,161574
638,3226;0,161105
639,2868;0,160693
640,2510;0,160332
641,2153;0,159999
642,1795;0,159663
643,1437;0,159288
644,1080;0,158862
645,0722;0,158402
646,0364;0,157943
647,0007;0,157522
647,9649;0,15716
648,9291;0,156865
649,8934;0,156641
650,8576;0,156503
651,8218;0,156464
652,7861;0,156531
653,7503;0,15669
654,7145;0,156918
655,6788;0,157193
656,6430;0,157504
657,6072;0,157836
658,5715;0,158146
659,5357;0,158355
660,4999;0,158385
661,4642;0,158221
662,4284;0,157948
663,3926;0,157697
664,3569;0,157572
665,3211;0,157572
666,2853;0,157531
667,2496;0,157075
668,2138;0,155817
669,1780;0,153874
670,1423;0,151841
671,1065;0,150082
672,0707;0,148561
673,0350;0,147106
673,9992;0,145587
674,9634;0,143969
675,9277;0,142316
676,8919;0,14074
677,8561;0,139317
678,8204;0,138062
679,7846;0,136952
680,7488;0,135969
681,7131;0,1351
682,6773;0,134326
683,6415;0,133619
684,6058;0,132952
685,5700;0,132315
686,5342;0,13172
687,4985;0,131185
688,4627;0,130722
689,4269;0,13033
690,3912;0,130004
691,3554;0,129732
692,3196;0,1295
693,2839;0,129288
694,2481;0,129067
695,2123;0,128809
696,1766;0,128496
697,1408;0,128128
698,1050;0,127721
699,0693;0,127295
700,0335;0,126869
700,9977;0,126442
701,9620;0,125998
702,9262;0,12551
703,8904;0,124955
704,8547;0,124327
705,8189;0,123653
706,7831;0,122981
707,7474;0,122356
708,7116;0,121792
709,6758;0,121261
710,6401;0,120702
711,6043;0,120057
712,5685;0,119303
713,5328;0,118474
714,4970;0,117638
715,4612;0,116916
716,4255;0,116211
717,3897;0,115548
718,3539;0,114854
719,3182;0,114054
720,2824;0,113113
721,2466;0,112056
722,2109;0,110949
723,1751;0,109858
724,1393;0,108825
725,1036;0,107863
726,0678;0,106963
727,0320;0,106113
727,9963;0,105296
728,9605;0,104502
729,9247;0,103724
730,8890;0,102959
731,8532;0,102216
732,8174;0,101505
733,7817;0,100839
734,7459;0,100225
735,7101;0,0996627
736,6744;0,0991504
737,6386;0,0986812
738,6028;0,0982453
739,5671;0,0978289
740,5313;0,0974166
741,4955;0,0969966
742,4598;0,0965639
743,4240;0,0961209
744,3882;0,0956733
745,3525;0,0952255
746,3167;0,0947777
747,2809;0,0943276
748,2452;0,0938744
749,2094;0,0934203
750,1736;0,0929706
751,1379;0,0925306
752,1021;0,0921016
753,0663;0,0916795
754,0306;0,0912552
754,9948;0,0908191
755,9590;0,0903666
756,9233;0,0899027
757,8875;0,0894425
758,8517;0,0890049
759,8160;0,0886045
760,7802;0,0882446
761,7444;0,0879153
762,7087;0,0875987
763,6729;0,0872766
764,6371;0,0869372
765,6014;0,0865776
766,5656;0,086204
767,5298;0,0858289
768,4941;0,085467
769,4583;0,0851296
770,4225;0,0848179
771,3868;0,0845215
772,3510;0,0842221
773,3152;0,0839042
774,2795;0,0835646
775,2437;0,0832147
776,2079;0,0828723
777,1722;0,0825482
778,1364;0,0822374
779,1006;0,0819229
780,0649;0,0815883
781,0291;0,0812313
781,9933;0,0808661
782,9576;0,0805144
783,9218;0,0801916
784,8860;0,0798977
785,8503;0,0796193
786,8145;0,0793395
787,7787;0,0790487
788,7430;0,078749
789,7072;0,0784517
790,6714;0,078172
791,6357;0,0779234
792,5999;0,0777136
793,5641;0,0775413
794,5284;0,077396
795,4926;0,0772597
796,4568;0,077115
797,4211;0,0769523
798,3853;0,0767743
799,3495;0,0765917
800,3138;0,076414
801,2780;0,0762423
802,2422;0,0760701
803,2065;0,0758907
804,1707;0,0757055
805,1349;0,0755262
806,0992;0,0753673
807,0634;0,0752376
808,0276;0,075134
808,9919;0,0750449
809,9561;0,0749577
810,9203;0,074866
811,8846;0,0747715
812,8488;0,0746812
813,8130;0,0746035
814,7773;0,0745456
815,7415;0,0745125
816,7057;0,0745053
817,6700;0,0745199
818,6342;0,0745458
819,5984;0,0745679
820,5627;0,074572
821,5269;0,0745507
822,4911;0,0745061
823,4554;0,0744487
824,4196;0,074392
825,3839;0,0743463
826,3481;0,074315
827,3123;0,0742937
828,2766;0,0742728
829,2408;0,0742407
830,2050;0,0741869
831,1693;0,0741035
832,1335;0,0739862
833,0977;0,0738346
834,0620;0,0736514
835,0262;0,0734428
835,9904;0,0732178
836,9547;0,0729868
837,9189;0,0727606
838,8831;0,0725481
839,8474;0,0723548
840,8116;0,0721825
841,7758;0,0720302
842,7401;0,0718961
843,7043;0,0717797
844,6685;0,0716809
845,6328;0,0715992
846,5970;0,0715304
847,5612;0,0714669
848,5255;0,0713999
849,4897;0,0713252
850,4539;0,0712463
851,4182;0,0711751
852,3824;0,0711253
853,3466;0,0711044
854,3109;0,0711081
855,2751;0,0711221
856,2393;0,0711303
857,2036;0,0711251
858,1678;0,0711114
859,1320;0,0711025
860,0963;0,0711108
861,0605;0,0711402
862,0247;0,0711856
862,9890;0,0712408
863,9532;0,0713064
864,9174;0,0713943
865,8817;0,071523
866,8459;0,0717094
867,8101;0,0719627
868,7744;0,0722819
869,7386;0,0726592
870,7028;0,0730824
871,6671;0,073535
872,6313;0,0739949
873,5955;0,074436
874,5598;0,0748338
875,5240;0,0751745
876,4882;0,0754617
877,4525;0,0757172
878,4167;0,0759737
879,3809;0,0762651
880,3452;0,0766184
881,3094;0,0770506
882,2736;0,0775701
883,2379;0,0781808
884,2021;0,0788847
885,1663;0,0796824
886,1306;0,080572
887,0948;0,0815465
888,0590;0,0825907
889,0233;0,083681
889,9875;0,0847855
890,9517;0,0858678
891,9160;0,086891
892,8802;0,0878216
893,8444;0,0886312
894,8087;0,0892966
895,7729;0,0897986
896,7371;0,0901232
897,7014;0,0902639
898,6656;0,0902243
899,6298;0,0900205
900,5941;0,0896793
901,5583;0,0892342
902,5225;0,0887203
903,4868;0,0881707
904,4510;0,0876154
905,4152;0,0870807
906,3795;0,08659
907,3437;0,0861617
908,3079;0,0858074
909,2722;0,0855311
910,2364;0,0853316
911,2007;0,085207
912,1649;0,0851586
913,1292;0,0851914
914,0934;0,0853103
915,0576;0,0855136
916,0219;0,0857906
916,9861;0,0861227
917,9503;0,0864906
918,9146;0,0868807
919,8788;0,087287
920,8430;0,0877088
921,8073;0,0881442
922,7715;0,0885865
923,7357;0,0890252
924,7000;0,089449
925,6642;0,0898506
926,6284;0,0902265
927,5927;0,0905764
928,5569;0,0909007
929,5211;0,0912017
930,4854;0,0914859
931,4496;0,0917667
932,4138;0,0920635
933,3781;0,0923983
934,3423;0,0927901
935,3065;0,0932524
936,2708;0,0937928
937,2350;0,0944153
938,1992;0,0951233
939,1635;0,0959205
940,1277;0,0968097
941,0919;0,0977907
942,0562;0,0988596
943,0204;0,10001
943,9846;0,101234
944,9489;0,102529
945,9131;0,103897
946,8773;0,105342
947,8416;0,106872
948,8058;0,108489
949,7700;0,110191
950,7343;0,11197
951,6985;0,113816
952,6627;0,115723
953,6270;0,117689
954,5912;0,119719
955,5554;0,121819
956,5197;0,123993
957,4839;0,126236
958,4481;0,128535
959,4124;0,130871
960,3766;0,133224
961,3408;0,135578
962,3051;0,137927
963,2693;0,140272
964,2335;0,142618
965,1978;0,144975
966,1620;0,147352
967,1262;0,149764
968,0905;0,152233
969,0547;0,15479
970,0189;0,157465
970,9832;0,160287
971,9474;0,163273
972,9116;0,16643
973,8759;0,169761
974,8401;0,173266
975,8043;0,176944
976,7686;0,180786
977,7328;0,184766
978,6970;0,188828
979,6613;0,192879
980,6255;0,196798
981,5897;0,200452
982,5540;0,203723
983,5182;0,206539
984,4824;0,208891
985,4467;0,210834
986,4109;0,212472
987,3751;0,213918
988,3394;0,215267
989,3036;0,216567
990,2678;0,217821
991,2321;0,219002
992,1963;0,220081
993,1605;0,221044
994,1248;0,2219
995,0890;0,222672
996,0532;0,223382
997,0175;0,224041
997,9817;0,22465
998,9459;0,22521
999,9102;0,225739
1000,8744;0,226275
1001,8386;0,226875
1002,8029;0,2276
1003,7671;0,228497
1004,7313;0,229591
1005,6956;0,230884
1006,6598;0,232362
1007,6240;0,234004
1008,5883;0,23579
1009,5525;0,237694
1010,5167;0,239691
1011,4810;0,241741
1012,4452;0,243798
1013,4094;0,245805
1014,3737;0,247702
1015,3379;0,249432
1016,3021;0,250954
1017,2664;0,252247
1018,2306;0,253315
1019,1948;0,254184
1020,1591;0,25489
1021,1233;0,25547
1022,0875;0,25595
1023,0518;0,256348
1024,0160;0,256673
1024,9802;0,256929
1025,9445;0,257119
1026,9087;0,257241
1027,8729;0,257279
1028,8372;0,257197
1029,8014;0,256936
1030,7656;0,256413
1031,7299;0,255547
1032,6941;0,254274
1033,6583;0,252581
1034,6226;0,250521
1035,5868;0,248214
1036,5510;0,24582
1037,5153;0,24351
1038,4795;0,241426
1039,4437;0,239668
1040,4080;0,238278
1041,3722;0,237259
1042,3364;0,236577
1043,3007;0,236176
1044,2649;0,235981
1045,2291;0,235909
1046,1934;0,235871
1047,1576;0,235788
1048,1218;0,235596
1049,0861;0,235248
1050,0503;0,234709
1051,0145;0,233957
1051,9788;0,232975
1052,9430;0,231759
1053,9072;0,230311
1054,8715;0,228638
1055,8357;0,226733
1056,7999;0,224568
1057,7642;0,222098
1058,7284;0,219277
1059,6926;0,216093
1060,6569;0,212593
1061,6211;0,208893
1062,5853;0,205154
1063,5496;0,201543
1064,5138;0,198184
1065,4780;0,195141
1066,4423;0,192409
1067,4065;0,189942
1068,3707;0,187679
1069,3350;0,18556
1070,2992;0,183537
1071,2634;0,18157
1072,2277;0,179614
1073,1919;0,177627
1074,1561;0,17557
1075,1204;0,173426
1076,0846;0,171199
1077,0488;0,168924
1078,0131;0,166655
1078,9773;0,164455
1079,9415;0,162388
1080,9058;0,160511
1081,8700;0,15886
1082,8342;0,157452
1083,7985;0,15628
1084,7627;0,155315
1085,7269;0,154519
1086,6912;0,153857
1087,6554;0,153305
1088,6196;0,152856
1089,5839;0,152515
1090,5481;0,152292
1091,5123;0,152189
1092,4766;0,152199
1093,4408;0,152308
1094,4050;0,152497
1095,3693;0,152748
1096,3335;0,153043
1097,2977;0,153364
1098,2620;0,153689
1099,2262;0,153993
1100,1904;0,154245
1101,1547;0,154417
1102,1189;0,154484
1103,0831;0,154433
1104,0474;0,154263
1105,0116;0,15399
1105,9758;0,153634
1106,9401;0,153214
1107,9043;0,152732
1108,8685;0,152157
1109,8328;0,15143
1110,7970;0,150472
1111,7612;0,149219
1112,7255;0,147649
1113,6897;0,145806
1114,6539;0,143795
1115,6182;0,141751
1116,5824;0,139799
1117,5466;0,138016
1118,5109;0,136415
1119,4751;0,134949
1120,4393;0,133535
1121,4036;0,132077
1122,3678;0,130491
1123,3320;0,128717
1124,2963;0,126728
1125,2605;0,124531
1126,2247;0,122162
1127,1890;0,119677
1128,1532;0,117138
1129,1174;0,114598
1130,0817;0,112096
1131,0459;0,109654
1132,0101;0,107291
1132,9744;0,105026
1133,9386;0,102892
1134,9028;0,100933
1135,8671;0,0992004
1136,8313;0,0977409
1137,7955;0,0965871
1138,7598;0,095752
1139,7240;0,0952289
1140,6882;0,0949946
1141,6525;0,0950151
1142,6167;0,0952497
1143,5809;0,0956554
1144,5452;0,0961905
1145,5094;0,0968188
1146,4736;0,0975147
1147,4379;0,0982642
1148,4021;0,099064
1149,3663;0,0999145
1150,3306;0,10081
1151,2948;0,101733
1152,2590;0,102645
1153,2233;0,103501
1154,1875;0,104246
1155,1517;0,104832
1156,1160;0,105215
1157,0802;0,10535
1158,0444;0,105185
1159,0087;0,104658
1159,9729;0,103698
1160,9371;0,102241
1161,9014;0,100252
1162,8656;0,0977382
1163,8298;0,0947556
1164,7941;0,0914067
1165,7583;0,0878251
1166,7225;0,0841569
1167,6868;0,0805424
1168,6510;0,0771003
1169,6152;0,0739159
1170,5795;0,0710368
1171,5437;0,0684764
1172,5079;0,0662234
1173,4722;0,0642538
1174,4364;0,0625406
1175,4006;0,0610587
1176,3649;0,0597843
1177,3291;0,0586929
1178,2933;0,0577581
1179,2576;0,0569535
1180,2218;0,0562566
1181,1860;0,0556519
1182,1503;0,0551324
1183,1145;0,0546975
1184,0787;0,0543507
1185,0430;0,0540963
1186,0072;0,0539386
1186,9714;0,0538822
1187,9357;0,0539326
1188,8999;0,0540957
1189,8641;0,0543756
1190,8284;0,0547715
1191,7926;0,055276
1192,7568;0,0558753
1193,7211;0,0565526
1194,6853;0,0572914
1195,6495;0,058078
1196,6138;0,0589007
1197,5780;0,0597469
1198,5422;0,0606013
1199,5065;0,061447
1200,4707;0,0622671
1201,4349;0,0630503
1202,3992;0,06379
1203,3634;0,0644824
1204,3276;0,0651223
1205,2919;0,0657024
1206,2561;0,0662161
1207,2203;0,0666655
1208,1846;0,0670677
1209,1488;0,067457
1210,1130;0,0678798
1211,0773;0,0683824
1212,0415;0,0689979
1213,0057;0,0697374
1213,9700;0,0705897
1214,9342;0,071528
1215,8984;0,0725213
1216,8627;0,0735428
1217,8269;0,0745737
1218,7911;0,0756015
1219,7554;0,0766165
1220,7196;0,0776082
1221,6838;0,0785647
1222,6481;0,0794745
1223,6123;0,0803292
1224,5765;0,0811257
1225,5408;0,0818668
1226,5050;0,0825581
1227,4692;0,0832056
1228,4335;0,0838116
1229,3977;0,0843733
1230,3619;0,0848835
1231,3262;0,0853319
1232,2904;0,0857084
1233,2546;0,086005
1234,2189;0,0862195
1235,1831;0,086356
1236,1473;0,0864257
1237,1116;0,0864443
1238,0758;0,0864276
1239,0400;0,0863869
1240,0043;0,0863258
1240,9685;0,0862405
1241,9327;0,0861225
1242,8970;0,0859629
1243,8612;0,0857551
1244,8254;0,0854962
1245,7897;0,0851875
1246,7539;0,0848336
1247,7181;0,0844427
1248,6824;0,0840258
1249,6466;0,0835955
1250,6108;0,0831638
1251,5751;0,082741
1252,5393;0,0823347
1253,5035;0,0819493
1254,4678;0,081585
1255,4320;0,0812375
1256,3962;0,0808983
1257,3605;0,0805569
1258,3247;0,0802033
1259,2889;0,0798307
1260,2532;0,0794357
1261,2174;0,079016
1262,1816;0,0785684
1263,1459;0,0780882
1264,1101;0,0775705
1265,0743;0,0770125
1266,0386;0,0764142
1267,0028;0,0757778
1267,9670;0,0751074
1268,9313;0,074409
1269,8955;0,0736911
1270,8597;0,072964
1271,8240;0,0722373
1272,7882;0,0715167
1273,7524;0,0708035
1274,7167;0,0700969
1275,6809;0,0693982
1276,6451;0,0687111
1277,6094;0,0680391
1278,5736;0,0673807
1279,5378;0,0667268
1280,5021;0,0660648
1281,4663;0,0653866
1282,4305;0,0646954
1283,3948;0,0640067
1284,3590;0,063343
1285,3232;0,0627262
1286,2875;0,0621728
1287,2517;0,0616927
1288,2159;0,0612904
1289,1802;0,0609669
1290,1444;0,0607203
1291,1086;0,0605469
1292,0729;0,0604436
1293,0371;0,0604109
1294,0013;0,0604539
1294,9656;0,0605809
1295,9298;0,0607997
1296,8940;0,061114
1297,8583;0,0615217
1298,8225;0,0620165
1299,7867;0,0625897
1300,7510;0,0632316
1301,7152;0,0639319
1302,6794;0,0646816
1303,6437;0,0654747
1304,6079;0,0663087
1305,5721;0,0671828
1306,5364;0,0680934
1307,5006;0,0690311
1308,4648;0,0699808
1309,4291;0,0709245
1310,3933;0,0718444
1311,3575;0,0727224
1312,3218;0,0735374
1313,2860;0,0742629
1314,2502;0,0748664
1315,2145;0,0753146
1316,1787;0,0755798
1317,1429;0,0756496
1318,1072;0,0755359
1319,0714;0,0752786
1320,0356;0,0749363
1320,9999;0,0745682
1321,9641;0,0742165
1322,9283;0,0739016
1323,8926;0,0736289
1324,8568;0,0733992
1325,8210;0,0732148
1326,7853;0,0730797
1327,7495;0,0729942
1328,7137;0,0729501
1329,6780;0,072928
1330,6422;0,0728999
1331,6064;0,0728351
1332,5707;0,0727069
1333,5349;0,0724954
1334,4991;0,072185
1335,4634;0,071759
1336,4276;0,071202
1337,3918;0,0705124
1338,3561;0,0697235
1339,3203;0,0689104
1340,2845;0,0681619
1341,2488;0,0675325
1342,2130;0,0670232
1343,1772;0,0666004
1344,1415;0,0662288
1345,1057;0,0658935
1346,0699;0,0656054
1347,0342;0,0653943
1347,9984;0,0652936
1348,9626;0,0653241
1349,9269;0,0654846
1350,8911;0,0657531
1351,8553;0,0660966
1352,8196;0,0664853
1353,7838;0,0669031
1354,7480;0,0673509
1355,7123;0,0678383
1356,6765;0,0683698
1357,6407;0,068936
1358,6050;0,0695149
1359,5692;0,0700812
1360,5334;0,0706155
1361,4977;0,0711108
1362,4619;0,0715736
1363,4261;0,0720158
1364,3904;0,0724428
1365,3546;0,0728494
1366,3188;0,0732232
1367,2831;0,0735495
1368,2473;0,0738132
1369,2115;0,0739975
1370,1758;0,0740796
1371,1400;0,0740286
1372,1042;0,0738117
1373,0685;0,0734123
1374,0327;0,072854
1374,9969;0,0722004
1375,9612;0,0715146
1376,9254;0,0708122
1377,8896;0,0700578
1378,8539;0,0692048
1379,8181;0,0682436
1380,7823;0,0672204
1381,7466;0,0662107
1382,7108;0,0652657
1383,6750;0,0643789
1384,6393;0,0634995
1385,6035;0,0625844
1386,5677;0,0616565
1387,5320;0,0608152
1388,4962;0,0601661
1389,4604;0,0597397
1390,4247;0,0594858
1391,3889;0,0593265
1392,3531;0,0591995
1393,3174;0,0590762
1394,2816;0,0589619
1395,2458;0,058885
1396,2101;0,0588778
1397,1743;0,0589616
1398,1385;0,0591413
1399,1028;0,059408
1400,0670;0,0597405
1401,0313;0,0601112
1401,9955;0,0604948
1402,9597;0,0608789
1403,9240;0,061269
1404,8882;0,0616858
1405,8524;0,0621503
1406,8167;0,0626695
1407,7809;0,0632359
1408,7451;0,0638419
1409,7094;0,0644914
1410,6736;0,0651963
1411,6378;0,0659612
1412,6021;0,066769
1413,5663;0,067584
1414,5305;0,0683676
1415,4948;0,0690909
1416,4590;0,0697379
1417,4232;0,0703043
1418,3875;0,0707955
1419,3517;0,0712163
1420,3159;0,0715534
1421,2802;0,0717713
1422,2444;0,0718322
1423,2086;0,0717202
1424,1729;0,0714543
1425,1371;0,0710746
1426,1013;0,0706059
1427,0656;0,0700292
1428,0298;0,0692964
1428,9940;0,0683906
1429,9583;0,0673803
1430,9225;0,0663965
1431,8867;0,0655348
1432,8510;0,0647802
1433,8152;0,0640193
1434,7794;0,0631207
1435,7437;0,062054
1436,7079;0,0609754
1437,6721;0,0601337
1438,6364;0,0596511
1439,6006;0,0594669
1440,5648;0,0594569
1441,5291;0,059534
1442,4933;0,0596675
1443,4575;0,0598605
1444,4218;0,0601205
1445,3860;0,0604412
1446,3502;0,0608019
1447,3145;0,0611807
1448,2787;0,0615669
1449,2429;0,0619627
1450,2072;0,0623718
1451,1714;0,0627883
1452,1356;0,0631897
1453,0999;0,0635318
1454,0641;0,0637363
1455,0283;0,0636804
1455,9926;0,0632505
1456,9568;0,0625346
1457,9210;0,0619003
1458,8853;0,0616163
1459,8495;0,0616141
1460,8137;0,0616856
1461,7780;0,0616374
1462,7422;0,0613042
1463,7064;0,0605719
1464,6707;0,0594665
1465,6349;0,0581957
1466,5991;0,0569992
1467,5634;0,055957
1468,5276;0,054973
1469,4918;0,0538608
1470,4561;0,0524148
1471,4203;0,0504953
1472,3845;0,0481826
1473,3488;0,045854
1474,3130;0,0439171
1475,2772;0,0424786
1476,2415;0,0413988
1477,2057;0,0405133
1478,1699;0,0397253
1479,1342;0,0389943
1480,0984;0,038309
1481,0626;0,0376764
1482,0269;0,037119
1482,9911;0,0366636
1483,9553;0,036324
1484,9196;0,0360884
1485,8838;0,0359234
1486,8480;0,0357942
1487,8123;0,0356954
1488,7765;0,0356738
1489,7407;0,0357987
1490,7050;0,0360889
1491,6692;0,0365005
1492,6334;0,0369799
1493,5977;0,0375006
1494,5619;0,0380637
1495,5261;0,0386883
1496,4904;0,0393968
1497,4546;0,0401935
1498,4188;0,0410485
1499,3831;0,0419127
1500,3473;0,0427444
1501,3115;0,0435168
1502,2758;0,0442061
1503,2400;0,0447763
1504,2042;0,0451584
1505,1685;0,0452291
1506,1327;0,0448603
1507,0969;0,0441433
1508,0612;0,0434613
1509,0254;0,0430459
1509,9896;0,0428175
1510,9539;0,0426302
1511,9181;0,0423883
1512,8823;0,0420371
1513,8466;0,041547
1514,8108;0,0409194
1515,7750;0,0401959
1516,7393;0,0394426
1517,7035;0,0387059
1518,6677;0,0379819
1519,6320;0,0372362
1520,5962;0,0364635
1521,5604;0,0357257
1522,5247;0,035115
1523,4889;0,0346783
1524,4531;0,0343981
1525,4174;0,0342328
1526,3816;0,0341549
1527,3458;0,0341549
1528,3101;0,0342232
1529,2743;0,0343398
1530,2385;0,0344812
1531,2028;0,0346369
1532,1670;0,034823
1533,1312;0,0350756
1534,0955;0,0354183
1535,0597;0,035835
1536,0239;0,0362815
1536,9882;0,0367082
1537,9524;0,0370598
1538,9166;0,037259
1539,8809;0,0372265
1540,8451;0,0369979
1541,8093;0,0367691
1542,7736;0,036678
1543,7378;0,0367042
1544,7020;0,036786
1545,6663;0,0368891
1546,6305;0,0370019
1547,5947;0,037116
1548,5590;0,0372189
1549,5232;0,0373001
1550,4874;0,0373651
1551,4517;0,0374415
1552,4159;0,0375631
1553,3801;0,0377433
1554,3444;0,0379589
1555,3086;0,0381501
1556,2728;0,0382247
1557,2371;0,0380866
1558,2013;0,037768
1559,1655;0,0375513
1560,1298;0,0376664
1561,0940;0,0380409
1562,0582;0,0385238
1563,0225;0,0390317
1563,9867;0,0395296
1564,9509;0,0399986
1565,9152;0,0404277
1566,8794;0,0408258
1567,8436;0,0412374
1568,8079;0,041729
1569,7721;0,0423354
1570,7363;0,0430227
1571,7006;0,0437232
1572,6648;0,0443903
1573,6290;0,0450202
1574,5933;0,0456454
1575,5575;0,0463113
1576,5217;0,0470376
1577,4860;0,0477952
1578,4502;0,0485432
1579,4144;0,0492685
1580,3787;0,0499829
1581,3429;0,0507021
1582,3071;0,0514368
1583,2714;0,0521922
1584,2356;0,0529731
1585,1998;0,0537848
1586,1641;0,0546261
1587,1283;0,0554813
1588,0925;0,0563168
1589,0568;0,0570886
1590,0210;0,0577538
1590,9852;0,0582774
1591,9495;0,0586326
1592,9137;0,0588017
1593,8779;0,058784
1594,8422;0,058605
1595,8064;0,0583122
1596,7706;0,0579558
1597,7349;0,0575693
1598,6991;0,057165
1599,6633;0,0567446
1600,6276;0,0563138
1601,5918;0,0558895
1602,5560;0,0554953
1603,5203;0,0551493
1604,4845;0,0548513
1605,4487;0,0545805
1606,4130;0,0543072
1607,3772;0,054015
1608,3414;0,0537219
1609,3057;0,0534811
1610,2699;0,0533474
1611,2341;0,0533347
1612,1984;0,053404
1613,1626;0,0534823
1614,1268;0,0534929
1615,0911;0,0533976
1616,0553;0,0532473
1617,0195;0,0531717
1617,9838;0,0532618
1618,9480;0,053491
1619,9122;0,0537682
1620,8765;0,0540129
1621,8407;0,0541857
1622,8049;0,0542948
1623,7692;0,0543831
1624,7334;0,0544945
1625,6976;0,054645
1626,6619;0,0548304
1627,6261;0,0550524
1628,5903;0,0553235
1629,5546;0,0556495
1630,5188;0,0560105
1631,4830;0,0563593
1632,4473;0,0566283
1633,4115;0,0567378
1634,3757;0,0566287
1635,3400;0,0563481
1636,3042;0,0560911
1637,2684;0,0560335
1638,2327;0,0561755
1639,1969;0,0564236
1640,1611;0,0567036
1641,1254;0,0569789
1642,0896;0,0572249
1643,0538;0,0574028
1644,0181;0,0574502
1644,9823;0,0573126
1645,9465;0,0570297
1646,9108;0,0567801
1647,8750;0,0567324
1648,8392;0,0568756
1649,8035;0,0570486
1650,7677;0,0570205
1651,7319;0,0565296
1652,6962;0,0554784
1653,6604;0,054295
1654,6246;0,0535931
1655,5889;0,0534167
1656,5531;0,0534595
1657,5173;0,0534828
1658,4816;0,0533631
1659,4458;0,0530317
1660,4100;0,0524558
1661,3743;0,0516746
1662,3385;0,0508318
1663,3027;0,0501041
1664,2670;0,0495709
1665,2312;0,0491752
1666,1954;0,0487793
1667,1597;0,0482295
1668,1239;0,0474237
1669,0881;0,0464013
1670,0524;0,0453626
1671,0166;0,0445056
1671,9808;0,0438476
1672,9451;0,0432538
1673,9093;0,0425793
1674,8735;0,0417817
1675,8378;0,0409523
1676,8020;0,04024
1677,7662;0,0397247
1678,7305;0,0393738
1679,6947;0,0390842
1680,6589;0,0387207
1681,6232;0,0381284
1682,5874;0,0371846
1683,5516;0,0359619
1684,5159;0,0348001
1685,4801;0,0339864
1686,4443;0,0334955
1687,4086;0,0331535
1688,3728;0,0328343
1689,3370;0,0325012
1690,3013;0,0321744
1691,2655;0,0318847
1692,2297;0,031641
1693,1940;0,0314217
1694,1582;0,0311877
1695,1224;0,0309055
1696,0867;0,0305666
1697,0509;0,0301905
1698,0151;0,0298121
1698,9794;0,0294727
1699,9436;0,0292185
1700,9078;0,0290873
1701,8721;0,029086
1702,8363;0,0291899
1703,8005;0,0293642
1704,7648;0,0295846
1705,7290;0,0298447
1706,6932;0,0301513
1707,6575;0,030512
1708,6217;0,0309268
1709,5859;0,0313889
1710,5502;0,0318864
1711,5144;0,032403
1712,4786;0,0329145
1713,4429;0,0333912
1714,4071;0,0338071
1715,3713;0,0341612
1716,3356;0,0344982
1717,2998;0,0348909
1718,2640;0,0353756
1719,2283;0,035927
1720,1925;0,0365029
1721,1567;0,0370785
1722,1210;0,0376442
1723,0852;0,0381935
1724,0494;0,0387174
1725,0137;0,0392084
1725,9779;0,0396656
1726,9421;0,0400947
1727,9064;0,0404992
1728,8706;0,0408694
1729,8348;0,0411752
1730,7991;0,041366
1731,7633;0,0413863
1732,7275;0,0412236
1733,6918;0,0409616
1734,6560;0,0407358
1735,6202;0,040603
1736,5845;0,0405033
1737,5487;0,040331
1738,5129;0,0400013
1739,4772;0,0394853
1740,4414;0,0388238
1741,4056;0,0381049
1742,3699;0,0374019
1743,3341;0,0367286
1744,2983;0,0360516
1745,2626;0,0353261
1746,2268;0,0345099
1747,1910;0,0335574
1748,1553;0,0324275
1749,1195;0,0311351
1750,0837;0,0297988
1751,0480;0,0285866
1752,0122;0,0275903
1752,9764;0,0267754
1753,9407;0,0260379
1754,9049;0,025283
1755,8691;0,0244744
1756,8334;0,0236402
1757,7976;0,0228354
1758,7618;0,0220891
1759,7261;0,0213831
1760,6903;0,0206835
1761,6545;0,0199895
1762,6188;0,0193449
1763,5830;0,0187976
1764,5472;0,0183559
1765,5115;0,0179854
1766,4757;0,0176381
1767,4399;0,0172795
1768,4042;0,0168963
1769,3684;0,0164892
1770,3326;0,0160632
1771,2969;0,0156322
1772,2611;0,0152345
1773,2253;0,0149229
1774,1896;0,0147246
1775,1538;0,0146198
1776,1180;0,0145599
1777,0823;0,0144979
1778,0465;0,0144069
1779,0107;0,0142861
1779,9750;0,0141543
1780,9392;0,0140331
1781,9034;0,0139311
1782,8677;0,013845
1783,8319;0,0137728
1784,7961;0,0137222
1785,7604;0,0137038
1786,7246;0,0137177
1787,6888;0,0137458
1788,6531;0,0137569
1789,6173;0,0137178
1790,5815;0,0136101
1791,5458;0,0134498
1792,5100;0,0132902
1793,4742;0,013186
1794,4385;0,0131499
1795,4027;0,0131542
1796,3669;0,0131601
1797,3312;0,0131388
1798,2954;0,0130792
1799,2596;0,0129887
1800,2239;0,0128898
1801,1881;0,0128077
1802,1523;0,0127566
1803,1166;0,0127358
1804,0808;0,0127355
1805,0450;0,0127437
1806,0093;0,0127503
1806,9735;0,0127469
1807,9377;0,0127272
1808,9020;0,0126893
1809,8662;0,0126373
1810,8304;0,0125807
1811,7947;0,0125294
1812,7589;0,0124872
1813,7231;0,0124511
1814,6874;0,0124159
1815,6516;0,01238
1816,6158;0,0123488
1817,5801;0,0123323
1818,5443;0,012338
1819,5085;0,0123634
1820,4728;0,0123964
1821,4370;0,0124212
1822,4012;0,0124262
1823,3655;0,0124088
1824,3297;0,0123748
1825,2939;0,012332
1826,2582;0,0122827
1827,2224;0,0122225
1828,1866;0,012148
1829,1509;0,0120679
1830,1151;0,0120034
1831,0793;0,0119752
1832,0436;0,0119865
1833,0078;0,0120219
1833,9720;0,0120597
1834,9363;0,0120848
1835,9005;0,0120951
1836,8647;0,0121003
1837,8290;0,0121129
1838,7932;0,0121372
1839,7574;0,0121648
1840,7217;0,0121791
1841,6859;0,0121633
1842,6501;0,0121085
1843,6144;0,0120226
1844,5786;0,0119297
1845,5428;0,0118558
1846,5071;0,0118111
1847,4713;0,01179
1848,4355;0,0117823
1849,3998;0,011782
1850,3640;0,0117876
1851,3282;0,0117993
1852,2925;0,0118165
1853,2567;0,011838
1854,2209;0,0118634
1855,1852;0,0118937
1856,1494;0,0119273
1857,1136;0,0119566
1858,0779;0,0119682
1859,0421;0,011949
1860,0063;0,011896
1860,9706;0,0118211
1861,9348;0,0117471
1862,8990;0,0116962
1863,8633;0,01168
1864,8275;0,0116978
1865,7917;0,0117396
1866,7560;0,0117915
1867,7202;0,011838
1868,6844;0,0118655
1869,6487;0,011866
1870,6129;0,0118393
1871,5771;0,0117915
1872,5414;0,0117312
1873,5056;0,0116691
1874,4698;0,0116167
1875,4341;0,0115833
1876,3983;0,0115729
1877,3625;0,0115824
1878,3268;0,0116035
1879,2910;0,0116275
1880,2552;0,0116497
1881,2195;0,0116693
1882,1837;0,0116889
1883,1479;0,0117106
1884,1122;0,0117336
1885,0764;0,011753
1886,0406;0,0117612
1887,0049;0,0117512
1887,9691;0,0117208
1888,9333;0,0116761
1889,8976;0,0116294
1890,8618;0,0115935
1891,8260;0,0115747
1892,7903;0,0115717
1893,7545;0,0115796
1894,7188;0,0115944
1895,6830;0,0116155
1896,6472;0,0116447
1897,6115;0,0116829
1898,5757;0,0117271
1899,5399;0,0117696
1900,5042;0,0118
1901,4684;0,0118084
1902,4326;0,01179
1903,3969;0,0117472
1904,3611;0,0116897
1905,3253;0,0116317
1906,2896;0,0115876
1907,2538;0,0115689
1908,2180;0,0115795
1909,1823;0,0116131
1910,1465;0,0116524
1911,1107;0,0116757
1912,0750;0,0116666
1913,0392;0,0116226
1914,0034;0,0115576
1914,9677;0,0114982
1915,9319;0,0114736
1916,8961;0,0114993
1917,8604;0,0115633
1918,8246;0,0116304
1919,7888;0,0116638
1920,7531;0,0116493
1921,7173;0,0116008
1922,6815;0,0115498
1923,6458;0,0115243
1924,6100;0,0115317
1925,5742;0,0115565
1926,5385;0,0115745
1927,5027;0,01157
1928,4669;0,0115445
1929,4312;0,0115143
1930,3954;0,0115
1931,3596;0,0115151
1932,3239;0,0115571
1933,2881;0,0116059
1934,2523;0,0116294
1935,2166;0,0115965
1936,1808;0,011493
1937,1450;0,0113349
1938,1093;0,0111679
1939,0735;0,0110525
1940,0377;0,0110384
1941,0020;0,0111383
1941,9662;0,0113133
1942,9304;0,0114887
1943,8947;0,0115967
1944,8589;0,0116138
1945,8231;0,0115637
1946,7874;0,0114879
1947,7516;0,0114169
1948,7158;0,0113563
1949,6801;0,0112919
1950,6443;0,0112063
1951,6085;0,0110942
1952,5728;0,0109685
1953,5370;0,010856
1954,5012;0,0107853
1955,4655;0,0107734
1956,4297;0,0108168
1957,3939;0,0108893
1958,3582;0,0109491
1959,3224;0,0109547
1960,2866;0,0108847
1961,2509;0,0107523
1962,2151;0,0106048
1963,1793;0,0105069
1964,1436;0,0105159
1965,1078;0,0106576
1966,0720;0,0109091
1967,0363;0,0111978
1968,0005;0,0114251
1968,9647;0,0115099
1969,9290;0,0114273
1970,8932;0,0112184
1971,8574;0,0109729
1972,8217;0,0107933
1973,7859;0,0107559
1974,7501;0,0108832
1975,7144;0,0111402
1976,6786;0,011457
1977,6428;0,0117645
1978,6071;0,0120185
1979,5713;0,0121997
1980,5355;0,0122998
1981,4998;0,0123118
1982,4640;0,0122326
1983,4282;0,0120741
1984,3925;0,0118713
1985,3567;0,0116778
1986,3209;0,0115506
1987,2852;0,011531
1988,2494;0,0116314
1989,2136;0,0118325
1990,1779;0,0120888
1991,1421;0,0123407
1992,1063;0,0125311
1993,0706;0,0126236
1994,0348;0,0126115
1994,9990;0,0125128
1995,9633;0,012358
1996,9275;0,0121785
1997,8917;0,0120002
1998,8560;0,011843
1999,8202;0,011721
2000,7844;0,0116454
2001,7487;0,0116243
2002,7129;0,0116617
2003,6771;0,0117519
2004,6414;0,011875
2005,6056;0,0119959
2006,5698;0,0120735
2007,5341;0,0120803
2008,4983;0,0120195
2009,4625;0,0119287
2010,4268;0,0118614
2011,3910;0,0118569
2012,3552;0,0119158
2013,3195;0,0119974
2014,2837;0,0120464
2015,2479;0,0120362
2016,2122;0,0120042
2017,1764;0,0120436
2018,1406;0,0122423
2019,1049;0,0126064
2020,0691;0,0130279
2021,0333;0,0133307
2021,9976;0,0133713
2022,9618;0,0131347
2023,9260;0,0127603
2024,8903;0,012471
2025,8545;0,01244
2026,8187;0,0126839
2027,7830;0,0130572
2028,7472;0,013353
2029,7114;0,0134384
2030,6757;0,0133332
2031,6399;0,0131827
2032,6041;0,0131516
2033,5684;0,0133155
2034,5326;0,0136242
2035,4968;0,0139499
2036,4611;0,0141721
2037,4253;0,014233
2038,3895;0,014141
2039,3538;0,0139415
2040,3180;0,0136884
2041,2822;0,013433
2042,2465;0,0132239
2043,2107;0,0131053
2044,1749;0,0131059
2045,1392;0,0132227
2046,1034;0,0134102
2047,0676;0,0135886
2048,0320;0,0136749
2048,9961;0,0136246
2049,9604;0,0134553
2050,9246;0,0132366
2051,8889;0,0130561
2052,8530;0,0129834
2053,8174;0,0130448
2054,7815;0,0132167
2055,7458;0,0134387
2056,7100;0,0136418
2057,6743;0,0137758
2058,6384;0,0138228
2059,6028;0,0137945
2060,5669;0,0137206
2061,5313;0,0136377
2062,4954;0,0135816
2063,4597;0,0135792
2064,4238;0,0136393
2065,3882;0,0137475
2066,3523;0,01387
2067,3167;0,0139685
2068,2808;0,0140177
2069,2451;0,0140136
2070,2092;0,0139706
2071,1736;0,0139099
2072,1377;0,0138493
2073,1021;0,0138002
2074,0662;0,0137696
2075,0305;0,0137638
2075,9946;0,0137861
2076,9590;0,0138315
2077,9231;0,0138834
2078,8875;0,013918
2079,8516;0,0139144
2080,8159;0,0138653
2081,7800;0,0137803
2082,7444;0,0136816
2083,7085;0,0135943
2084,6729;0,0135363
2085,6370;0,0135132
2086,6013;0,0135179
2087,5654;0,0135335
2088,5298;0,0135401
2089,4939;0,013522
2090,4583;0,0134743
2091,4224;0,0134061
2092,3867;0,013339
2093,3508;0,0133002
2094,3152;0,0133141
2095,2793;0,0133926
2096,2437;0,0135298
2097,2078;0,0137015
2098,1721;0,0138707
2099,1362;0,0139975
2100,1006;0,0140518
2101,0647;0,0140248
2102,0291;0,0139366
2102,9932;0,0138321
2103,9575;0,0137642
2104,9216;0,0137697
2105,8860;0,01385
2106,8501;0,0139695
2107,8145;0,0140741
2108,7786;0,0141217
2109,7429;0,0141054
2110,7070;0,0140557
2111,6714;0,0140188
2112,6355;0,014026
2113,5999;0,0140746
2114,5640;0,0141307
2115,5283;0,014153
2116,4924;0,0141198
2117,4568;0,0140415
2118,4209;0,0139533
2119,3853;0,0138928
2120,3494;0,0138796
2121,3137;0,0139081
2122,2778;0,0139557
2123,2422;0,0139994
2124,2063;0,014027
2125,1707;0,0140388
2126,1348;0,0140407
2127,0991;0,014037
2128,0632;0,0140286
2129,0276;0,0140162
2129,9917;0,0140048
2130,9561;0,014005
2131,9202;0,0140303
2132,8845;0,0140903
2133,8486;0,0141848
2134,8130;0,0143008
2135,7771;0,0144144
2136,7415;0,014498
2137,7056;0,0145314
2138,6699;0,0145116
2139,6340;0,0144581
2140,5984;0,0144088
2141,5625;0,014406
2142,5269;0,0144778
2143,4910;0,0146225
2144,4553;0,0148079
2145,4194;0,0149852
2146,3838;0,0151122
2147,3479;0,015172
2148,3123;0,0151759
2149,2764;0,0151497
2150,2407;0,0151142
2151,2048;0,0150754
2152,1692;0,0150316
2153,1333;0,0149929
2154,0977;0,0149974
2155,0618;0,0151069
2156,0261;0,0153769
2156,9902;0,0158057
2157,9546;0,0163012
2158,9187;0,0167086
2159,8831;0,0169028
2160,8472;0,016867
2161,8115;0,0166847
2162,7756;0,0164675
2163,7400;0,0162894
2164,7041;0,0161652
2165,6685;0,0160705
2166,6326;0,0159795
2167,5969;0,0158904
2168,5610;0,0158236
2169,5254;0,0157989
2170,4895;0,0158125
2171,4539;0,0158316
2172,4180;0,0158093
2173,3823;0,0157084
2174,3464;0,0155204
2175,3108;0,0152693
2176,2749;0,0150022
2177,2393;0,0147747
2178,2034;0,0146365
2179,1677;0,0146173
2180,1318;0,0147119
2181,0962;0,0148717
2182,0603;0,0150149
2183,0247;0,015061
2183,9888;0,0149752
2184,9531;0,0147924
2185,9172;0,0146008
2186,8816;0,0144949
2187,8457;0,0145255
2188,8101;0,0146762
2189,7742;0,01488
2190,7385;0,0150596
2191,7026;0,0151646
2192,6670;0,0151849
2193,6311;0,0151385
2194,5955;0,0150495
2195,5596;0,0149352
2196,5239;0,0148065
2197,4880;0,0146759
2198,4524;0,0145598
2199,4165;0,0144724
2200,3809;0,0144184
2201,3450;0,0143913
2202,3093;0,0143822
2203,2734;0,014389
2204,2378;0,0144188
2205,2019;0,0144797
2206,1663;0,0145683
2207,1304;0,0146653
2208,0947;0,0147421
2209,0588;0,0147746
2210,0232;0,014754
2210,9873;0,0146879
2211,9517;0,0145933
2212,9158;0,0144888
2213,8801;0,0143912
2214,8442;0,0143149
2215,8086;0,0142708
2216,7727;0,0142627
2217,7371;0,0142844
2218,7012;0,0143227
2219,6655;0,0143668
2220,6296;0,0144166
2221,5940;0,0144818
2222,5581;0,0145703
2223,5225;0,0146743
2224,4866;0,014766
2225,4509;0,0148095
2226,4150;0,014781
2227,3794;0,0146839
2228,3435;0,0145478
2229,3079;0,0144118
2230,2720;0,0143051
2231,2363;0,0142378
2232,2004;0,014205
2233,1648;0,014197
2234,1289;0,0142049
2235,0933;0,0142202
2236,0574;0,0142313
2237,0217;0,0142252
2237,9858;0,0141949
2238,9502;0,0141469
2239,9143;0,0141008
2240,8787;0,0140792
2241,8428;0,0140945
2242,8071;0,0141418
2243,7712;0,0142011
2244,7356;0,014247
2245,6997;0,0142597
2246,6641;0,0142311
2247,6282;0,0141661
2248,5925;0,0140817
2249,5566;0,0140024
2250,5210;0,013954
2251,4851;0,0139526
2252,4495;0,0139966
2253,4136;0,014064
2254,3779;0,0141223
2255,3420;0,0141439
2256,3064;0,01412
2257,2705;0,0140623
2258,2349;0,0139926
2259,1990;0,0139292
2260,1633;0,0138785
2261,1274;0,0138376
2262,0918;0,0138033
2263,0559;0,013779
2264,0203;0,0137754
2264,9844;0,013803
2265,9487;0,0138642
2266,9128;0,0139483
2267,8772;0,0140347
2268,8413;0,0140998
2269,8057;0,0141254
2270,7698;0,0141041
2271,7341;0,0140409
2272,6982;0,013951
2273,6626;0,0138542
2274,6267;0,0137687
2275,5911;0,0137074
2276,5552;0,0136757
2277,5195;0,0136737
2278,4836;0,013698
2279,4480;0,0137433
2280,4121;0,0138029
2281,3765;0,0138694
2282,3406;0,013936
2283,3049;0,0139978
2284,2690;0,0140516
2285,2334;0,014094
2286,1975;0,0141201
2287,1619;0,014124
2288,1260;0,0141033
2289,0903;0,0140631
2290,0544;0,014017
2291,0188;0,0139821
2291,9829;0,0139703
2292,9473;0,0139817
2293,9114;0,014004
2294,8757;0,0140203
2295,8398;0,0140196
2296,8042;0,0140032
2297,7683;0,0139837
2298,7327;0,013976
2299,6968;0,0139877
2300,6611;0,0140136
2301,6252;0,014039
2302,5896;0,014049
2303,5537;0,0140383
2304,5181;0,0140149
2305,4822;0,0139956
2306,4465;0,0139955
2307,4106;0,0140182
2308,3750;0,014052
2309,3391;0,0140757
2310,3035;0,0140711
2311,2676;0,0140343
2312,2319;0,0139773
2313,1960;0,0139201
2314,1604;0,013877
2315,1245;0,0138502
2316,0889;0,0138323
2317,0530;0,0138167
2318,0173;0,0138052
2318,9814;0,0138097
2319,9458;0,0138432
2320,9099;0,0139082
2321,8743;0,0139903
2322,8384;0,0140635
2323,8027;0,014103
2324,7668;0,0140945
2325,7312;0,0140386
2326,6953;0,0139498
2327,6597;0,0138531
2328,6238;0,0137761
2329,5881;0,0137389
2330,5522;0,0137452
2331,5166;0,0137806
2332,4807;0,0138188
2333,4451;0,0138326
2334,4092;0,0138052
2335,3735;0,013739
2336,3376;0,0136576
2337,3020;0,013599
2338,2661;0,0135985
2339,2305;0,0136677
2340,1946;0,0137814
2341,1589;0,0138816
2342,1230;0,0139014
2343,0874;0,0138153
2344,0515;0,0136876
2345,0159;0,0136421
2345,9800;0,0137502
2346,9443;0,0139689
2347,9084;0,0141895
2348,8728;0,0143172
2349,8369;0,0143172
2350,8013;0,014223
2351,7654;0,014117
2352,7297;0,0140883
2353,6938;0,0141835
2354,6582;0,0143866
2355,6223;0,0146402
2356,5867;0,0148766
2357,5508;0,0150269
2358,5151;0,0150305
2359,4792;0,0148599
2360,4436;0,0145411
2361,4077;0,0141396
2362,3721;0,0137262
2363,3362;0,0133532
2364,3005;0,0130529
2365,2646;0,0128404
2366,2290;0,0127136
2367,1931;0,0126524
2368,1575;0,0126265
2369,1216;0,0126074
2370,0859;0,0125791
2371,0500;0,0125395
2372,0144;0,0124968
2372,9785;0,0124638
2373,9429;0,0124545
2374,9070;0,012481
2375,8713;0,0125514
2376,8354;0,0126672
2377,7998;0,0128215
2378,7639;0,0129996
2379,7283;0,0131824
2380,6924;0,0133512
2381,6567;0,0134924
2382,6208;0,0136001
2383,5852;0,013677
2384,5493;0,0137312
2385,5137;0,0137731
2386,4778;0,0138105
2387,4421;0,013847
2388,4063;0,0138814
2389,3706;0,0139102
2390,3347;0,013931
2391,2991;0,0139441
2392,2632;0,0139528
2393,2275;0,0139611
2394,1917;0,0139714
2395,1560;0,0139844
2396,1201;0,0139999
2397,0845;0,0140183
2398,0486;0,0140412
2399,0129;0,014069
2399,9771;0,0141003
2400,9414;0,0141314
2401,9055;0,0141587
2402,8699;0,0141816
2403,8340;0,0142037
2404,7983;0,0142314
2405,7625;0,0142696
2406,7268;0,0143178
2407,6909;0,0143692
2408,6553;0,014413
2409,6194;0,0144396
2410,5837;0,0144451
2411,5479;0,014434
2412,5122;0,0144174
2413,4763;0,0144088
2414,4407;0,0144181
2415,4048;0,0144473
2416,3691;0,0144898
2417,3333;0,0145335
2418,2976;0,0145662
2419,2617;0,0145817
2420,2261;0,0145819
2421,1902;0,0145755
2422,1545;0,0145738
2423,1187;0,0145855
2424,0830;0,0146134
2425,0471;0,0146542
2426,0115;0,0147012
2426,9756;0,0147474
2427,9399;0,0147885
2428,9041;0,0148234
2429,8684;0,0148533
2430,8325;0,0148807
2431,7969;0,0149076
2432,7610;0,0149354
2433,7253;0,0149647
2434,6895;0,0149952
2435,6538;0,0150256
2436,6179;0,015054
2437,5823;0,0150788
2438,5464;0,0150997
2439,5107;0,015118
2440,4749;0,0151358
2441,4392;0,0151538
2442,4033;0,0151703
2443,3677;0,0151826
2444,3318;0,0151884
2445,2961;0,0151892
2446,2603;0,0151896
2447,2246;0,0151958
2448,1887;0,015212
2449,1531;0,0152383
2450,1172;0,0152711
2451,0815;0,015305
2452,0457;0,0153357
2453,0100;0,0153609
2453,9741;0,015381
2454,9385;0,0153982
2455,9026;0,0154158
2456,8669;0,0154372
2457,8311;0,0154648
2458,7954;0,0154981
2459,7595;0,0155335
2460,7239;0,0155651
2461,6880;0,0155876
2462,6523;0,0155987
2463,6165;0,0156004
2464,5808;0,015598
2465,5449;0,0155979
2466,5093;0,0156052
2467,4734;0,0156225
2468,4377;0,0156491
2469,4019;0,0156818
2470,3662;0,0157156
2471,3303;0,0157459
2472,2947;0,0157693
2473,2588;0,0157853
2474,2231;0,0157957
2475,1873;0,0158042
2476,1516;0,015814
2477,1157;0,0158276
2478,0801;0,0158462
2479,0442;0,0158702
2480,0085;0,0159003
2480,9727;0,0159369
2481,9370;0,015979
2482,9011;0,0160234
2483,8655;0,0160649
2484,8296;0,0160972
2485,7939;0,0161157
2486,7581;0,0161198
2487,7224;0,0161135
2488,6865;0,0161043
2489,6509;0,0161004
2490,6150;0,0161069
2491,5793;0,016125
2492,5435;0,0161517
2493,5078;0,0161827
2494,4719;0,0162149
2495,4363;0,0162471
2496,4004;0,0162795
2497,3647;0,0163118
2498,3289;0,0163425
2499,2932;0,0163686
2500,2573;0,0163876
2501,2217;0,0163987
2502,1858;0,0164035
2503,1501;0,0164049
2504,1143;0,016407
2505,0786;0,016414
2506,0427;0,0164301
2507,0071;0,0164577
2507,9712;0,0164963
2508,9355;0,0165404
2509,8997;0,0165803
2510,8640;0,0166059
2511,8281;0,0166118
2512,7925;0,0166013
2513,7566;0,0165855
2514,7209;0,0165779
2515,6851;0,0165873
2516,6494;0,0166128
2517,6135;0,0166446
2518,5779;0,0166704
2519,5420;0,0166821
2520,5063;0,0166805
2521,4705;0,016673
2522,4348;0,0166689
2523,3989;0,0166736
2524,3633;0,0166864
2525,3274;0,0167019
2526,2917;0,016714
2527,2559;0,0167186
2528,2202;0,016716
2529,1843;0,0167101
2530,1487;0,0167075
2531,1128;0,0167146
2532,0771;0,0167356
2533,0413;0,0167698
2534,0056;0,0168112
2534,9697;0,0168507
2535,9341;0,0168805
2536,8982;0,0168979
2537,8625;0,0169064
2538,8267;0,0169132
2539,7910;0,0169243
2540,7551;0,016941
2541,7195;0,0169601
2542,6836;0,0169776
2543,6479;0,0169914
2544,6121;0,0170032
2545,5764;0,017016
2546,5405;0,0170317
2547,5049;0,0170498
2548,4690;0,0170682
2549,4333;0,0170851
2550,3975;0,0170999
2551,3618;0,0171128
2552,3259;0,0171229
2553,2903;0,0171285
2554,2544;0,0171288
2555,2188;0,0171254
2556,1829;0,0171228
2557,1472;0,0171264
2558,1113;0,0171397
2559,0757;0,0171623
2560,0398;0,0171904
2561,0042;0,0172189
2561,9683;0,0172428
2562,9326;0,0172586
2563,8967;0,0172643
2564,8611;0,0172599
2565,8252;0,0172487
2566,7896;0,0172376
2567,7537;0,017235
2568,7180;0,0172472
2569,6821;0,0172749
2570,6465;0,0173121
2571,6106;0,0173495
2572,5750;0,0173791
2573,5391;0,0173984
2574,5034;0,0174104
2575,4675;0,017421
2576,4319;0,0174349
2577,3960;0,0174541
2578,3604;0,0174779
2579,3245;0,0175043
2580,2888;0,0175306
2581,2529;0,0175536
2582,2173;0,0175706
2583,1814;0,0175806
2584,1458;0,017586
2585,1099;0,0175926
2586,0742;0,0176063
2587,0383;0,0176291
2588,0027;0,0176572
2588,9668;0,0176831
2589,9312;0,0177007
2590,8953;0,0177099
2591,8596;0,0177164
2592,8237;0,0177281
2593,7881;0,0177498
2594,7522;0,0177804
2595,7166;0,0178142
2596,6807;0,0178456
2597,6450;0,0178713
2598,6091;0,0178924
2599,5735;0,017912
2600,5376;0,0179341
2601,5020;0,0179624
2602,4661;0,0179992
2603,4304;0,018044
2604,3945;0,0180928
2605,3589;0,0181386
2606,3230;0,0181744
2607,2874;0,0181974
2608,2515;0,0182112
2609,2158;0,0182242
2610,1799;0,0182451
2611,1443;0,0182773
2612,1084;0,0183175
2613,0728;0,018358
2614,0369;0,018391
2615,0012;0,018413
2615,9653;0,0184265
2616,9297;0,0184382
2617,8938;0,0184568
2618,8582;0,0184893
2619,8223;0,0185388
2620,7866;0,0186022
2621,7507;0,0186706
2622,7151;0,018732
2623,6792;0,0187756
2624,6436;0,0187969
2625,6077;0,0187998
2626,5720;0,0187952
2627,5361;0,0187955
2628,5005;0,01881
2629,4646;0,0188415
2630,4290;0,0188866
2631,3931;0,0189385
2632,3574;0,0189903
2633,3215;0,0190366
2634,2859;0,0190743
2635,2500;0,0191032
2636,2144;0,0191255
2637,1785;0,0191451
2638,1428;0,0191665
2639,1069;0,0191932
2640,0713;0,0192267
2641,0354;0,0192663
2641,9998;0,01931
2642,9639;0,019356
2643,9282;0,0194032
2644,8923;0,0194511
2645,8567;0,019499
2646,8208;0,0195457
2647,7852;0,0195898
2648,7493;0,0196301
2649,7136;0,0196658
2650,6777;0,0196965
2651,6421;0,0197223
2652,6062;0,019744
2653,5706;0,019763
2654,5347;0,0197821
2655,4990;0,019804
2656,4631;0,0198298
2657,4275;0,0198582
2658,3916;0,0198856
2659,3560;0,0199083
2660,3201;0,019925
2661,2844;0,0199381
2662,2485;0,0199521
2663,2129;0,0199709
2664,1770;0,0199955
2665,1414;0,0200234
2666,1055;0,0200506
2667,0698;0,0200747
2668,0339;0,020096
2668,9983;0,0201171
2669,9624;0,0201409
2670,9268;0,0201689
2671,8909;0,020201
2672,8552;0,0202366
2673,8193;0,0202754
2674,7837;0,020317
2675,7478;0,0203606
2676,7122;0,0204041
2677,6763;0,0204447
2678,6406;0,0204811
2679,6047;0,0205147
2680,5691;0,0205493
2681,5332;0,0205893
2682,4976;0,0206364
2683,4617;0,0206885
2684,4260;0,0207405
2685,3901;0,020787
2686,3545;0,0208253
2687,3186;0,020857
2688,2830;0,0208864
2689,2471;0,0209187
2690,2114;0,0209573
2691,1755;0,0210026
2692,1399;0,0210525
2693,1040;0,0211039
2694,0684;0,0211539
2695,0325;0,0212007
2695,9968;0,0212441
2696,9609;0,0212849
2697,9253;0,0213243
2698,8894;0,0213637
2699,8538;0,0214039
2700,8179;0,0214457
2701,7822;0,02149
2702,7463;0,0215378
2703,7107;0,0215897
2704,6748;0,021645
2705,6392;0,0217015
2706,6033;0,0217558
2707,5676;0,0218052
2708,5317;0,0218493
2709,4961;0,02189
2710,4602;0,0219305
2711,4246;0,0219732
2712,3887;0,0220186
2713,3530;0,0220646
2714,3171;0,0221086
2715,2815;0,0221486
2716,2456;0,0221849
2717,2100;0,0222198
2718,1741;0,0222566
2719,1384;0,0222978
2720,1025;0,0223433
2721,0669;0,0223903
2722,0310;0,0224338
2722,9954;0,022469
2723,9595;0,0224938
2724,9238;0,0225109
2725,8879;0,0225266
2726,8523;0,0225485
2727,8164;0,0225824
2728,7808;0,0226295
2729,7449;0,022687
2730,7092;0,0227491
2731,6733;0,0228093
2732,6377;0,0228614
2733,6018;0,0229015
2734,5662;0,0229282
2735,5303;0,0229438
2736,4946;0,0229539
2737,4587;0,0229654
2738,4231;0,0229841
2739,3872;0,0230129
2740,3516;0,0230505
2741,3157;0,0230939
2742,2800;0,0231391
2743,2441;0,0231822
2744,2085;0,0232195
2745,1726;0,0232477
2746,1370;0,0232647
2747,1011;0,0232722
2748,0654;0,0232763
2749,0295;0,0232863
2749,9939;0,0233102
2750,9580;0,0233511
2751,9224;0,0234058
2752,8865;0,0234663
2753,8508;0,0235247
2754,8149;0,0235768
2755,7793;0,0236224
2756,7434;0,0236642
2757,7078;0,0237052
2758,6719;0,0237468
2759,6362;0,0237892
2760,6003;0,0238328
2761,5647;0,0238782
2762,5288;0,0239262
2763,4932;0,0239766
2764,4573;0,0240282
2765,4216;0,0240794
2766,3857;0,0241301
2767,3501;0,0241814
2768,3142;0,0242349
2769,2786;0,0242911
2770,2427;0,024348
2771,2070;0,024402
2772,1711;0,0244507
2773,1355;0,0244954
2774,0996;0,0245414
2775,0640;0,024596
2776,0281;0,0246638
2776,9924;0,0247438
2777,9565;0,0248296
2778,9209;0,0249125
2779,8850;0,0249866
2780,8494;0,0250523
2781,8135;0,0251149
2782,7778;0,0251812
2783,7419;0,0252544
2784,7063;0,0253322
2785,6704;0,0254087
2786,6348;0,0254786
2787,5989;0,025542
2788,5632;0,0256051
2789,5273;0,0256779
2790,4917;0,0257685
2791,4558;0,0258789
2792,4202;0,0260034
2793,3843;0,0261312
2794,3486;0,0262513
2795,3127;0,0263569
2796,2771;0,026448
2797,2412;0,0265313
2798,2056;0,0266165
2799,1697;0,0267128
2800,1340;0,0268257
2801,0981;0,0269557
2802,0625;0,0270992
2803,0266;0,0272503
2803,9910;0,0274027
2804,9551;0,0275514
2805,9194;0,027694
2806,8835;0,0278306
2807,8479;0,027964
2808,8120;0,0280991
2809,7764;0,0282411
2810,7405;0,0283942
2811,7048;0,02856
2812,6689;0,028737
2813,6333;0,0289215
2814,5974;0,0291098
2815,5618;0,0293001
2816,5259;0,0294936
2817,4902;0,0296933
2818,4543;0,0299022
2819,4187;0,0301218
2820,3828;0,0303509
2821,3472;0,0305868
2822,3113;0,0308271
2823,2756;0,0310715
2824,2397;0,0313226
2825,2041;0,0315849
2826,1682;0,0318627
2827,1326;0,0321588
2828,0967;0,0324739
2829,0610;0,0328079
2830,0251;0,0331612
2830,9895;0,0335357
2831,9536;0,0339333
2832,9180;0,0343551
2833,8821;0,0347998
2834,8464;0,0352649
2835,8105;0,0357491
2836,7749;0,0362561
2837,7390;0,0367964
2838,7034;0,0373865
2839,6675;0,0380459
2840,6318;0,038793
2841,5959;0,0396419
2842,5603;0,0405996
2843,5244;0,0416622
2844,4888;0,0428106
2845,4529;0,0440057
2846,4172;0,0451863
2847,3813;0,0462752
2848,3457;0,0471926
2849,3098;0,0478755
2850,2742;0,0482943
2851,2383;0,0484594
2852,2026;0,0484146
2853,1667;0,0482214
2854,1311;0,0479393
2855,0952;0,0476143
2856,0596;0,0472754
2857,0237;0,0469402
2857,9880;0,0466232
2858,9521;0,0463409
2859,9165;0,0461109
2860,8806;0,0459475
2861,8450;0,0458567
2862,8091;0,0458355
2863,7734;0,0458745
2864,7375;0,0459633
2865,7019;0,0460928
2866,6660;0,0462548
2867,6304;0,0464383
2868,5945;0,0466277
2869,5588;0,0468046
2870,5229;0,0469528
2871,4873;0,0470651
2872,4514;0,0471459
2873,4158;0,0472089
2874,3799;0,0472704
2875,3442;0,0473427
2876,3083;0,0474305
2877,2727;0,0475324
2878,2368;0,0476443
2879,2012;0,0477638
2880,1653;0,047892
2881,1296;0,0480323
2882,0938;0,0481886
2883,0581;0,0483632
2884,0222;0,0485557
2884,9866;0,048763
2885,9507;0,0489808
2886,9150;0,049205
2887,8792;0,0494336
2888,8435;0,0496667
2889,8076;0,0499058
2890,7720;0,050151
2891,7361;0,0503997
2892,7004;0,0506472
2893,6646;0,0508886
2894,6289;0,0511224
2895,5930;0,0513511
2896,5574;0,0515801
2897,5215;0,0518138
2898,4858;0,0520526
2899,4500;0,0522923
2900,4143;0,0525271
2901,3784;0,0527542
2902,3428;0,0529764
2903,3069;0,0532031
2904,2712;0,0534471
2905,2354;0,0537214
2906,1997;0,0540366
2907,1638;0,0544008
2908,1282;0,0548218
2909,0923;0,0553087
2910,0566;0,0558708
2911,0208;0,0565127
2911,9851;0,057227
2912,9492;0,0579884
2913,9136;0,0587534
2914,8777;0,059467
2915,8420;0,0600756
2916,8062;0,0605398
2917,7705;0,0608417
2918,7346;0,0609835
2919,6990;0,0609795
2920,6631;0,0608469
2921,6274;0,0606003
2922,5916;0,0602523
2923,5559;0,0598167
2924,5200;0,0593103
2925,4844;0,0587517
2926,4485;0,0581569
2927,4128;0,0575362
2928,3770;0,0568951
2929,3413;0,0562377
2930,3054;0,0555703
2931,2698;0,0549014
2932,2339;0,0542394
2933,1982;0,0535891
2934,1624;0,0529506
2935,1267;0,0523218
2936,0908;0,0517012
2937,0552;0,0510895
2938,0193;0,0504892
2938,9836;0,0499023
2939,9478;0,0493285
2940,9121;0,0487664
2941,8762;0,0482153
2942,8406;0,0476774
2943,8047;0,0471579
2944,7690;0,046664
2945,7332;0,046203
2946,6975;0,0457804
2947,6616;0,0453992
2948,6260;0,0450593
2949,5901;0,0447569
2950,5544;0,0444838
2951,5186;0,0442284
2952,4829;0,0439777
2953,4470;0,0437208
2954,4114;0,0434508
2955,3755;0,0431655
2956,3398;0,0428656
2957,3040;0,0425519
2958,2683;0,0422234
2959,2324;0,0418784
2960,1968;0,0415166
2961,1609;0,0411411
2962,1252;0,0407585
2963,0894;0,0403762
2964,0537;0,039999
2965,0178;0,0396269
2965,9822;0,0392553
2966,9463;0,0388778
2967,9106;0,0384887
2968,8748;0,0380852
2969,8391;0,0376676
2970,8032;0,0372401
2971,7676;0,0368114
2972,7317;0,0363939
2973,6960;0,0360017
2974,6602;0,0356457
2975,6245;0,0353288
2976,5886;0,0350441
2977,5530;0,0347784
2978,5171;0,0345193
2979,4814;0,0342617
2980,4456;0,0340096
2981,4099;0,0337719
2982,3740;0,0335561
2983,3384;0,0333638
2984,3025;0,0331907
2985,2668;0,0330309
2986,2310;0,0328806
2987,1953;0,0327396
2988,1594;0,0326097
2989,1238;0,0324922
2990,0879;0,0323872
2991,0522;0,0322943
2992,0164;0,032214
2992,9807;0,032148
2993,9448;0,0320982
2994,9092;0,0320658
2995,8733;0,0320512
2996,8376;0,0320544
2997,8018;0,032074
2998,7661;0,0321066
2999,7302;0,0321453
3000,6946;0,0321806
3001,6587;0,0322046
3002,6230;0,0322148
3003,5872;0,0322167
3004,5515;0,0322206
3005,5156;0,0322353
3006,4800;0,0322626
3007,4441;0,032296
3008,4084;0,0323251
3009,3726;0,0323425
3010,3369;0,0323482
3011,3010;0,03235
3012,2654;0,0323585
3013,2295;0,032381
3014,1938;0,0324194
3015,1580;0,0324709
3016,1223;0,032532
3017,0864;0,032601
3018,0508;0,0326774
3019,0149;0,0327604
3019,9792;0,0328469
3020,9434;0,0329328
3021,9077;0,0330155
3022,8718;0,0330963
3023,8362;0,0331798
3024,8003;0,0332714
3025,7646;0,0333735
3026,7288;0,0334835
3027,6931;0,0335959
3028,6572;0,0337048
3029,6216;0,0338066
3030,5857;0,0339018
3031,5500;0,0339938
3032,5142;0,0340882
3033,4785;0,0341908
3034,4426;0,0343067
3035,4070;0,0344381
3036,3711;0,0345831
3037,3354;0,0347352
3038,2996;0,0348853
3039,2639;0,0350257
3040,2280;0,0351534
3041,1924;0,0352716
3042,1565;0,0353877
3043,1208;0,0355092
3044,0850;0,0356399
3045,0493;0,0357787
3046,0134;0,0359226
3046,9778;0,0360697
3047,9419;0,036221
3048,9063;0,0363798
3049,8704;0,0365482
3050,8347;0,0367244
3051,7988;0,0369023
3052,7632;0,0370744
3053,7273;0,0372359
3054,6917;0,0373873
3055,6558;0,0375349
3056,6201;0,0376873
3057,5842;0,0378514
3058,5486;0,038029
3059,5127;0,0382158
3060,4771;0,0384043
3061,4412;0,0385863
3062,4055;0,0387558
3063,3696;0,0389114
3064,3340;0,0390555
3065,2981;0,0391937
3066,2625;0,0393328
3067,2266;0,0394784
3068,1909;0,0396341
3069,1550;0,0398009
3070,1194;0,0399776
3071,0835;0,040161
3072,0479;0,0403467
3073,0120;0,0405294
3073,9763;0,0407035
3074,9404;0,0408653
3075,9048;0,041015
3076,8689;0,0411575
3077,8333;0,0413011
3078,7974;0,0414547
3079,7617;0,0416228
3080,7258;0,0418036
3081,6902;0,0419892
3082,6543;0,0421696
3083,6187;0,0423374
3084,5828;0,0424909
3085,5471;0,042634
3086,5112;0,042774
3087,4756;0,0429187
3088,4397;0,0430732
3089,4041;0,0432394
3090,3682;0,0434162
3091,3325;0,0436013
3092,2966;0,0437913
3093,2610;0,0439831
3094,2251;0,0441731
3095,1895;0,0443573
3096,1536;0,0445325
3097,1179;0,0446967
3098,0820;0,0448515
3099,0464;0,0450022
3100,0105;0,045157
3100,9749;0,0453245
3101,9390;0,0455099
3102,9033;0,0457119
3103,8674;0,0459234
3104,8318;0,0461348
3105,7959;0,0463384
3106,7603;0,0465324
3107,7244;0,0467207
3108,6887;0,0469103
3109,6528;0,0471069
3110,6172;0,047311
3111,5813;0,0475183
3112,5457;0,047722
3113,5098;0,0479171
3114,4741;0,0481028
3115,4382;0,0482832
3116,4026;0,0484648
3117,3667;0,0486539
3118,3311;0,0488539
3119,2952;0,0490641
3120,2595;0,0492813
3121,2236;0,0495009
3122,1880;0,0497193
3123,1521;0,0499351
3124,1165;0,0501493
3125,0806;0,0503637
3126,0449;0,0505797
3127,0090;0,0507963
3127,9734;0,0510105
3128,9375;0,0512197
3129,9019;0,0514234
3130,8660;0,0516246
3131,8303;0,051829
3132,7944;0,052042
3133,7588;0,052266
3134,7229;0,0524991
3135,6873;0,0527365
3136,6514;0,0529733
3137,6157;0,0532066
3138,5798;0,0534364
3139,5442;0,0536646
3140,5083;0,0538939
3141,4727;0,0541263
3142,4368;0,0543633
3143,4011;0,0546056
3144,3652;0,0548531
3145,3296;0,0551041
3146,2937;0,0553551
3147,2581;0,0556015
3148,2222;0,0558391
3149,1865;0,0560665
3150,1506;0,0562863
3151,1150;0,056505
3152,0791;0,0567298
3153,0435;0,0569659
3154,0076;0,057214
3154,9719;0,0574704
3155,9360;0,057729
3156,9004;0,0579844
3157,8645;0,0582341
3158,8289;0,0584785
3159,7930;0,0587198
3160,7573;0,0589607
3161,7214;0,0592029
3162,6858;0,0594477
3163,6499;0,0596957
3164,6143;0,0599469
3165,5784;0,0602008
3166,5427;0,060456
3167,5068;0,0607112
3168,4712;0,0609659
3169,4353;0,061216
3170,3997;0,0614728
3171,3638;0,0617312
3172,3281;0,0619892
3173,2922;0,0622427
3174,2566;0,0624882
3175,2207;0,0627255
3176,1851;0,0629587
3177,1492;0,0631951
3178,1135;0,0634413
3179,0776;0,0636997
3180,0420;0,0639672
3181,0061;0,0642362
3181,9705;0,0644984
3182,9346;0,0647481
3183,8989;0,0649847
3184,8630;0,0652122
3185,8274;0,065437
3186,7915;0,0656661
3187,7559;0,065904
3188,7200;0,0661524
3189,6843;0,0664093
3190,6484;0,0666704
3191,6128;0,0669299
3192,5769;0,0671822
3193,5413;0,067424
3194,5054;0,0676552
3195,4697;0,0678787
3196,4338;0,0680992
3197,3982;0,068321
3198,3623;0,0685466
3199,3267;0,0687768
3200,2908;0,0690111
3201,2551;0,0692489
3202,2192;0,06949
3203,1836;0,0697339
3204,1477;0,0699798
3205,1121;0,0702258
3206,0762;0,0704693
3207,0405;0,070708
3208,0046;0,0709399
3208,9690;0,0711645
3209,9331;0,0713835
3210,8975;0,0716008
3211,8616;0,0718219
3212,8259;0,0720509
3213,7900;0,0722882
3214,7544;0,0725287
3215,7185;0,0727639
3216,6829;0,0729862
3217,6470;0,0731936
3218,6113;0,0733913
3219,5754;0,0735889
3220,5398;0,073795
3221,5039;0,0740115
3222,4683;0,0742338
3223,4324;0,0744545
3224,3967;0,0746696
3225,3608;0,0748818
3226,3252;0,0750988
3227,2893;0,0753276
3228,2537;0,0755681
3229,2178;0,0758121
3230,1821;0,0760475
3231,1462;0,0762652
3232,1106;0,0764648
3233,0747;0,0766542
3234,0391;0,0768455
3235,0032;0,0770486
3235,9675;0,0772678
3236,9316;0,077502
3237,8960;0,0777473
3238,8601;0,0779988
3239,8245;0,0782515
3240,7886;0,0784992
3241,7529;0,0787353
3242,7170;0,078956
3243,6814;0,0791638
3244,6455;0,0793687
3245,6099;0,0795846
3246,5740;0,0798223
3247,5383;0,0800836
3248,5024;0,0803594
3249,4668;0,0806354
3250,4309;0,0808986
3251,3953;0,0811435
3252,3594;0,0813729
3253,3237;0,0815949
3254,2878;0,081818
3255,2522;0,0820481
3256,2163;0,0822882
3257,1807;0,0825401
3258,1448;0,0828046
3259,1091;0,0830807
3260,0732;0,0833637
3261,0376;0,0836451
3262,0017;0,0839156
3262,9661;0,0841689
3263,9302;0,0844049
3264,8945;0,0846284
3265,8586;0,0848464
3266,8230;0,0850622
3267,7871;0,0852738
3268,7515;0,085474
3269,7156;0,0856542
3270,6799;0,0858091
3271,6440;0,0859391
3272,6084;0,0860505
3273,5725;0,086153
3274,5369;0,0862564
3275,5010;0,086367
3276,4653;0,086486
3277,4294;0,08661
3278,3938;0,0867328
3279,3579;0,0868475
3280,3223;0,0869494
3281,2864;0,0870376
3282,2507;0,0871158
3283,2148;0,0871906
3284,1792;0,0872677
3285,1433;0,0873488
3286,1077;0,0874296
3287,0718;0,0875022
3288,0361;0,0875602
3289,0002;0,0876028
3289,9646;0,0876354
3290,9287;0,0876658
3291,8931;0,0876979
3292,8572;0,087729
3293,8215;0,0877516
3294,7856;0,0877596
3295,7500;0,0877539
3296,7141;0,0877429
3297,6785;0,0877382
3298,6426;0,0877488
3299,6069;0,0877767
3300,5710;0,0878179
3301,5354;0,0878644
3302,4995;0,0879081
3303,4639;0,0879414
3304,4280;0,0879587
3305,3923;0,0879577
3306,3564;0,0879412
3307,3208;0,0879175
3308,2849;0,087898
3309,2493;0,0878928
3310,2134;0,0879064
3311,1777;0,087937
3312,1418;0,0879795
3313,1062;0,0880292
3314,0703;0,0880843
3315,0347;0,0881459
3315,9988;0,0882163
3316,9631;0,0882985
3317,9272;0,0883954
3318,8916;0,0885085
3319,8557;0,0886366
3320,8201;0,0887746
3321,7842;0,0889138
3322,7485;0,0890455
3323,7126;0,0891649
3324,6770;0,0892733
3325,6411;0,0893771
3326,6055;0,0894847
3327,5696;0,0896018
3328,5339;0,0897298
3329,4980;0,0898652
3330,4624;0,0900003
3331,4265;0,0901233
3332,3909;0,0902204
3333,3550;0,0902783
3334,3193;0,090289
3335,2834;0,0902537
3336,2478;0,0901826
3337,2119;0,09009
3338,1763;0,0899875
3339,1404;0,0898792
3340,1047;0,0897621
3341,0688;0,0896305
3342,0332;0,0894814
3342,9973;0,0893171
3343,9617;0,089144
3344,9258;0,088969
3345,8901;0,0887967
3346,8542;0,0886278
3347,8186;0,0884595
3348,7827;0,0882869
3349,7471;0,0881043
3350,7112;0,087907
3351,6755;0,0876931
3352,6396;0,0874655
3353,6040;0,0872323
3354,5681;0,0870039
3355,5325;0,0867895
3356,4966;0,0865931
3357,4609;0,0864128
3358,4250;0,0862425
3359,3894;0,0860761
3360,3535;0,0859103
3361,3179;0,0857444
3362,2820;0,0855787
3363,2463;0,0854122
3364,2104;0,0852425
3365,1748;0,0850671
3366,1389;0,0848852
3367,1033;0,0846982
3368,0674;0,0845079
3369,0317;0,0843156
3369,9958;0,0841217
3370,9602;0,0839266
3371,9243;0,0837325
3372,8887;0,0835434
3373,8528;0,0833628
3374,8171;0,0831921
3375,7813;0,0830292
3376,7456;0,0828696
3377,7097;0,0827081
3378,6741;0,0825398
3379,6382;0,0823601
3380,6025;0,0821656
3381,5667;0,0819562
3382,5310;0,0817388
3383,4951;0,0815283
3384,4595;0,0813441
3385,4236;0,0811997
3386,3879;0,0810936
3387,3521;0,0810073
3388,3164;0,0809122
3389,2805;0,0807835
3390,2449;0,080612
3391,2090;0,0804077
3392,1733;0,0801928
3393,1375;0,0799891
3394,1018;0,0798083
3395,0659;0,0796496
3396,0303;0,079505
3396,9944;0,0793653
3397,9587;0,079223
3398,9229;0,0790721
3399,8872;0,078907
3400,8513;0,0787241
3401,8157;0,0785243
3402,7798;0,0783134
3403,7441;0,0781
3404,7083;0,0778905
3405,6726;0,0776865
3406,6367;0,0774842
3407,6011;0,0772777
3408,5652;0,0770618
3409,5295;0,0768341
3410,4937;0,0765954
3411,4580;0,0763505
3412,4221;0,0761071
3413,3865;0,0758741
3414,3506;0,0756559
3415,3149;0,0754473
3416,2791;0,0752335
3417,2434;0,0749957
3418,2075;0,074722
3419,1719;0,0744168
3420,1360;0,0741015
3421,1003;0,073804
3422,0645;0,0735439
3423,0288;0,0733217
3423,9929;0,0731207
3424,9573;0,072918
3425,9214;0,0726957
3426,8857;0,0724485
3427,8499;0,0721828
3428,8142;0,0719113
3429,7783;0,0716454
3430,7427;0,07139
3431,7068;0,0711429
3432,6711;0,0708981
3433,6353;0,0706497
3434,5996;0,0703939
3435,5637;0,070129
3436,5281;0,0698545
3437,4922;0,0695712
3438,4565;0,0692829
3439,4207;0,0689966
3440,3850;0,0687204
3441,3491;0,0684567
3442,3135;0,0681978
3443,2776;0,0679266
3444,2419;0,0676263
3445,2061;0,0672927
3446,1704;0,0669414
3447,1345;0,0666014
3448,0989;0,0662977
3449,0630;0,0660355
3450,0273;0,0657989
3450,9915;0,0655633
3451,9558;0,0653109
3452,9199;0,0650392
3453,8843;0,064758
3454,8484;0,064479
3455,8127;0,0642057
3456,7769;0,0639319
3457,7412;0,0636476
3458,7053;0,0633479
3459,6697;0,0630377
3460,6338;0,0627281
3461,5981;0,0624297
3462,5623;0,0621457
3463,5266;0,0618695
3464,4907;0,0615893
3465,4551;0,061295
3466,4192;0,060984
3467,3835;0,0606626
3468,3477;0,0603418
3469,3120;0,0600311
3470,2761;0,0597325
3471,2405;0,0594412
3472,2046;0,0591514
3473,1689;0,0588618
3474,1331;0,0585777
3475,0974;0,0583049
3476,0615;0,0580419
3477,0259;0,0577763
3477,9900;0,0574906
3478,9543;0,0571739
3479,9185;0,0568317
3480,8828;0,0564858
3481,8469;0,0561615
3482,8113;0,0558701
3483,7754;0,0556017
3484,7397;0,0553328
3485,7039;0,0550436
3486,6682;0,054731
3487,6323;0,0544101
3488,5967;0,0541036
3489,5608;0,0538252
3490,5251;0,0535699
3491,4893;0,053318
3492,4536;0,0530492
3493,4177;0,0527565
3494,3821;0,0524528
3495,3462;0,052164
3496,3105;0,0519117
3497,2747;0,0516953
3498,2390;0,0514884
3499,2031;0,0512504
3500,1675;0,0509488
3501,1316;0,05058
3502,0959;0,050177
3503,0601;0,0497937
3504,0244;0,0494709
3504,9885;0,0492107
3505,9529;0,0489802
3506,9170;0,0487365
3507,8813;0,0484541
3508,8455;0,0481376
3509,8098;0,0478155
3510,7739;0,0475174
3511,7383;0,047253
3512,7024;0,0470082
3513,6667;0,0467605
3514,6309;0,0464974
3515,5952;0,0462251
3516,5593;0,0459619
3517,5237;0,0457232
3518,4878;0,0455077
3519,4521;0,045297
3520,4163;0,0450659
3521,3806;0,0447981
3522,3447;0,044495
3523,3091;0,0441721
3524,2732;0,0438464
3525,2375;0,0435244
3526,2017;0,0432023
3527,1660;0,0428766
3528,1301;0,0425543
3529,0945;0,0422526
3530,0586;0,0419866
3531,0229;0,0417564
3531,9871;0,0415442
3532,9514;0,0413239
3533,9155;0,041075
3534,8799;0,0407947
3535,8440;0,0405016
3536,8083;0,0402258
3537,7725;0,0399926
3538,7368;0,0398073
3539,7009;0,0396515
3540,6653;0,0394892
3541,6294;0,0392791
3542,5938;0,0389901
3543,5579;0,0386198
3544,5222;0,0382057
3545,4863;0,0378127
3546,4507;0,0374935
3547,4148;0,0372537
3548,3792;0,0370523
3549,3433;0,0368325
3550,3076;0,0365562
3551,2717;0,036225
3552,2361;0,0358786
3553,2002;0,0355682
3554,1646;0,0353207
3555,1287;0,0351227
3556,0930;0,0349358
3557,0571;0,0347267
3558,0215;0,034491
3558,9856;0,0342572
3559,9500;0,0340673
3560,9141;0,0339424
3561,8784;0,0338585
3562,8425;0,0337456
3563,8069;0,0335115
3564,7710;0,0330846
3565,7354;0,0324776
3566,6995;0,031824
3567,6638;0,0313029
3568,6279;0,0309987
3569,5923;0,0308631
3570,5564;0,0307909
3571,5208;0,0306938
3572,4849;0,0305286
3573,4492;0,0302972
3574,4133;0,0300314
3575,3777;0,029768
3576,3418;0,0295255
3577,3062;0,0293012
3578,2703;0,029088
3579,2346;0,0288926
3580,1987;0,0287361
3581,1631;0,0286337
3582,1272;0,0285715
3583,0916;0,0284979
3584,0557;0,028336
3585,0200;0,0280184
3585,9841;0,0275439
3586,9485;0,0270188
3587,9126;0,0266028
3588,8770;0,0263803
3589,8411;0,0263087
3590,8054;0,0262811
3591,7695;0,0262013
3592,7339;0,0260218
3593,6980;0,0257567
3594,6624;0,0254659
3595,6265;0,025209
3596,5908;0,0249985
3597,5549;0,0248
3598,5193;0,0245725
3599,4834;0,0243106
3600,4478;0,0240525
3601,4119;0,0238478
3602,3762;0,0237139
3603,3403;0,0236214
3604,3047;0,0235133
3605,2688;0,0233388
3606,2332;0,023082
3607,1973;0,0227737
3608,1616;0,0224699
3609,1257;0,0222087
3610,0901;0,0219878
3611,0542;0,0217836
3612,0186;0,0215852
3612,9827;0,0214045
3613,9470;0,0212584
3614,9111;0,0211407
3615,8755;0,0210115
3616,8396;0,0208166
3617,8040;0,0205287
3618,7681;0,0201877
3619,7324;0,0198941
3620,6965;0,01974
3621,6609;0,0197451
3622,6250;0,0198612
3623,5894;0,0200087
3624,5535;0,0200979
3625,5178;0,02003
3626,4819;0,0197148
3627,4463;0,0191407
3628,4104;0,0184577
3629,3748;0,0179064
3630,3389;0,0176021
3631,3032;0,0174785
3632,2673;0,0174116
3633,2317;0,0173145
3634,1958;0,0171562
3635,1602;0,016949
3636,1243;0,0167252
3637,0886;0,0165132
3638,0527;0,0163263
3639,0171;0,0161682
3639,9812;0,0160467
3640,9456;0,0159778
3641,9097;0,0159765
3642,8740;0,0160414
3643,8381;0,0161429
3644,8025;0,0162179
3645,7666;0,0161674
3646,7310;0,0158767
3647,6951;0,0153032
3648,6594;0,0146096
3649,6235;0,014093
3650,5879;0,0138853
3651,5520;0,0138875
3652,5164;0,0139415
3653,4805;0,0139324
3654,4448;0,0138042
3655,4089;0,0135652
3656,3733;0,0132852
3657,3374;0,0130522
3658,3018;0,0129094
3659,2659;0,0128388
3660,2302;0,0127984
3661,1943;0,0127646
3662,1587;0,0127464
3663,1228;0,0127692
3664,0872;0,0128436
3665,0513;0,0129453
3666,0156;0,0130194
3666,9797;0,0130048
3667,9441;0,0128769
3668,9082;0,0126864
3669,8726;0,0125366
3670,8367;0,0124871
3671,8010;0,0124959
3672,7651;0,0124594
3673,7295;0,0122859
3674,6936;0,0119663
3675,6580;0,0116073
3676,6221;0,0113505
3677,5864;0,0112426
3678,5505;0,0112331
3679,5149;0,0112599
3680,4790;0,0112983
3681,4434;0,011359
3682,4075;0,0114644
3683,3718;0,0116214
3684,3359;0,011806
3685,3003;0,0119635
3686,2644;0,0120216
3687,2288;0,0119208
3688,1929;0,0116684
3689,1572;0,0113715
3690,1213;0,0111692
3691,0857;0,011118
3692,0498;0,0111817
3693,0142;0,0112997
3693,9783;0,0114296
3694,9426;0,0115504
3695,9067;0,0116511
3696,8711;0,0117205
3697,8352;0,0117431
3698,7996;0,011703
3699,7637;0,0115979
3700,7280;0,0114532
3701,6921;0,0113229
3702,6565;0,0112633
3703,6206;0,0113
3704,5850;0,0114188
3705,5491;0,0115788
3706,5134;0,011724
3707,4775;0,0117876
3708,4419;0,0116996
3709,4060;0,0114233
3710,3704;0,0110142
3711,3345;0,010625
3712,2988;0,0103953
3713,2629;0,0103531
3714,2273;0,0104404
3715,1914;0,0105847
3716,1558;0,0107337
3717,1199;0,0108608
3718,0842;0,0109619
3719,0483;0,011049
3720,0127;0,0111366
3720,9768;0,0112272
3721,9412;0,0113041
3722,9053;0,0113438
3723,8696;0,0113375
3724,8337;0,0113042
3725,7981;0,0112829
3726,7622;0,0113072
3727,7266;0,0113877
3728,6907;0,0115121
3729,6550;0,0116525
3730,6191;0,0117695
3731,5835;0,0118111
3732,5476;0,0117192
3733,5120;0,0114611
3734,4761;0,011086
3735,4404;0,0107331
3736,4045;0,0105377
3737,3689;0,0105377
3738,3330;0,0106851
3739,2974;0,0109003
3740,2615;0,0111005
3741,2258;0,0112056
3742,1899;0,0111568
3743,1543;0,0109667
3744,1184;0,0107539
3745,0828;0,0106609
3746,0469;0,0107161
3747,0112;0,0108248
3747,9753;0,0108544
3748,9397;0,010707
3749,9038;0,0103885
3750,8682;0,0100465
3751,8323;0,00985928
3752,7966;0,00986976
3753,7607;0,00999466
3754,7251;0,0101314
3755,6892;0,010209
3756,6536;0,0101965
3757,6177;0,0101074
3758,5820;0,00999627
3759,5461;0,00992571
3760,5105;0,00992413
3761,4746;0,00997817
3762,4390;0,010056
3763,4031;0,0101295
3764,3674;0,010182
3765,3315;0,0102054
3766,2959;0,0101937
3767,2600;0,0101397
3768,2244;0,0100413
3769,1885;0,00991444
3770,1528;0,00979786
3771,1169;0,00973637
3772,0813;0,00975421
3773,0454;0,00984197
3774,0098;0,00996393
3774,9739;0,010074
3775,9382;0,0101316
3776,9023;0,0101177
3777,8667;0,0100482
3778,8308;0,00996696
3779,7952;0,00991458
3780,7593;0,00989914
3781,7236;0,00989913
3782,6877;0,00988742
3783,6521;0,00985134
3784,6162;0,00979848
3785,5806;0,00974966
3786,5447;0,00972579
3787,5090;0,0097379
3788,4731;0,00978518
3789,4375;0,00985823
3790,4016;0,00994285
3791,3660;0,0100236
3792,3301;0,0100891
3793,2944;0,0101397
3794,2585;0,0101908
3795,2229;0,0102649
3796,1870;0,0103714
3797,1514;0,0104883
3798,1155;0,0105641
3799,0798;0,0105455
3800,0439;0,010421
3801,0083;0,0102459
3801,9724;0,0101049
3802,9368;0,0100365
3803,9009;0,0100064
3804,8652;0,00995046
3805,8293;0,00983318
3806,7937;0,00968528
3807,7578;0,00958939
3808,7222;0,0096135
3809,6863;0,00975982
3810,6506;0,00997712
3811,6147;0,0101992
3812,5791;0,010371
3813,5432;0,0104655
3814,5076;0,0104967
3815,4717;0,010508
3816,4360;0,0105256
3817,4001;0,0105247
3818,3645;0,0104503
3819,3286;0,0102722
3820,2930;0,0100305
3821,2571;0,00982193
3822,2214;0,00972283
3823,1855;0,00973387
3824,1499;0,00980526
3825,1140;0,00988714
3826,0784;0,00995393
3827,0425;0,0100043
3828,0068;0,0100503
3828,9709;0,0101049
3829,9353;0,0101743
3830,8994;0,0102581
3831,8638;0,0103526
3832,8279;0,0104505
3833,7922;0,0105376
3834,7563;0,0105903
3835,7207;0,010582
3836,6848;0,0104987
3837,6492;0,0103547
3838,6133;0,0101878
3839,5776;0,0100329
3840,5417;0,00990139
3841,5061;0,00979015
3842,4702;0,00970292
3843,4346;0,00966117
3844,3987;0,0096965
3845,3630;0,00983233
3846,3271;0,0100695
3847,2915;0,010384
3848,2556;0,0107292
3849,2200;0,0110329
3850,1841;0,0111882
3851,1484;0,0110686
3852,1125;0,0106271
3853,0769;0,0100469
3854,0410;0,00964307
3855,0054;0,00953787
3855,9695;0,00963752
3856,9338;0,00982131
3857,8979;0,0100154
3858,8623;0,0101782
3859,8264;0,0102818
3860,7908;0,0103124
3861,7549;0,0102826
3862,7192;0,0102365
3863,6833;0,010226
3864,6477;0,0102726
3865,6118;0,0103541
3866,5762;0,0104248
3867,5403;0,0104415
3868,5046;0,0103816
3869,4688;0,0102534
3870,4331;0,0100954
3871,3972;0,00995863
3872,3616;0,00988242
3873,3257;0,00988141
3874,2900;0,00994691
3875,2542;0,0100538
3876,2185;0,0101679
3877,1826;0,010255
3878,1470;0,0102931
3879,1111;0,0102843
3880,0754;0,0102537
3881,0396;0,0102284
3882,0039;0,0102129
3882,9680;0,0101907
3883,9324;0,0101504
3884,8965;0,0101061
3885,8608;0,0100886
3886,8250;0,010113
3887,7893;0,0101581
3888,7534;0,0101775
3889,7178;0,0101317
3890,6819;0,0100247
3891,6462;0,00991692
3892,6104;0,00988619
3893,5747;0,00996622
3894,5388;0,0101315
3895,5032;0,0103286
3896,4673;0,0105065
3897,4316;0,0106303
3898,3958;0,0106842
3899,3601;0,0106677
3900,3242;0,0105828
3901,2886;0,0104295
3902,2527;0,0102187
3903,2170;0,00999039
3904,1812;0,00980321
3905,1455;0,00969991
3906,1096;0,00968444
3907,0740;0,00973113
3908,0381;0,00980763
3909,0024;0,00989047
3909,9666;0,00996922
3910,9309;0,0100427
3911,8950;0,0101107
3912,8594;0,0101669
3913,8235;0,0101978
3914,7878;0,0101901
3915,7520;0,0101437
3916,7163;0,0100795
3917,6804;0,0100316
3918,6448;0,0100231
3919,6089;0,0100495
3920,5732;0,0100842
3921,5374;0,0100975
3922,5017;0,0100761
3923,4658;0,0100327
3924,4302;0,0100002
3925,3943;0,0100082
3926,3586;0,0100606
3927,3228;0,010133
3928,2871;0,0101874
3929,2512;0,0101931
3930,2156;0,0101428
3931,1797;0,0100589
3932,1440;0,00998016
3933,1082;0,00993727
3934,0725;0,00993745
3935,0366;0,0099696
3936,0010;0,0100172
3936,9651;0,0100659
3937,9294;0,0101051
3938,8936;0,010127
3939,8579;0,0101283
3940,8220;0,0101144
3941,7864;0,0100996
3942,7505;0,0101002
3943,7148;0,0101217
3944,6790;0,0101536
3945,6433;0,010175
3946,6074;0,0101673
3947,5718;0,0101262
3948,5359;0,0100665
3949,5002;0,0100136
3950,4644;0,00998693
3951,4287;0,00998906
3952,3928;0,0100082
3953,3572;0,0100293
3954,3213;0,0100431
3955,2856;0,0100487
3956,2498;0,0100499
3957,2141;0,0100492
3958,1782;0,0100456
3959,1426;0,010037
3960,1067;0,0100238
3961,0710;0,0100111
3962,0352;0,0100053
3962,9995;0,0100101
3963,9636;0,0100237
3964,9280;0,0100409
3965,8921;0,0100564
3966,8564;0,0100686
3967,8206;0,0100789
3968,7849;0,0100889
3969,7490;0,0100976
3970,7134;0,0101009
3971,6775;0,0100939
3972,6418;0,0100754
3973,6060;0,01005
3974,5703;0,0100268
3975,5344;0,0100149
3976,4988;0,0100181
3977,4629;0,0100339
3978,4272;0,0100546
3979,3914;0,0100725
3980,3557;0,0100831
3981,3198;0,0100869
3982,2842;0,0100875
3983,2483;0,0100886
3984,2126;0,0100914
3985,1768;0,0100944
3986,1411;0,0100951
3987,1052;0,0100922
3988,0696;0,0100869
3989,0337;0,0100825
3989,9980;0,0100812
3990,9622;0,0100823
3991,9265;0,0100821
3992,8906;0,0100767
3993,8550;0,0100654
3994,8191;0,0100525
3995,7834;0,0100454
3996,7476;0,0100495
3997,7119;0,0100646
3998,6760;0,0100844
3999,6404;0,0101006
4000,6045;0,0100605

##### Extended Information
[Comments]
Sample name
Comment
Username
Division
Organization;UNIVERSIDAD INDUSTRIAL DE SANTANDER

[Detailed Information]
Creation date;4/02/2025 11:25 a.m.

Data array type;Linear data array
Horizontal axis;Wavenumber [cm-1]
Vertical axis;Abs
Start;399,193 cm-1
End;4000,6 cm-1
Data interval;0,964233 cm-1
Data points;3736    

[Measurement Information]
Model name;FT/IR-4X1typeA
Serial No.;A035162111

Accessory;ATR PRO 4X
Accessory S/N;A021162126
Incident angle;45 deg

Measurement date;4/02/2025 11:25 a.m.

Light source;Standard
Detector;TGS
Accumulation;Auto (75)
Resolution;4 cm-1
Zero filling;On
Apodization;Cosine
Gain;Auto (8)
Aperture;Auto (7 mm)
Scan speed;Auto (2 mm/sec)
Filter;Auto (12800 Hz)

