TITLE;
DATA TYPE;INFRARED SPECTRUM
ORIGIN;JASCO
OWNER;
DATE;25/02/04
TIME;09:20:51
SPECTROMETER/DATA SYSTEM;
LOCALE;9226
RESOLUTION;
DELTAX;0,964233
XUNITS;1/CM
YUNITS;ABSORBANCE
FIRSTX;  399,1927
LASTX; 4000,6047
NPOINTS;    3736
FIRSTY;     0,14706
MAXY;     0,17441
MINY;     0,00125
XYDATA
399,1927;0,147063
400,1569;0,146786
401,1211;0,147159
402,0854;0,147613
403,0496;0,147932
404,0138;0,148167
404,9781;0,148457
405,9423;0,14885
406,9065;0,149203
407,8708;0,149238
408,8350;0,148726
409,7992;0,147665
410,7635;0,146338
411,7277;0,145168
412,6919;0,144463
413,6562;0,144234
414,6204;0,144243
415,5846;0,144176
416,5489;0,143822
417,5131;0,143222
418,4773;0,142739
419,4416;0,142774
420,4058;0,1433
421,3700;0,143921
422,3343;0,144331
423,2985;0,144495
424,2627;0,144571
425,2270;0,144755
426,1912;0,145155
427,1554;0,145719
428,1197;0,146289
429,0839;0,146707
430,0481;0,146906
431,0124;0,146924
431,9766;0,146869
432,9408;0,146848
433,9051;0,146919
434,8693;0,14707
435,8335;0,147233
436,7978;0,147307
437,7620;0,147196
438,7262;0,146845
439,6905;0,146265
440,6547;0,14556
441,6189;0,144912
442,5832;0,144519
443,5474;0,144496
444,5116;0,144783
445,4759;0,145176
446,4401;0,145446
447,4043;0,145458
448,3686;0,145205
449,3328;0,144787
450,2970;0,144344
451,2613;0,143985
452,2255;0,143732
453,1897;0,143518
454,1540;0,143235
455,1182;0,142815
456,0824;0,142313
457,0467;0,141927
458,0109;0,141915
458,9751;0,142394
459,9394;0,143227
460,9036;0,144113
461,8678;0,144791
462,8321;0,145151
463,7963;0,14524
464,7605;0,145194
465,7248;0,145131
466,6890;0,145061
467,6532;0,144883
468,6175;0,14448
469,5817;0,143837
470,5459;0,14312
471,5102;0,142632
472,4744;0,142636
473,4386;0,143157
474,4029;0,143954
475,3671;0,144686
476,3313;0,145116
477,2956;0,145177
478,2598;0,144935
479,2240;0,144505
480,1883;0,143995
481,1525;0,14349
482,1167;0,143069
483,0810;0,142821
484,0452;0,142821
485,0094;0,143068
485,9737;0,14346
486,9379;0,143834
487,9021;0,144058
488,8664;0,144096
489,8306;0,144007
490,7948;0,143902
491,7591;0,143871
492,7233;0,14393
493,6875;0,144024
494,6518;0,144081
495,6160;0,144064
496,5802;0,143984
497,5445;0,143879
498,5087;0,143779
499,4729;0,143688
500,4372;0,143587
501,4014;0,143449
502,3656;0,143259
503,3299;0,14303
504,2941;0,142802
505,2583;0,142632
506,2226;0,142582
507,1868;0,142711
508,1510;0,143045
509,1153;0,143566
510,0795;0,144204
511,0437;0,144858
512,0080;0,145418
512,9722;0,145795
513,9365;0,14594
514,9007;0,145869
515,8649;0,145671
516,8292;0,145507
517,7934;0,145537
518,7576;0,145829
519,7219;0,146301
520,6861;0,146768
521,6503;0,147049
522,6146;0,147053
523,5788;0,146803
524,5430;0,146419
525,5073;0,146066
526,4715;0,145867
527,4357;0,145844
528,4000;0,145924
529,3642;0,145993
530,3284;0,145962
531,2927;0,145787
532,2569;0,145472
533,2211;0,145054
534,1854;0,144587
535,1496;0,144129
536,1138;0,143727
537,0781;0,143409
538,0423;0,143177
539,0065;0,14301
539,9708;0,142877
540,9350;0,14275
541,8992;0,142622
542,8635;0,142507
543,8277;0,142441
544,7919;0,142464
545,7562;0,1426
546,7204;0,142848
547,6846;0,143176
548,6489;0,143538
549,6131;0,143888
550,5773;0,144198
551,5416;0,144465
552,5058;0,144711
553,4700;0,144972
554,4343;0,145269
555,3985;0,145587
556,3627;0,145854
557,3270;0,145951
558,2912;0,145754
559,2554;0,145194
560,2197;0,14429
561,1839;0,143149
562,1481;0,14192
563,1124;0,14073
564,0766;0,139646
565,0408;0,138676
566,0051;0,137812
566,9693;0,137059
567,9335;0,136447
568,8978;0,136
569,8620;0,135706
570,8262;0,135507
571,7905;0,135331
572,7547;0,13513
573,7189;0,134898
574,6832;0,134661
575,6474;0,134444
576,6116;0,134244
577,5759;0,134029
578,5401;0,13377
579,5043;0,133467
580,4686;0,133165
581,4328;0,13293
582,3970;0,132814
583,3613;0,132827
584,3255;0,132924
585,2897;0,133035
586,2540;0,133093
587,2182;0,133067
588,1824;0,132962
589,1467;0,132813
590,1109;0,132658
591,0751;0,132526
592,0394;0,132423
593,0036;0,132335
593,9678;0,132235
594,9321;0,132102
595,8963;0,131921
596,8605;0,131694
597,8248;0,131432
598,7890;0,131158
599,7532;0,130896
600,7175;0,130661
601,6817;0,130452
602,6459;0,130252
603,6102;0,130038
604,5744;0,129791
605,5386;0,129508
606,5029;0,129194
607,4671;0,128844
608,4313;0,128438
609,3956;0,127953
610,3598;0,12739
611,3240;0,126807
612,2883;0,126305
613,2525;0,125991
614,2167;0,125898
615,1810;0,12594
616,1452;0,125917
617,1094;0,125602
618,0737;0,124866
619,0379;0,123757
620,0021;0,122465
620,9664;0,121211
621,9306;0,120143
622,8948;0,119296
623,8591;0,118618
624,8233;0,117977
625,7875;0,117416
626,7518;0,116913
627,7160;0,116467
628,6802;0,116064
629,6445;0,115686
630,6087;0,115308
631,5729;0,114925
632,5372;0,114543
633,5014;0,114177
634,4656;0,113842
635,4299;0,113545
636,3941;0,113297
637,3583;0,113113
638,3226;0,113001
639,2868;0,112956
640,2510;0,11295
641,2153;0,112945
642,1795;0,112912
643,1437;0,112848
644,1080;0,112774
645,0722;0,112708
646,0364;0,112647
647,0007;0,112558
647,9649;0,112403
648,9291;0,112171
649,8934;0,111895
650,8576;0,111646
651,8218;0,111496
652,7861;0,111483
653,7503;0,111607
654,7145;0,111828
655,6788;0,112082
656,6430;0,112306
657,6072;0,11246
658,5715;0,112529
659,5357;0,112513
660,4999;0,112386
661,4642;0,112078
662,4284;0,111467
663,3926;0,110423
664,3569;0,108922
665,3211;0,107242
666,2853;0,106053
667,2496;0,106053
668,2138;0,107035
669,1780;0,107892
670,1423;0,108145
671,1065;0,108005
672,0707;0,107519
673,0350;0,106609
673,9992;0,105353
674,9634;0,10397
675,9277;0,102679
676,8919;0,101571
677,8561;0,100607
678,8204;0,0997078
679,7846;0,0988292
680,7488;0,097976
681,7131;0,0971743
682,6773;0,0964303
683,6415;0,0957328
684,6058;0,0950702
685,5700;0,0944486
686,5342;0,0938896
687,4985;0,0934142
688,4627;0,0930384
689,4269;0,0927454
690,3912;0,0925102
691,3554;0,0923056
692,3196;0,0921024
693,2839;0,0918708
694,2481;0,0915875
695,2123;0,0912457
696,1766;0,0908599
697,1408;0,0904575
698,1050;0,0900645
699,0693;0,0896908
700,0335;0,0893287
700,9977;0,0889609
701,9620;0,0885736
702,9262;0,0881631
703,8904;0,087716
704,8547;0,0872483
705,8189;0,0867738
706,7831;0,0863031
707,7474;0,0858409
708,7116;0,085383
709,6758;0,0849143
710,6401;0,0844108
711,6043;0,0838498
712,5685;0,083228
713,5328;0,0825764
714,4970;0,0819566
715,4612;0,0803235
716,4255;0,0801651
717,3897;0,080187
718,3539;0,0802183
719,3182;0,0800304
720,2824;0,0794505
721,2466;0,0784632
722,2109;0,0772201
723,1751;0,0759506
724,1393;0,0748434
725,1036;0,0739785
726,0678;0,0733281
727,0320;0,0728037
727,9963;0,0723145
728,9605;0,0718077
729,9247;0,0712772
730,8890;0,0707476
731,8532;0,0702499
732,8174;0,0698051
733,7817;0,0694187
734,7459;0,0690827
735,7101;0,0687808
736,6744;0,0684932
737,6386;0,0682015
738,6028;0,0678915
739,5671;0,0675575
740,5313;0,067203
741,4955;0,0668407
742,4598;0,0664872
743,4240;0,0661571
744,3882;0,0658555
745,3525;0,0655757
746,3167;0,0653018
747,2809;0,065017
748,2452;0,0647118
749,2094;0,0643877
750,1736;0,0640542
751,1379;0,0637221
752,1021;0,0633963
753,0663;0,0630732
754,0306;0,0627442
754,9948;0,0624006
755,9590;0,0620401
756,9233;0,0616679
757,8875;0,0612957
758,8517;0,0609369
759,8160;0,0606032
760,7802;0,0603008
761,7444;0,0600298
762,7087;0,0597839
763,6729;0,0595522
764,6371;0,0593221
765,6014;0,0590831
766,5656;0,0588305
767,5298;0,0585678
768,4941;0,0583036
769,4583;0,058046
770,4225;0,0577956
771,3868;0,0575437
772,3510;0,057277
773,3152;0,0569868
774,2795;0,056677
775,2437;0,0563656
776,2079;0,0560768
777,1722;0,0558289
778,1364;0,055624
779,1006;0,0554461
780,0649;0,0552689
781,0291;0,0550682
781,9933;0,0548339
782,9576;0,0545742
783,9218;0,0543107
784,8860;0,0540662
785,8503;0,0538531
786,8145;0,0536667
787,7787;0,0534887
788,7430;0,0532986
789,7072;0,0530853
790,6714;0,0528535
791,6357;0,0526204
792,5999;0,0524063
793,5641;0,0522247
794,5284;0,0520776
795,4926;0,0519581
796,4568;0,0518556
797,4211;0,0517591
798,3853;0,0516591
799,3495;0,0515477
800,3138;0,0514202
801,2780;0,0512778
802,2422;0,0511289
803,2065;0,0509845
804,1707;0,0508533
805,1349;0,0507355
806,0992;0,0506246
807,0634;0,0505121
808,0276;0,0503946
808,9919;0,050276
809,9561;0,050164
810,9203;0,0500647
811,8846;0,0499789
812,8488;0,0499032
813,8130;0,0498333
814,7773;0,0497677
815,7415;0,0497083
816,7057;0,0496579
817,6700;0,0496195
818,6342;0,0495949
819,5984;0,0495847
820,5627;0,0495873
821,5269;0,0495979
822,4911;0,0496075
823,4554;0,0496057
824,4196;0,0495845
825,3839;0,0495427
826,3481;0,0494865
827,3123;0,0494257
828,2766;0,0493686
829,2408;0,0493166
830,2050;0,0492641
831,1693;0,049201
832,1335;0,0491192
833,0977;0,0490167
834,0620;0,0488982
835,0262;0,0487725
835,9904;0,0486468
836,9547;0,0485222
837,9189;0,0483935
838,8831;0,0482519
839,8474;0,0480906
840,8116;0,0479093
841,7758;0,0477152
842,7401;0,0475212
843,7043;0,0473412
844,6685;0,0471857
845,6328;0,0470595
846,5970;0,046961
847,5612;0,0468839
848,5255;0,0468206
849,4897;0,0467662
850,4539;0,0467203
851,4182;0,0466869
852,3824;0,0466704
853,3466;0,0466703
854,3109;0,0466795
855,2751;0,0466861
856,2393;0,0466798
857,2036;0,0466577
858,1678;0,0466264
859,1320;0,0465986
860,0963;0,0465867
861,0605;0,0465979
862,0247;0,0466333
862,9890;0,0466905
863,9532;0,0467674
864,9174;0,0468645
865,8817;0,0469846
866,8459;0,0471311
867,8101;0,0473063
868,7744;0,0475097
869,7386;0,0477354
870,7028;0,04797
871,6671;0,048193
872,6313;0,0483811
873,5955;0,0485167
874,5598;0,0485969
875,5240;0,0486374
876,4882;0,0486676
877,4525;0,0487206
878,4167;0,0488212
879,3809;0,0489802
880,3452;0,0491962
881,3094;0,0494616
882,2736;0,0497707
883,2379;0,0501222
884,2021;0,0505188
885,1663;0,0509637
886,1306;0,0514582
887,0948;0,0520008
888,0590;0,052588
889,0233;0,0532135
889,9875;0,0538669
890,9517;0,0545321
891,9160;0,0551869
892,8802;0,0558041
893,8444;0,0563553
894,8087;0,0568149
895,7729;0,0571637
896,7371;0,0573912
897,7014;0,0574964
898,6656;0,057486
899,6298;0,0573717
900,5941;0,0571673
901,5583;0,0568871
902,5225;0,0565469
903,4868;0,0561668
904,4510;0,055773
905,4152;0,0553965
906,3795;0,055067
907,3437;0,0548049
908,3079;0,0546158
909,2722;0,0544908
910,2364;0,0544135
911,2007;0,05437
912,1649;0,0543558
913,1292;0,0543772
914,0934;0,0544458
915,0576;0,0545701
916,0219;0,0547494
916,9861;0,0549729
917,9503;0,0552239
918,9146;0,0554856
919,8788;0,0557463
920,8430;0,0560013
921,8073;0,0562513
922,7715;0,0564993
923,7357;0,0567469
924,7000;0,056992
925,6642;0,057229
926,6284;0,0574508
927,5927;0,057652
928,5569;0,0578313
929,5211;0,0579919
930,4854;0,0581395
931,4496;0,0582795
932,4138;0,0584157
933,3781;0,0585527
934,3423;0,0586984
935,3065;0,0588663
936,2708;0,0590734
937,2350;0,0593353
938,1992;0,0596613
939,1635;0,0600514
940,1277;0,0604996
941,0919;0,0609985
942,0562;0,0615443
943,0204;0,0621372
943,9846;0,0627803
944,9489;0,0634754
945,9131;0,0642219
946,8773;0,0650176
947,8416;0,0658617
948,8058;0,0667572
949,7700;0,0677114
950,7343;0,0687336
951,6985;0,0698313
952,6627;0,0710072
953,6270;0,0722582
954,5912;0,0735767
955,5554;0,0749527
956,5197;0,0763752
957,4839;0,0778327
958,4481;0,079313
959,4124;0,0808043
960,3766;0,0822971
961,3408;0,0837879
962,3051;0,0852794
963,2693;0,086778
964,2335;0,0882895
965,1978;0,0898153
966,1620;0,0913538
967,1262;0,092906
968,0905;0,0944812
969,0547;0,0961006
970,0189;0,0977936
970,9832;0,0995903
971,9474;0,101515
972,9116;0,103585
973,8759;0,105807
974,8401;0,108186
975,8043;0,110719
976,7686;0,113397
977,7328;0,11619
978,6970;0,119055
979,6613;0,121927
980,6255;0,12473
981,5897;0,127389
982,5540;0,129835
983,5182;0,132022
984,4824;0,13393
985,4467;0,135571
986,4109;0,136978
987,3751;0,1382
988,3394;0,139286
989,3036;0,140275
990,2678;0,141188
991,2321;0,142035
992,1963;0,142817
993,1605;0,143531
994,1248;0,144178
995,0890;0,144764
996,0532;0,145295
997,0175;0,145779
997,9817;0,146224
998,9459;0,146643
999,9102;0,147056
1000,8744;0,147487
1001,8386;0,147965
1002,8029;0,148515
1003,7671;0,149154
1004,7313;0,149895
1005,6956;0,150747
1006,6598;0,151727
1007,6240;0,152853
1008,5883;0,154141
1009,5525;0,155585
1010,5167;0,157158
1011,4810;0,158804
1012,4452;0,160458
1013,4094;0,162059
1014,3737;0,163566
1015,3379;0,164955
1016,3021;0,166216
1017,2664;0,167344
1018,2306;0,168332
1019,1948;0,169179
1020,1591;0,169895
1021,1233;0,170505
1022,0875;0,171043
1023,0518;0,171545
1024,0160;0,172038
1024,9802;0,172534
1025,9445;0,173027
1026,9087;0,173495
1027,8729;0,173908
1028,8372;0,174227
1029,8014;0,174407
1030,7656;0,1744
1031,7299;0,174154
1032,6941;0,173627
1033,6583;0,172798
1034,6226;0,171676
1035,5868;0,170315
1036,5510;0,168807
1037,5153;0,167271
1038,4795;0,165828
1039,4437;0,164581
1040,4080;0,163595
1041,3722;0,162894
1042,3364;0,162457
1043,3007;0,162236
1044,2649;0,162162
1045,2291;0,162166
1046,1934;0,162185
1047,1576;0,162169
1048,1218;0,16208
1049,0861;0,161888
1050,0503;0,161559
1051,0145;0,161065
1051,9788;0,160382
1052,9430;0,159504
1053,9072;0,158445
1054,8715;0,15723
1055,8357;0,155876
1056,7999;0,154371
1057,7642;0,152674
1058,7284;0,15073
1059,6926;0,148509
1060,6569;0,146029
1061,6211;0,143373
1062,5853;0,140664
1063,5496;0,138032
1064,5138;0,135571
1065,4780;0,133326
1066,4423;0,131294
1067,4065;0,129446
1068,3707;0,127746
1069,3350;0,126165
1070,2992;0,124681
1071,2634;0,123268
1072,2277;0,121894
1073,1919;0,120515
1074,1561;0,11909
1075,1204;0,117584
1076,0846;0,115986
1077,0488;0,11431
1078,0131;0,112597
1078,9773;0,110904
1079,9415;0,10929
1080,9058;0,107802
1081,8700;0,10647
1082,8342;0,1053
1083,7985;0,104286
1084,7627;0,103413
1085,7269;0,102665
1086,6912;0,102028
1087,6554;0,101492
1088,6196;0,101048
1089,5839;0,100692
1090,5481;0,100418
1091,5123;0,100226
1092,4766;0,100115
1093,4408;0,100082
1094,4050;0,100126
1095,3693;0,100241
1096,3335;0,10042
1097,2977;0,100651
1098,2620;0,100918
1099,2262;0,101198
1100,1904;0,101463
1101,1547;0,101685
1102,1189;0,101835
1103,0831;0,101894
1104,0474;0,101853
1105,0116;0,101717
1105,9758;0,101504
1106,9401;0,101235
1107,9043;0,10092
1108,8685;0,100554
1109,8328;0,100103
1110,7970;0,099516
1111,7612;0,0987426
1112,7255;0,0977566
1113,6897;0,096576
1114,6539;0,0952649
1115,6182;0,0939164
1116,5824;0,0926236
1117,5466;0,0914501
1118,5109;0,0904132
1119,4751;0,0894845
1120,4393;0,0886041
1121,4036;0,0877021
1122,3678;0,0867161
1123,3320;0,0856024
1124,2963;0,0843401
1125,2605;0,08293
1126,2247;0,0813907
1127,1890;0,0797538
1128,1532;0,0780568
1129,1174;0,076336
1130,0817;0,0746212
1131,0459;0,0729336
1132,0101;0,0712898
1132,9744;0,0697079
1133,9386;0,068213
1134,9028;0,0668382
1135,8671;0,0656197
1136,8313;0,0645884
1137,7955;0,0637636
1138,7598;0,0631506
1139,7240;0,0627434
1140,6882;0,062528
1141,6525;0,0624849
1142,6167;0,0625883
1143,5809;0,0628064
1144,5452;0,0631043
1145,5094;0,0634515
1146,4736;0,0638295
1147,4379;0,0642352
1148,4021;0,064677
1149,3663;0,0651651
1150,3306;0,0657006
1151,2948;0,0662694
1152,2590;0,0668432
1153,2233;0,0673859
1154,1875;0,0678625
1155,1517;0,0682424
1156,1160;0,0684991
1157,0802;0,0686034
1158,0444;0,0685166
1159,0087;0,0681878
1159,9729;0,0675591
1160,9371;0,0665788
1161,9014;0,0652188
1162,8656;0,0634887
1163,8298;0,0614394
1164,7941;0,0591553
1165,7583;0,0567375
1166,7225;0,0542868
1167,6868;0,0518902
1168,6510;0,0496148
1169,6152;0,0475075
1170,5795;0,0455961
1171,5437;0,0438928
1172,5079;0,0423964
1173,4722;0,0410965
1174,4364;0,0399764
1175,4006;0,0390166
1176,3649;0,0381963
1177,3291;0,0374951
1178,2933;0,0368937
1179,2576;0,0363759
1180,2218;0,0359293
1181,1860;0,0355463
1182,1503;0,0352235
1183,1145;0,0349606
1184,0787;0,0347591
1185,0430;0,0346213
1186,0072;0,0345496
1186,9714;0,0345462
1187,9357;0,0346123
1188,8999;0,0347479
1189,8641;0,0349525
1190,8284;0,0352253
1191,7926;0,035565
1192,7568;0,0359696
1193,7211;0,0364345
1194,6853;0,0369517
1195,6495;0,0375098
1196,6138;0,0380943
1197,5780;0,0386901
1198,5422;0,0392837
1199,5065;0,0401245
1200,4707;0,040658
1201,4349;0,0411726
1202,3992;0,0416727
1203,3634;0,0421621
1204,3276;0,042641
1205,2919;0,0431044
1206,2561;0,0435449
1207,2203;0,0439578
1208,1846;0,0443468
1209,1488;0,0447281
1210,1130;0,0451284
1211,0773;0,045578
1212,0415;0,0461004
1213,0057;0,0467045
1213,9700;0,0473817
1214,9342;0,0481113
1215,8984;0,0488675
1216,8627;0,0496298
1217,8269;0,0503861
1218,7911;0,051129
1219,7554;0,051853
1220,7196;0,0525529
1221,6838;0,0532234
1222,6481;0,0538613
1223,6123;0,0544659
1224,5765;0,0550385
1225,5408;0,0555802
1226,5050;0,0560891
1227,4692;0,0565617
1228,4335;0,0569946
1229,3977;0,0573872
1230,3619;0,057741
1231,3262;0,0580575
1232,2904;0,0583343
1233,2546;0,0585654
1234,2189;0,0587441
1235,1831;0,0588682
1236,1473;0,0589431
1237,1116;0,0589795
1238,0758;0,0589879
1239,0400;0,0589729
1240,0043;0,0589317
1240,9685;0,0588584
1241,9327;0,0587486
1242,8970;0,0586029
1243,8612;0,0584246
1244,8254;0,0582167
1245,7897;0,0579785
1246,7539;0,0577069
1247,7181;0,0574005
1248,6824;0,0570631
1249,6466;0,0567045
1250,6108;0,056338
1251,5751;0,0559774
1252,5393;0,0556328
1253,5035;0,0553085
1254,4678;0,055002
1255,4320;0,0547047
1256,3962;0,054405
1257,3605;0,0540934
1258,3247;0,0537664
1259,2889;0,0534282
1260,2532;0,0530861
1261,2174;0,0527435
1262,1816;0,0523947
1263,1459;0,0520261
1264,1101;0,0516222
1265,0743;0,0511718
1266,0386;0,0506726
1267,0028;0,0501302
1267,9670;0,0495562
1268,9313;0,0489647
1269,8955;0,0483712
1270,8597;0,0477891
1271,8240;0,0472271
1272,7882;0,0466862
1273,7524;0,0461601
1274,7167;0,0456401
1275,6809;0,0451208
1276,6451;0,044603
1277,6094;0,0440923
1278,5736;0,0435939
1279,5378;0,0431083
1280,5021;0,0426306
1281,4663;0,0421545
1282,4305;0,0416775
1283,3948;0,0412039
1284,3590;0,0407437
1285,3232;0,0403098
1286,2875;0,0399145
1287,2517;0,0395672
1288,2159;0,0392731
1289,1802;0,0390322
1290,1444;0,0388395
1291,1086;0,0386884
1292,0729;0,038574
1293,0371;0,038497
1294,0013;0,0384639
1294,9656;0,0384839
1295,9298;0,0385639
1296,8940;0,0387062
1297,8583;0,0389077
1298,8225;0,0391629
1299,7867;0,0394661
1300,7510;0,0398127
1301,7152;0,0401949
1302,6794;0,0406073
1303,6437;0,0410477
1304,6079;0,0415157
1305,5721;0,0420129
1306,5364;0,0425381
1307,5006;0,0430832
1308,4648;0,0436334
1309,4291;0,0441725
1310,3933;0,044689
1311,3575;0,0451776
1312,3218;0,0456343
1313,2860;0,0460481
1314,2502;0,0463964
1315,2145;0,0466499
1316,1787;0,046786
1317,1429;0,0468028
1318,1072;0,0467258
1319,0714;0,0465998
1320,0356;0,0464689
1320,9999;0,0463578
1321,9641;0,0462679
1322,9283;0,0461883
1323,8926;0,0461084
1324,8568;0,0460258
1325,8210;0,0459453
1326,7853;0,0458727
1327,7495;0,0458099
1328,7137;0,0457528
1329,6780;0,0456939
1330,6422;0,045624
1331,6064;0,0455315
1332,5707;0,0454025
1333,5349;0,0452146
1334,4991;0,0449379
1335,4634;0,04454
1336,4276;0,0440026
1337,3918;0,0433508
1338,3561;0,0426736
1339,3203;0,042094
1340,2845;0,0416912
1341,2488;0,0414531
1342,2130;0,0413065
1343,1772;0,0411789
1344,1415;0,0410287
1345,1057;0,0408475
1346,0699;0,0406534
1347,0342;0,0404843
1347,9984;0,0403824
1348,9626;0,0403772
1349,9269;0,0404731
1350,8911;0,0406501
1351,8553;0,0408761
1352,8196;0,0411232
1353,7838;0,0413819
1354,7480;0,0416632
1355,7123;0,0419853
1356,6765;0,0423542
1357,6407;0,0427513
1358,6050;0,043137
1359,5692;0,0434669
1360,5334;0,0437239
1361,4977;0,0439458
1362,4619;0,0442029
1363,4261;0,0445278
1364,3904;0,0448865
1365,3546;0,0452246
1366,3188;0,0455121
1367,2831;0,0457446
1368,2473;0,0459242
1369,2115;0,0460434
1370,1758;0,0460764
1371,1400;0,0459845
1372,1042;0,0457379
1373,0685;0,045352
1374,0327;0,0449039
1374,9969;0,0444919
1375,9612;0,0441589
1376,9254;0,0438664
1377,8896;0,0435355
1378,8539;0,0430994
1379,8181;0,0425365
1380,7823;0,0418797
1381,7466;0,0411954
1382,7108;0,0405374
1383,6750;0,0399082
1384,6393;0,03926
1385,6035;0,0385474
1386,5677;0,0377982
1387,5320;0,0371168
1388,4962;0,0365939
1389,4604;0,0362436
1390,4247;0,0360236
1391,3889;0,0358651
1392,3531;0,0356826
1393,3174;0,035404
1394,2816;0,0350281
1395,2458;0,0346505
1396,2101;0,0344081
1397,1743;0,0343851
1398,1385;0,0345678
1399,1028;0,0348719
1400,0670;0,0352007
1401,0313;0,0354901
1401,9955;0,0357235
1402,9597;0,0359199
1403,9240;0,0361181
1404,8882;0,0363595
1405,8524;0,036664
1406,8167;0,037017
1407,7809;0,0373893
1408,7451;0,0377653
1409,7094;0,0381479
1410,6736;0,0385459
1411,6378;0,0389649
1412,6021;0,0394091
1413,5663;0,0398874
1414,5305;0,0404063
1415,4948;0,0409448
1416,4590;0,0414458
1417,4232;0,0418598
1418,3875;0,0421896
1419,3517;0,0424366
1420,3159;0,0425449
1421,2802;0,0424823
1422,2444;0,0423056
1423,2086;0,0421091
1424,1729;0,0419536
1425,1371;0,0418377
1426,1013;0,0417034
1427,0656;0,041461
1428,0298;0,0410324
1428,9940;0,0404109
1429,9583;0,0396968
1430,9225;0,0390566
1431,8867;0,0386211
1432,8510;0,0384076
1433,8152;0,0383047
1434,7794;0,0381262
1435,7437;0,037744
1436,7079;0,0372026
1437,6721;0,0366455
1438,6364;0,0361697
1439,6006;0,0358249
1440,5648;0,0356524
1441,5291;0,0356626
1442,4933;0,0358144
1443,4575;0,0360367
1444,4218;0,0362689
1445,3860;0,036486
1446,3502;0,0366956
1447,3145;0,0369128
1448,2787;0,0371335
1449,2429;0,0373366
1450,2072;0,0375235
1451,1714;0,0377529
1452,1356;0,038105
1453,0999;0,0385783
1454,0641;0,0389831
1455,0283;0,0389525
1455,9926;0,0382736
1456,9568;0,0373902
1457,9210;0,0369783
1458,8853;0,0369783
1459,8495;0,0370297
1460,8137;0,0370591
1461,7780;0,037091
1462,7422;0,037029
1463,7064;0,0367028
1464,6707;0,0360582
1465,6349;0,0352362
1466,5991;0,0344325
1467,5634;0,0337532
1468,5276;0,0331751
1469,4918;0,0325232
1470,4561;0,0314953
1471,4203;0,0298632
1472,3845;0,0278292
1473,3488;0,0260392
1474,3130;0,0249212
1475,2772;0,0243133
1476,2415;0,0238765
1477,2057;0,0234387
1478,1699;0,0229786
1479,1342;0,0225281
1480,0984;0,022123
1481,0626;0,0217887
1482,0269;0,0215356
1482,9911;0,0213558
1483,9553;0,0212216
1484,9196;0,0210781
1485,8838;0,0208384
1486,8480;0,0204301
1487,8123;0,0199287
1488,7765;0,0196419
1489,7407;0,0198484
1490,7050;0,0204483
1491,6692;0,021143
1492,6334;0,0217794
1493,5977;0,0223477
1494,5619;0,0228363
1495,5261;0,0232047
1496,4904;0,0234808
1497,4546;0,0238032
1498,4188;0,0242588
1499,3831;0,0247822
1500,3473;0,0253317
1501,3115;0,0259968
1502,2758;0,0268768
1503,2400;0,0278924
1504,2042;0,0286495
1505,1685;0,0284999
1506,1327;0,0271748
1507,0969;0,0256537
1508,0612;0,0250767
1509,0254;0,0251425
1509,9896;0,0252332
1510,9539;0,0252292
1511,9181;0,025174
1512,8823;0,0250235
1513,8466;0,0246647
1514,8108;0,0240429
1515,7750;0,0232495
1516,7393;0,0224706
1517,7035;0,0218285
1518,6677;0,0212836
1519,6320;0,0206972
1520,5962;0,0199943
1521,5604;0,0192573
1522,5247;0,0186465
1523,4889;0,0182691
1524,4531;0,0181446
1525,4174;0,018235
1526,3816;0,0184697
1527,3458;0,0187733
1528,3101;0,019098
1529,2743;0,0194242
1530,2385;0,0197187
1531,2028;0,0199125
1532,1670;0,0199622
1533,1312;0,019943
1534,0955;0,0200226
1535,0597;0,020333
1536,0239;0,0208886
1536,9882;0,021522
1537,9524;0,0217933
1538,9166;0,0210919
1539,8809;0,0193486
1540,8451;0,017819
1541,8093;0,0177213
1542,7736;0,01859
1543,7378;0,0195408
1544,7020;0,020257
1545,6663;0,0207356
1546,6305;0,0210273
1547,5947;0,0211859
1548,5590;0,0212644
1549,5232;0,0212995
1550,4874;0,0213033
1551,4517;0,0212849
1552,4159;0,0212857
1553,3801;0,0213869
1554,3444;0,0216562
1555,3086;0,0220392
1556,2728;0,0222868
1557,2371;0,0221639
1558,2013;0,0220189
1559,1655;0,0224066
1560,1298;0,0227819
1561,0940;0,0225231
1562,0582;0,0218902
1563,0225;0,0213713
1563,9867;0,0212133
1564,9509;0,0213998
1565,9152;0,0217601
1566,8794;0,0221006
1567,8436;0,0223342
1568,8079;0,0225299
1569,7721;0,0228003
1570,7363;0,0231708
1571,7006;0,0236095
1572,6648;0,0240872
1573,6290;0,0245472
1574,5933;0,0249067
1575,5575;0,0251756
1576,5217;0,0254987
1577,4860;0,0259373
1578,4502;0,0263927
1579,4144;0,0268234
1580,3787;0,0272933
1581,3429;0,0278485
1582,3071;0,0284645
1583,2714;0,029084
1584,2356;0,029673
1585,1998;0,0302348
1586,1641;0,0307882
1587,1283;0,0313391
1588,0925;0,0318697
1589,0568;0,0323495
1590,0210;0,03275
1590,9852;0,0330526
1591,9495;0,0332481
1592,9137;0,0333394
1593,8779;0,0333463
1594,8422;0,0333032
1595,8064;0,0332401
1596,7706;0,0331629
1597,7349;0,0330517
1598,6991;0,0328806
1599,6633;0,0326419
1600,6276;0,0323595
1601,5918;0,0320798
1602,5560;0,0318451
1603,5203;0,0316683
1604,4845;0,0315299
1605,4487;0,0313982
1606,4130;0,0312537
1607,3772;0,031106
1608,3414;0,0309948
1609,3057;0,0309696
1610,2699;0,0310612
1611,2341;0,0312759
1612,1984;0,0315969
1613,1626;0,0319592
1614,1268;0,032235
1615,0911;0,0323152
1616,0553;0,0322514
1617,0195;0,0322103
1617,9838;0,0322506
1618,9480;0,0323279
1619,9122;0,0324344
1620,8765;0,0325822
1621,8407;0,0327514
1622,8049;0,0329189
1623,7692;0,0330961
1624,7334;0,0333011
1625,6976;0,033526
1626,6619;0,0337548
1627,6261;0,0339867
1628,5903;0,0342419
1629,5546;0,0345646
1630,5188;0,0350098
1631,4830;0,035587
1632,4473;0,0361654
1633,4115;0,0364348
1634,3757;0,036094
1635,3400;0,03529
1636,3042;0,0346378
1637,2684;0,0344488
1638,2327;0,0345252
1639,1969;0,034682
1640,1611;0,0349159
1641,1254;0,0352744
1642,0896;0,0357404
1643,0538;0,0361607
1644,0181;0,036232
1644,9823;0,0356664
1645,9465;0,0345826
1646,9108;0,0336291
1647,8750;0,0333911
1648,8392;0,0339533
1649,8035;0,0350706
1650,7677;0,036267
1651,7319;0,03685
1652,6962;0,0364224
1653,6604;0,0354964
1654,6246;0,0346221
1655,5889;0,0337657
1656,5531;0,0329938
1657,5173;0,0324929
1658,4816;0,032283
1659,4458;0,0321724
1660,4100;0,0318997
1661,3743;0,0313549
1662,3385;0,0306855
1663,3027;0,0301259
1664,2670;0,029778
1665,2312;0,0295872
1666,1954;0,029394
1667,1597;0,028974
1668,1239;0,0281662
1669,0881;0,0270863
1670,0524;0,0261272
1671,0166;0,0255977
1671,9808;0,02548
1672,9451;0,0255589
1673,9093;0,0255901
1674,8735;0,025379
1675,8378;0,0248513
1676,8020;0,0240951
1677,7662;0,0233225
1678,7305;0,0227671
1679,6947;0,0225541
1680,6589;0,0225934
1681,6232;0,0225692
1682,5874;0,02215
1683,5516;0,0213796
1684,5159;0,0206209
1685,4801;0,019976
1686,4443;0,0193263
1687,4086;0,0186995
1688,3728;0,0182378
1689,3370;0,0180515
1690,3013;0,0181679
1691,2655;0,0185307
1692,2297;0,0190056
1693,1940;0,0193966
1694,1582;0,0195012
1695,1224;0,0192239
1696,0867;0,0186962
1697,0509;0,0182639
1698,0151;0,0182501
1698,9794;0,0186458
1699,9436;0,0190662
1700,9078;0,0190948
1701,8721;0,0186504
1702,8363;0,017991
1703,8005;0,0174687
1704,7648;0,017324
1705,7290;0,0176058
1706,6932;0,0181848
1707,6575;0,0188471
1708,6217;0,0194357
1709,5859;0,0199258
1710,5502;0,0203788
1711,5144;0,0208483
1712,4786;0,0213227
1713,4429;0,0217248
1714,4071;0,0219767
1715,3713;0,0221449
1716,3356;0,0225385
1717,2998;0,0234115
1718,2640;0,0245144
1719,2283;0,0253897
1720,1925;0,0259249
1721,1567;0,0263129
1722,1210;0,0267623
1723,0852;0,0273526
1724,0494;0,0280335
1725,0137;0,0286883
1725,9779;0,0292136
1726,9421;0,0295798
1727,9064;0,029844
1728,8706;0,0301028
1729,8348;0,0304139
1730,7991;0,030731
1731,7633;0,0309178
1732,7275;0,0308721
1733,6918;0,0306233
1734,6560;0,0302361
1735,6202;0,0297322
1736,5845;0,0291682
1737,5487;0,0286235
1738,5129;0,0281097
1739,4772;0,0275611
1740,4414;0,0269107
1741,4056;0,0261499
1742,3699;0,0253163
1743,3341;0,0244518
1744,2983;0,0235859
1745,2626;0,0227334
1746,2268;0,0218928
1747,1910;0,0210587
1748,1553;0,0202554
1749,1195;0,019553
1750,0837;0,0190004
1751,0480;0,0185443
1752,0122;0,0180781
1752,9764;0,0175481
1753,9407;0,0169654
1754,9049;0,0163581
1755,8691;0,0157511
1756,8334;0,0151714
1757,7976;0,0146418
1758,7618;0,0141584
1759,7261;0,0136869
1760,6903;0,0131963
1761,6545;0,0126974
1762,6188;0,0122411
1763,5830;0,0118769
1764,5472;0,0116194
1765,5115;0,011442
1766,4757;0,0112836
1767,4399;0,0110648
1768,4042;0,0107121
1769,3684;0,0101946
1770,3326;0,00956625
1771,2969;0,00897981
1772,2611;0,00860212
1773,2253;0,00846552
1774,1896;0,00845793
1775,1538;0,00846907
1776,1180;0,00846911
1777,0823;0,00846497
1778,0465;0,00845316
1779,0107;0,008429
1779,9750;0,00841438
1780,9392;0,00844865
1781,9034;0,00854693
1782,8677;0,00867762
1783,8319;0,0087826
1784,7961;0,00881961
1785,7604;0,00879411
1786,7246;0,00875582
1787,6888;0,00875623
1788,6531;0,00879282
1789,6173;0,00878778
1790,5815;0,00864573
1791,5458;0,00836541
1792,5100;0,00806153
1793,4742;0,00783336
1794,4385;0,00769048
1795,4027;0,00762087
1796,3669;0,00762842
1797,3312;0,00770246
1798,2954;0,00780552
1799,2596;0,00790293
1800,2239;0,00798993
1801,1881;0,00807836
1802,1523;0,00816808
1803,1166;0,0082461
1804,0808;0,00830232
1805,0450;0,00833212
1806,0093;0,00832751
1806,9735;0,00827458
1807,9377;0,00816566
1808,9020;0,00801939
1809,8662;0,00788758
1810,8304;0,00783075
1811,7947;0,00787797
1812,7589;0,00801224
1813,7231;0,0081896
1814,6874;0,00836216
1815,6516;0,00849054
1816,6158;0,00855467
1817,5801;0,00856338
1818,5443;0,00854913
1819,5085;0,00854652
1820,4728;0,00857053
1821,4370;0,00860772
1822,4012;0,00862446
1823,3655;0,00858918
1824,3297;0,00849227
1825,2939;0,00834562
1826,2582;0,00816813
1827,2224;0,00797999
1828,1866;0,00781381
1829,1509;0,00772198
1830,1151;0,00774736
1831,0793;0,00787416
1832,0436;0,00803479
1833,0078;0,00817025
1833,9720;0,00825762
1834,9363;0,008292
1835,9005;0,00827842
1836,8647;0,00824425
1837,8290;0,00824027
1838,7932;0,00831598
1839,7574;0,00848854
1840,7217;0,00871798
1841,6859;0,00890538
1842,6501;0,00894354
1843,6144;0,00880592
1844,5786;0,00857399
1845,5428;0,0083527
1846,5071;0,00819734
1847,4713;0,0081275
1848,4355;0,00814747
1849,3998;0,00823893
1850,3640;0,00836083
1851,3282;0,00846853
1852,2925;0,00853639
1853,2567;0,0085635
1854,2209;0,00856346
1855,1852;0,00855087
1856,1494;0,00853622
1857,1136;0,00852618
1858,0779;0,00852763
1859,0421;0,00854554
1860,0063;0,00857659
1860,9706;0,00860536
1861,9348;0,00860978
1862,8990;0,00857146
1863,8633;0,00848084
1864,8275;0,00833318
1865,7917;0,00813172
1866,7560;0,00791403
1867,7202;0,00777261
1868,6844;0,00780002
1869,6487;0,0079848
1870,6129;0,00821296
1871,5771;0,00838329
1872,5414;0,00847165
1873,5056;0,00850121
1874,4698;0,0084982
1875,4341;0,00848109
1876,3983;0,0084657
1877,3625;0,00846792
1878,3268;0,00849594
1879,2910;0,00854691
1880,2552;0,00860878
1881,2195;0,0086675
1882,1837;0,00871393
1883,1479;0,00874571
1884,1122;0,00876267
1885,0764;0,00876004
1886,0406;0,00872623
1887,0049;0,00865122
1887,9691;0,00854289
1888,9333;0,00843427
1889,8976;0,00836587
1890,8618;0,00835692
1891,8260;0,00839683
1892,7903;0,00846047
1893,7545;0,00852623
1894,7188;0,00858562
1895,6830;0,00864272
1896,6472;0,0087042
1897,6115;0,00876772
1898,5757;0,00882015
1899,5399;0,0088459
1900,5042;0,00883686
1901,4684;0,00879716
1902,4326;0,00874062
1903,3969;0,00868198
1904,3611;0,00862839
1905,3253;0,0085781
1906,2896;0,00852683
1907,2538;0,00847676
1908,2180;0,00844136
1909,1823;0,00843998
1910,1465;0,00848386
1911,1107;0,00856684
1912,0750;0,00867081
1913,0392;0,00877659
1914,0034;0,00886635
1914,9677;0,00892153
1915,9319;0,00892863
1916,8961;0,0088895
1917,8604;0,00881865
1918,8246;0,00872766
1919,7888;0,00861896
1920,7531;0,00849735
1921,7173;0,00838192
1922,6815;0,00830513
1923,6458;0,00829677
1924,6100;0,00836161
1925,5742;0,00847042
1926,5385;0,00857555
1927,5027;0,00863742
1928,4669;0,00864321
1929,4312;0,00861254
1930,3954;0,00858577
1931,3596;0,00859799
1932,3239;0,00865788
1933,2881;0,00874478
1934,2523;0,00882613
1935,2166;0,00888057
1936,1808;0,00890947
1937,1450;0,00892936
1938,1093;0,00895269
1939,0735;0,0089727
1940,0377;0,00896601
1941,0020;0,00891421
1941,9662;0,00882739
1942,9304;0,00874396
1943,8947;0,00870362
1944,8589;0,00872178
1945,8231;0,0087867
1946,7874;0,0088711
1947,7516;0,00894449
1948,7158;0,00898285
1949,6801;0,00897593
1950,6443;0,00892991
1951,6085;0,0088645
1952,5728;0,00880605
1953,5370;0,00877877
1954,5012;0,00879581
1955,4655;0,00885274
1956,4297;0,00892773
1957,3939;0,00899043
1958,3582;0,00901638
1959,3224;0,00899867
1960,2866;0,00894866
1961,2509;0,00888444
1962,2151;0,00881602
1963,1793;0,00874001
1964,1436;0,00864866
1965,1078;0,00854637
1966,0720;0,00845947
1967,0363;0,00842616
1968,0005;0,00846975
1968,9647;0,00857889
1969,9290;0,008715
1970,8932;0,00884011
1971,8574;0,00894254
1972,8217;0,00904462
1973,7859;0,00918884
1974,7501;0,00940979
1975,7144;0,0096994
1976,6786;0,00999557
1977,6428;0,0102062
1978,6071;0,0102577
1979,5713;0,0101346
1980,5355;0,00988369
1981,4998;0,00958992
1982,4640;0,00934224
1983,4282;0,00920486
1984,3925;0,0091994
1985,3567;0,00930187
1986,3209;0,00945699
1987,2852;0,00960454
1988,2494;0,00970405
1989,2136;0,0097455
1990,1779;0,0097432
1991,1421;0,00971893
1992,1063;0,0096855
1993,0706;0,00964297
1994,0348;0,00958979
1994,9990;0,00953515
1995,9633;0,0094979
1996,9275;0,00949267
1997,8917;0,00951664
1998,8560;0,00954919
1999,8202;0,0095671
2000,7844;0,00956545
2001,7487;0,00956839
2002,7129;0,00961926
2003,6771;0,00975386
2004,6414;0,00997188
2005,6056;0,0102259
2006,5698;0,0104373
2007,5341;0,0105345
2008,4983;0,0104896
2009,4625;0,010326
2010,4268;0,010096
2011,3910;0,0098505
2012,3552;0,00962215
2013,3195;0,00942935
2014,2837;0,00928974
2015,2479;0,00922782
2016,2122;0,00926599
2017,1764;0,00940403
2018,1406;0,00960651
2019,1049;0,00981484
2020,0691;0,00997836
2021,0333;0,0100814
2021,9976;0,0101478
2022,9618;0,0102202
2023,9260;0,0103285
2024,8903;0,010464
2025,8545;0,0105785
2026,8187;0,0106099
2027,7830;0,01052
2028,7472;0,0103198
2029,7114;0,0100688
2030,6757;0,00984668
2031,6399;0,00971646
2032,6041;0,00969989
2033,5684;0,00977605
2034,5326;0,00990099
2035,4968;0,0100319
2036,4611;0,0101429
2037,4253;0,0102227
2038,3895;0,0102685
2039,3538;0,0102822
2040,3180;0,0102719
2041,2822;0,0102524
2042,2465;0,0102371
2043,2107;0,0102279
2044,1749;0,0102105
2045,1392;0,0101636
2046,1034;0,0100788
2047,0676;0,0099744
2048,0320;0,00988965
2048,9961;0,00985913
2049,9604;0,00988886
2050,9246;0,00995446
2051,8889;0,0100205
2052,8530;0,0100637
2053,8174;0,0100845
2054,7815;0,0101027
2055,7458;0,0101398
2056,7100;0,0102037
2057,6743;0,0102851
2058,6384;0,0103654
2059,6028;0,0104273
2060,5669;0,0104593
2061,5313;0,0104524
2062,4954;0,0103989
2063,4597;0,0102963
2064,4238;0,010156
2065,3882;0,0100061
2066,3523;0,00988237
2067,3167;0,0098105
2068,2808;0,0097935
2069,2451;0,00981297
2070,2092;0,00984388
2071,1736;0,00987172
2072,1377;0,00990108
2073,1021;0,00994701
2074,0662;0,0100188
2075,0305;0,0101078
2075,9946;0,0101896
2076,9590;0,0102385
2077,9231;0,010243
2078,8875;0,0102112
2079,8516;0,0101622
2080,8159;0,0101107
2081,7800;0,0100584
2082,7444;0,00999762
2083,7085;0,00992448
2084,6729;0,0098495
2085,6370;0,00979499
2086,6013;0,00978121
2087,5654;0,00981019
2088,5298;0,00986122
2089,4939;0,00990257
2090,4583;0,00991192
2091,4224;0,00989064
2092,3867;0,00986181
2093,3508;0,00985388
2094,3152;0,00988225
2095,2793;0,00994192
2096,2437;0,0100149
2097,2078;0,0100846
2098,1721;0,0101438
2099,1362;0,0101907
2100,1006;0,0102172
2101,0647;0,0102175
2102,0291;0,0101749
2102,9932;0,0100894
2103,9575;0,00998108
2104,9216;0,00988479
2105,8860;0,00983422
2106,8501;0,00984532
2107,8145;0,00990945
2108,7786;0,00999968
2109,7429;0,0100856
2110,7070;0,010147
2111,6714;0,0101793
2112,6355;0,0101895
2113,5999;0,0101872
2114,5640;0,0101771
2115,5283;0,0101576
2116,4924;0,0101249
2117,4568;0,0100788
2118,4209;0,0100265
2119,3853;0,00998197
2120,3494;0,00996063
2121,3137;0,00997253
2122,2778;0,0100177
2123,2422;0,0100859
2124,2063;0,01016
2125,1707;0,0102228
2126,1348;0,0102623
2127,0991;0,0102757
2128,0632;0,0102685
2129,0276;0,0102513
2129,9917;0,0102358
2130,9561;0,0102307
2131,9202;0,0102403
2132,8845;0,0102639
2133,8486;0,0102984
2134,8130;0,0103401
2135,7771;0,0103892
2136,7415;0,0104518
2137,7056;0,0105389
2138,6699;0,0106591
2139,6340;0,0108094
2140,5984;0,0109705
2141,5625;0,0111124
2142,5269;0,0112114
2143,4910;0,0112666
2144,4553;0,0113038
2145,4194;0,011358
2146,3838;0,011447
2147,3479;0,0115546
2148,3123;0,0116415
2149,2764;0,0116765
2150,2407;0,0116645
2151,2048;0,011647
2152,1692;0,0116743
2153,1333;0,0117715
2154,0977;0,0119277
2155,0618;0,0121168
2156,0261;0,0123311
2156,9902;0,0125914
2157,9546;0,0129115
2158,9187;0,0132419
2159,8831;0,0134616
2160,8472;0,0134505
2161,8115;0,0131792
2162,7756;0,0127372
2163,7400;0,0122856
2164,7041;0,0119748
2165,6685;0,0118703
2166,6326;0,0119274
2167,5969;0,0120265
2168,5610;0,0120469
2169,5254;0,0119313
2170,4895;0,011708
2171,4539;0,0114645
2172,4180;0,0112935
2173,3823;0,0112405
2174,3464;0,0112817
2175,3108;0,0113433
2176,2749;0,011351
2177,2393;0,0112767
2178,2034;0,0111533
2179,1677;0,0110508
2180,1318;0,0110326
2181,0962;0,0111181
2182,0603;0,0112746
2183,0247;0,0114388
2183,9888;0,0115527
2184,9531;0,0115889
2185,9172;0,0115545
2186,8816;0,0114783
2187,8457;0,0113951
2188,8101;0,0113353
2189,7742;0,0113176
2190,7385;0,0113447
2191,7026;0,0113988
2192,6670;0,0114456
2193,6311;0,0114468
2194,5955;0,0113787
2195,5596;0,0112469
2196,5239;0,0110868
2197,4880;0,0109473
2198,4524;0,0108663
2199,4165;0,0108521
2200,3809;0,0108811
2201,3450;0,0109125
2202,3093;0,0109115
2203,2734;0,0108673
2204,2378;0,0107958
2205,2019;0,0107281
2206,1663;0,0106911
2207,1304;0,010693
2208,0947;0,0107208
2209,0588;0,0107513
2210,0232;0,0107655
2210,9873;0,010759
2211,9517;0,0107415
2212,9158;0,0107269
2213,8801;0,0107225
2214,8442;0,0107243
2215,8086;0,0107211
2216,7727;0,0107038
2217,7371;0,0106714
2218,7012;0,0106304
2219,6655;0,0105897
2220,6296;0,010556
2221,5940;0,0105333
2222,5581;0,0105258
2223,5225;0,010539
2224,4866;0,010576
2225,4509;0,0106311
2226,4150;0,0106873
2227,3794;0,0107219
2228,3435;0,0107203
2229,3079;0,0106846
2230,2720;0,0106332
2231,2363;0,0105898
2232,2004;0,01057
2233,1648;0,0105743
2234,1289;0,0105915
2235,0933;0,0106078
2236,0574;0,0106139
2237,0217;0,0106055
2237,9858;0,0105809
2238,9502;0,0105409
2239,9143;0,0104921
2240,8787;0,0104498
2241,8428;0,0104347
2242,8071;0,0104622
2243,7712;0,0105306
2244,7356;0,0106159
2245,6997;0,0106815
2246,6641;0,0106948
2247,6282;0,0106457
2248,5925;0,0105529
2249,5566;0,0104571
2250,5210;0,0104032
2251,4851;0,0104206
2252,4495;0,0105113
2253,4136;0,0106496
2254,3779;0,0107951
2255,3420;0,010912
2256,3064;0,0109829
2257,2705;0,0110114
2258,2349;0,0110119
2259,1990;0,0109967
2260,1633;0,0109689
2261,1274;0,0109272
2262,0918;0,0108753
2263,0559;0,0108266
2264,0203;0,0107993
2264,9844;0,0108046
2265,9487;0,0108382
2266,9128;0,0108828
2267,8772;0,0109186
2268,8413;0,0109341
2269,8057;0,0109287
2270,7698;0,0109075
2271,7341;0,0108739
2272,6982;0,0108283
2273,6626;0,0107724
2274,6267;0,0107127
2275,5911;0,0106603
2276,5552;0,010626
2277,5195;0,010615
2278,4836;0,0106273
2279,4480;0,0106618
2280,4121;0,0107206
2281,3765;0,0108078
2282,3406;0,0109257
2283,3049;0,0110706
2284,2690;0,0112328
2285,2334;0,0114018
2286,1975;0,011572
2287,1619;0,0117459
2288,1260;0,0119313
2289,0903;0,0121353
2290,0544;0,0123588
2291,0188;0,0125953
2291,9829;0,0128337
2292,9473;0,0130655
2293,9114;0,0132887
2294,8757;0,0135071
2295,8398;0,0137243
2296,8042;0,0139359
2297,7683;0,0141258
2298,7327;0,014271
2299,6968;0,0143537
2300,6611;0,0143748
2301,6252;0,0143606
2302,5896;0,0143573
2303,5537;0,0144149
2304,5181;0,0145668
2305,4822;0,0148115
2306,4465;0,0151053
2307,4106;0,0153707
2308,3750;0,0155201
2309,3391;0,0154883
2310,3035;0,0152604
2311,2676;0,0148818
2312,2319;0,0144421
2313,1960;0,0140387
2314,1604;0,0137373
2315,1245;0,0135513
2316,0889;0,0134494
2317,0530;0,0133828
2318,0173;0,0133142
2318,9814;0,0132338
2319,9458;0,0131606
2320,9099;0,0131314
2321,8743;0,0131835
2322,8384;0,013332
2323,8027;0,013549
2324,7668;0,0137604
2325,7312;0,0138734
2326,6953;0,013818
2327,6597;0,0135805
2328,6238;0,0132097
2329,5881;0,0127965
2330,5522;0,0124399
2331,5166;0,0122091
2332,4807;0,0121176
2333,4451;0,0121236
2334,4092;0,0121615
2335,3735;0,0121858
2336,3376;0,0122038
2337,3020;0,012277
2338,2661;0,012489
2339,2305;0,0128895
2340,1946;0,0134328
2341,1589;0,0139443
2342,1230;0,0141664
2343,0874;0,0139476
2344,0515;0,0135002
2345,0159;0,0133542
2345,9800;0,0138789
2346,9443;0,0149343
2347,9084;0,0160334
2348,8728;0,0167143
2349,8369;0,0167802
2350,8013;0,0163458
2351,7654;0,0157306
2352,7297;0,0152533
2353,6938;0,0150453
2354,6582;0,0150453
2355,6223;0,0151517
2356,5867;0,0153069
2357,5508;0,0154469
2358,5151;0,0154693
2359,4792;0,015301
2360,4436;0,0149712
2361,4077;0,0145763
2362,3721;0,0141753
2363,3362;0,0137417
2364,3005;0,0132124
2365,2646;0,012562
2366,2290;0,0118279
2367,1931;0,0110801
2368,1575;0,0103827
2369,1216;0,0097794
2370,0859;0,00929644
2371,0500;0,00894883
2372,0144;0,00874399
2372,9785;0,00868707
2373,9429;0,00878596
2374,9070;0,00904928
2375,8713;0,00947505
2376,8354;0,0100362
2377,7998;0,0106739
2378,7639;0,0113044
2379,7283;0,0118382
2380,6924;0,0122035
2381,6567;0,0123635
2382,6208;0,0123225
2383,5852;0,0121201
2384,5493;0,011817
2385,5137;0,0114777
2386,4778;0,0111559
2387,4421;0,0108861
2388,4063;0,0106819
2389,3706;0,0105411
2390,3347;0,0104517
2391,2991;0,0103994
2392,2632;0,0103719
2393,2275;0,010361
2394,1917;0,010362
2395,1560;0,010372
2396,1201;0,0103879
2397,0845;0,010406
2398,0486;0,0104253
2399,0129;0,0104456
2399,9771;0,0104685
2400,9414;0,0104972
2401,9055;0,0105313
2402,8699;0,0105675
2403,8340;0,0105995
2404,7983;0,0106229
2405,7625;0,0106376
2406,7268;0,0106474
2407,6909;0,0106578
2408,6553;0,0106723
2409,6194;0,0106895
2410,5837;0,0107053
2411,5479;0,010716
2412,5122;0,0107208
2413,4763;0,0107223
2414,4407;0,0107255
2415,4048;0,0107351
2416,3691;0,0107542
2417,3333;0,010783
2418,2976;0,0108185
2419,2617;0,010855
2420,2261;0,0108853
2421,1902;0,0109028
2422,1545;0,0109051
2423,1187;0,0108955
2424,0830;0,010882
2425,0471;0,010874
2426,0115;0,0108781
2426,9756;0,0108955
2427,9399;0,0109228
2428,9041;0,010954
2429,8684;0,0109833
2430,8325;0,0110074
2431,7969;0,0110252
2432,7610;0,0110374
2433,7253;0,0110452
2434,6895;0,0110503
2435,6538;0,0110539
2436,6179;0,0110573
2437,5823;0,0110615
2438,5464;0,0110672
2439,5107;0,0110745
2440,4749;0,0110831
2441,4392;0,0110923
2442,4033;0,0111013
2443,3677;0,01111
2444,3318;0,0111197
2445,2961;0,0111325
2446,2603;0,0111505
2447,2246;0,0111741
2448,1887;0,0112011
2449,1531;0,0112265
2450,1172;0,0112458
2451,0815;0,0112568
2452,0457;0,0112616
2453,0100;0,011265
2453,9741;0,0112717
2454,9385;0,0112836
2455,9026;0,0112992
2456,8669;0,0113154
2457,8311;0,0113299
2458,7954;0,0113425
2459,7595;0,0113544
2460,7239;0,0113662
2461,6880;0,0113771
2462,6523;0,0113852
2463,6165;0,0113891
2464,5808;0,0113894
2465,5449;0,011388
2466,5093;0,0113872
2467,4734;0,0113885
2468,4377;0,0113931
2469,4019;0,0114014
2470,3662;0,0114136
2471,3303;0,0114286
2472,2947;0,0114442
2473,2588;0,0114575
2474,2231;0,0114669
2475,1873;0,0114739
2476,1516;0,0114825
2477,1157;0,0114971
2478,0801;0,0115195
2479,0442;0,0115474
2480,0085;0,0115758
2480,9727;0,0115994
2481,9370;0,0116155
2482,9011;0,0116247
2483,8655;0,0116305
2484,8296;0,0116367
2485,7939;0,0116462
2486,7581;0,0116602
2487,7224;0,0116777
2488,6865;0,0116966
2489,6509;0,0117146
2490,6150;0,0117302
2491,5793;0,0117438
2492,5435;0,0117574
2493,5078;0,0117726
2494,4719;0,0117889
2495,4363;0,0118035
2496,4004;0,011812
2497,3647;0,0118116
2498,3289;0,0118027
2499,2932;0,0117896
2500,2573;0,0117773
2501,2217;0,0117696
2502,1858;0,0117671
2503,1501;0,0117687
2504,1143;0,0117737
2505,0786;0,0117837
2506,0427;0,0118016
2507,0071;0,0118289
2507,9712;0,0118637
2508,9355;0,0119008
2509,8997;0,011934
2510,8640;0,0119595
2511,8281;0,0119771
2512,7925;0,011989
2513,7566;0,0119977
2514,7209;0,0120037
2515,6851;0,0120058
2516,6494;0,0120025
2517,6135;0,0119928
2518,5779;0,0119771
2519,5420;0,011957
2520,5063;0,0119356
2521,4705;0,0119175
2522,4348;0,0119083
2523,3989;0,0119124
2524,3633;0,0119305
2525,3274;0,0119582
2526,2917;0,0119867
2527,2559;0,0120071
2528,2202;0,0120138
2529,1843;0,0120075
2530,1487;0,0119944
2531,1128;0,0119832
2532,0771;0,0119813
2533,0413;0,0119921
2534,0056;0,0120137
2534,9697;0,0120403
2535,9341;0,0120639
2536,8982;0,0120774
2537,8625;0,0120776
2538,8267;0,0120661
2539,7910;0,0120491
2540,7551;0,0120347
2541,7195;0,0120299
2542,6836;0,0120373
2543,6479;0,0120554
2544,6121;0,0120791
2545,5764;0,0121025
2546,5405;0,012121
2547,5049;0,0121325
2548,4690;0,0121372
2549,4333;0,0121364
2550,3975;0,0121311
2551,3618;0,0121216
2552,3259;0,0121075
2553,2903;0,0120891
2554,2544;0,0120683
2555,2188;0,012049
2556,1829;0,0120364
2557,1472;0,0120351
2558,1113;0,0120477
2559,0757;0,0120734
2560,0398;0,0121068
2561,0042;0,012139
2561,9683;0,0121594
2562,9326;0,01216
2563,8967;0,0121391
2564,8611;0,0121037
2565,8252;0,0120682
2566,7896;0,0120476
2567,7537;0,0120507
2568,7180;0,0120758
2569,6821;0,0121116
2570,6465;0,0121437
2571,6106;0,0121619
2572,5750;0,0121645
2573,5391;0,0121575
2574,5034;0,0121501
2575,4675;0,01215
2576,4319;0,0121601
2577,3960;0,0121787
2578,3604;0,0122018
2579,3245;0,0122245
2580,2888;0,0122431
2581,2529;0,0122553
2582,2173;0,0122611
2583,1814;0,0122621
2584,1458;0,0122616
2585,1099;0,0122635
2586,0742;0,0122717
2587,0383;0,0122877
2588,0027;0,0123101
2588,9668;0,0123341
2589,9312;0,0123527
2590,8953;0,0123601
2591,8596;0,012355
2592,8237;0,0123412
2593,7881;0,0123268
2594,7522;0,0123197
2595,7166;0,0123249
2596,6807;0,0123421
2597,6450;0,0123676
2598,6091;0,0123959
2599,5735;0,0124218
2600,5376;0,0124415
2601,5020;0,0124523
2602,4661;0,012454
2603,4304;0,0124492
2604,3945;0,0124431
2605,3589;0,0124415
2606,3230;0,0124477
2607,2874;0,0124606
2608,2515;0,0124759
2609,2158;0,0124886
2610,1799;0,0124964
2611,1443;0,0125003
2612,1084;0,0125036
2613,0728;0,0125092
2614,0369;0,0125187
2615,0012;0,0125318
2615,9653;0,0125471
2616,9297;0,0125623
2617,8938;0,0125746
2618,8582;0,0125816
2619,8223;0,0125826
2620,7866;0,0125803
2621,7507;0,01258
2622,7151;0,0125873
2623,6792;0,0126045
2624,6436;0,0126297
2625,6077;0,0126578
2626,5720;0,0126838
2627,5361;0,0127059
2628,5005;0,0127256
2629,4646;0,0127454
2630,4290;0,012767
2631,3931;0,0127902
2632,3574;0,0128131
2633,3215;0,0128341
2634,2859;0,0128524
2635,2500;0,0128675
2636,2144;0,012879
2637,1785;0,0128865
2638,1428;0,0128907
2639,1069;0,0128939
2640,0713;0,0128995
2641,0354;0,0129105
2641,9998;0,0129277
2642,9639;0,0129491
2643,9282;0,012971
2644,8923;0,0129898
2645,8567;0,0130044
2646,8208;0,0130156
2647,7852;0,0130262
2648,7493;0,0130391
2649,7136;0,0130566
2650,6777;0,0130796
2651,6421;0,013107
2652,6062;0,0131365
2653,5706;0,0131644
2654,5347;0,0131877
2655,4990;0,0132053
2656,4631;0,0132186
2657,4275;0,013231
2658,3916;0,0132456
2659,3560;0,0132638
2660,3201;0,0132843
2661,2844;0,0133041
2662,2485;0,0133207
2663,2129;0,0133334
2664,1770;0,0133438
2665,1414;0,0133543
2666,1055;0,013367
2667,0698;0,0133828
2668,0339;0,0134017
2668,9983;0,0134227
2669,9624;0,0134445
2670,9268;0,0134663
2671,8909;0,0134877
2672,8552;0,0135093
2673,8193;0,0135321
2674,7837;0,0135568
2675,7478;0,0135821
2676,7122;0,0136048
2677,6763;0,013621
2678,6406;0,0136289
2679,6047;0,0136306
2680,5691;0,0136323
2681,5332;0,0136412
2682,4976;0,0136621
2683,4617;0,0136949
2684,4260;0,0137356
2685,3901;0,0137779
2686,3545;0,0138164
2687,3186;0,0138478
2688,2830;0,0138708
2689,2471;0,0138862
2690,2114;0,0138963
2691,1755;0,013905
2692,1399;0,0139166
2693,1040;0,0139343
2694,0684;0,0139586
2695,0325;0,0139867
2695,9968;0,0140139
2696,9609;0,0140367
2697,9253;0,0140547
2698,8894;0,0140705
2699,8538;0,0140884
2700,8179;0,0141117
2701,7822;0,0141415
2702,7463;0,0141771
2703,7107;0,0142162
2704,6748;0,0142559
2705,6392;0,0142933
2706,6033;0,0143253
2707,5676;0,01435
2708,5317;0,0143678
2709,4961;0,0143819
2710,4602;0,0143975
2711,4246;0,0144192
2712,3887;0,0144489
2713,3530;0,0144844
2714,3171;0,0145211
2715,2815;0,0145543
2716,2456;0,0145815
2717,2100;0,0146029
2718,1741;0,0146212
2719,1384;0,0146389
2720,1025;0,0146578
2721,0669;0,0146779
2722,0310;0,0146978
2722,9954;0,014716
2723,9595;0,0147322
2724,9238;0,0147471
2725,8879;0,0147632
2726,8523;0,0147837
2727,8164;0,0148112
2728,7808;0,0148461
2729,7449;0,0148866
2730,7092;0,0149283
2731,6733;0,0149659
2732,6377;0,0149949
2733,6018;0,0150128
2734,5662;0,0150201
2735,5303;0,0150196
2736,4946;0,0150156
2737,4587;0,0150126
2738,4231;0,015014
2739,3872;0,0150223
2740,3516;0,0150388
2741,3157;0,0150641
2742,2800;0,0150977
2743,2441;0,0151367
2744,2085;0,0151759
2745,1726;0,0152081
2746,1370;0,0152272
2747,1011;0,0152316
2748,0654;0,0152256
2749,0295;0,0152184
2749,9939;0,0152198
2750,9580;0,0152353
2751,9224;0,0152644
2752,8865;0,0153017
2753,8508;0,0153412
2754,8149;0,0153794
2755,7793;0,0154159
2756,7434;0,0154514
2757,7078;0,0154856
2758,6719;0,015516
2759,6362;0,0155402
2760,6003;0,0155575
2761,5647;0,0155705
2762,5288;0,0155837
2763,4932;0,0156014
2764,4573;0,0156261
2765,4216;0,015658
2766,3857;0,0156958
2767,3501;0,0157375
2768,3142;0,0157807
2769,2786;0,015822
2770,2427;0,0158579
2771,2070;0,0158862
2772,1711;0,0159072
2773,1355;0,015924
2774,0996;0,0159418
2775,0640;0,0159649
2776,0281;0,015996
2776,9924;0,0160355
2777,9565;0,0160823
2778,9209;0,0161351
2779,8850;0,0161924
2780,8494;0,0162528
2781,8135;0,0163144
2782,7778;0,0163748
2783,7419;0,0164313
2784,7063;0,0164809
2785,6704;0,0165212
2786,6348;0,016551
2787,5989;0,016572
2788,5632;0,0165896
2789,5273;0,0166122
2790,4917;0,0166482
2791,4558;0,0167021
2792,4202;0,0167723
2793,3843;0,016851
2794,3486;0,0169285
2795,3127;0,016998
2796,2771;0,0170585
2797,2412;0,0171145
2798,2056;0,0171724
2799,1697;0,0172374
2800,1340;0,017311
2801,0981;0,0173923
2802,0625;0,0174799
2803,0266;0,0175731
2803,9910;0,0176715
2804,9551;0,0177731
2805,9194;0,0178734
2806,8835;0,0179668
2807,8479;0,0180493
2808,8120;0,0181219
2809,7764;0,0181908
2810,7405;0,0182651
2811,7048;0,0183527
2812,6689;0,0184563
2813,6333;0,0185722
2814,5974;0,0186933
2815,5618;0,0188128
2816,5259;0,0189277
2817,4902;0,0190393
2818,4543;0,0191516
2819,4187;0,0192681
2820,3828;0,01939
2821,3472;0,0195168
2822,3113;0,0196476
2823,2756;0,019784
2824,2397;0,0199291
2825,2041;0,0200871
2826,1682;0,02026
2827,1326;0,0204467
2828,0967;0,0206433
2829,0610;0,0208459
2830,0251;0,0210529
2830,9895;0,0212666
2831,9536;0,0214915
2832,9180;0,0217319
2833,8821;0,0219887
2834,8464;0,02226
2835,8105;0,0225434
2836,7749;0,02284
2837,7390;0,0231563
2838,7034;0,023504
2839,6675;0,0238952
2840,6318;0,0243385
2841,5959;0,0248365
2842,5603;0,025386
2843,5244;0,0259795
2844,4888;0,0266054
2845,4529;0,0272459
2846,4172;0,0278748
2847,3813;0,0284572
2848,3457;0,0289548
2849,3098;0,0293345
2850,2742;0,0295782
2851,2383;0,0296877
2852,2026;0,0296823
2853,1667;0,0295915
2854,1311;0,0294457
2855,0952;0,0292695
2856,0596;0,0290797
2857,0237;0,0288876
2857,9880;0,0287026
2858,9521;0,0285347
2859,9165;0,0283947
2860,8806;0,0282922
2861,8450;0,0282329
2862,8091;0,0282174
2863,7734;0,0282416
2864,7375;0,0282993
2865,7019;0,0283845
2866,6660;0,0284912
2867,6304;0,028612
2868,5945;0,0287359
2869,5588;0,0288487
2870,5229;0,0289361
2871,4873;0,0289903
2872,4514;0,0290133
2873,4158;0,0290176
2874,3799;0,0290201
2875,3442;0,029035
2876,3083;0,029068
2877,2727;0,0291166
2878,2368;0,0291739
2879,2012;0,0292347
2880,1653;0,0292985
2881,1296;0,0293693
2882,0938;0,0294525
2883,0581;0,0295513
2884,0222;0,0296649
2884,9866;0,0297897
2885,9507;0,0299205
2886,9150;0,0300529
2887,8792;0,0301848
2888,8435;0,0303161
2889,8076;0,0304482
2890,7720;0,0305828
2891,7361;0,0307207
2892,7004;0,0308611
2893,6646;0,0310024
2894,6289;0,0311431
2895,5930;0,0312826
2896,5574;0,0314217
2897,5215;0,0315613
2898,4858;0,0317016
2899,4500;0,0318413
2900,4143;0,0319788
2901,3784;0,0321137
2902,3428;0,0322483
2903,3069;0,0323879
2904,2712;0,0325394
2905,2354;0,0327092
2906,1997;0,032902
2907,1638;0,0331206
2908,1282;0,0333676
2909,0923;0,0336477
2910,0566;0,0339663
2911,0208;0,0343267
2911,9851;0,0347252
2912,9492;0,0351472
2913,9136;0,035568
2914,8777;0,0359573
2915,8420;0,0362876
2916,8062;0,0365402
2917,7705;0,0367087
2918,7346;0,0367964
2919,6990;0,0368115
2920,6631;0,0367622
2921,6274;0,0366544
2922,5916;0,0364926
2923,5559;0,0362806
2924,5200;0,0360238
2925,4844;0,0357277
2926,4485;0,0353982
2927,4128;0,0350411
2928,3770;0,0346631
2929,3413;0,034273
2930,3054;0,0338809
2931,2698;0,0334958
2932,2339;0,0331225
2933,1982;0,0327602
2934,1624;0,0324033
2935,1267;0,0320451
2936,0908;0,0316813
2937,0552;0,0313116
2938,0193;0,0309395
2938,9836;0,0305697
2939,9478;0,0302066
2940,9121;0,0298535
2941,8762;0,0295134
2942,8406;0,0291898
2943,8047;0,0288869
2944,7690;0,0286091
2945,7332;0,0283592
2946,6975;0,0281377
2947,6616;0,0279414
2948,6260;0,0277648
2949,5901;0,0276013
2950,5544;0,0274449
2951,5186;0,0272919
2952,4829;0,0271402
2953,4470;0,0269885
2954,4114;0,026834
2955,3755;0,0266725
2956,3398;0,0264986
2957,3040;0,0263082
2958,2683;0,026101
2959,2324;0,0258801
2960,1968;0,0256508
2961,1609;0,0254175
2962,1252;0,0251819
2963,0894;0,0249427
2964,0537;0,0246973
2965,0178;0,0244447
2965,9822;0,0241863
2966,9463;0,0239254
2967,9106;0,0236651
2968,8748;0,0234067
2969,8391;0,0231495
2970,8032;0,0228929
2971,7676;0,0226388
2972,7317;0,0223925
2973,6960;0,0221612
2974,6602;0,0219498
2975,6245;0,0217581
2976,5886;0,0215809
2977,5530;0,0214113
2978,5171;0,0212458
2979,4814;0,0210862
2980,4456;0,0209378
2981,4099;0,0208053
2982,3740;0,0206883
2983,3384;0,0205825
2984,3025;0,0204829
2985,2668;0,0203876
2986,2310;0,020299
2987,1953;0,020221
2988,1594;0,0201549
2989,1238;0,0200979
2990,0879;0,0200452
2991,0522;0,0199935
2992,0164;0,0199432
2992,9807;0,0198982
2993,9448;0,0198634
2994,9092;0,0198429
2995,8733;0,0198389
2996,8376;0,0198515
2997,8018;0,0198782
2998,7661;0,0199128
2999,7302;0,0199459
3000,6946;0,0199681
3001,6587;0,019975
3002,6230;0,0199698
3003,5872;0,0199627
3004,5515;0,0199639
3005,5156;0,0199769
3006,4800;0,019996
3007,4441;0,0200093
3008,4084;0,0200074
3009,3726;0,0199893
3010,3369;0,0199652
3011,3010;0,019951
3012,2654;0,0199609
3013,2295;0,0200002
3014,1938;0,0200636
3015,1580;0,0201394
3016,1223;0,0202153
3017,0864;0,0202836
3018,0508;0,020342
3019,0149;0,020392
3019,9792;0,0204355
3020,9434;0,0204742
3021,9077;0,02051
3022,8718;0,0205463
3023,8362;0,0205876
3024,8003;0,020636
3025,7646;0,0206885
3026,7288;0,0207369
3027,6931;0,0207716
3028,6572;0,020789
3029,6216;0,0207951
3030,5857;0,0208038
3031,5500;0,0208307
3032,5142;0,020885
3033,4785;0,0209671
3034,4426;0,0210701
3035,4070;0,0211857
3036,3711;0,0213063
3037,3354;0,0214256
3038,2996;0,0215375
3039,2639;0,0216364
3040,2280;0,0217209
3041,1924;0,0217948
3042,1565;0,0218663
3043,1208;0,021942
3044,0850;0,0220228
3045,0493;0,0221039
3046,0134;0,02218
3046,9778;0,0222517
3047,9419;0,0223261
3048,9063;0,0224118
3049,8704;0,0225108
3050,8347;0,0226145
3051,7988;0,022708
3052,7632;0,0227795
3053,7273;0,0228293
3054,6917;0,0228716
3055,6558;0,0229274
3056,6201;0,0230138
3057,5842;0,0231341
3058,5486;0,0232764
3059,5127;0,0234192
3060,4771;0,0235406
3061,4412;0,023627
3062,4055;0,0236785
3063,3696;0,0237079
3064,3340;0,0237372
3065,2981;0,0237883
3066,2625;0,0238748
3067,2266;0,0239972
3068,1909;0,0241447
3069,1550;0,0243017
3070,1194;0,0244556
3071,0835;0,0245999
3072,0479;0,0247326
3073,0120;0,0248514
3073,9763;0,0249511
3074,9404;0,0250252
3075,9048;0,0250715
3076,8689;0,0250958
3077,8333;0,0251133
3078,7974;0,0251423
3079,7617;0,0251972
3080,7258;0,025283
3081,6902;0,0253942
3082,6543;0,0255196
3083,6187;0,0256479
3084,5828;0,0257717
3085,5471;0,0258888
3086,5112;0,0260009
3087,4756;0,0261098
3088,4397;0,0262147
3089,4041;0,026311
3090,3682;0,0263924
3091,3325;0,0264549
3092,2966;0,0265008
3093,2610;0,0265397
3094,2251;0,0265839
3095,1895;0,0266414
3096,1536;0,0267117
3097,1179;0,0267867
3098,0820;0,0268591
3099,0464;0,0269295
3100,0105;0,0270092
3100,9749;0,0271138
3101,9390;0,0272524
3102,9033;0,0274198
3103,8674;0,0275973
3104,8318;0,0277618
3105,7959;0,0278979
3106,7603;0,0280045
3107,7244;0,0280931
3108,6887;0,0281793
3109,6528;0,0282724
3110,6172;0,0283708
3111,5813;0,028465
3112,5457;0,0285452
3113,5098;0,0286093
3114,4741;0,0286649
3115,4382;0,0287251
3116,4026;0,0288012
3117,3667;0,0288966
3118,3311;0,0290072
3119,2952;0,0291245
3120,2595;0,0292418
3121,2236;0,0293566
3122,1880;0,0294715
3123,1521;0,0295919
3124,1165;0,0297244
3125,0806;0,0298732
3126,0449;0,0300377
3127,0090;0,0302092
3127,9734;0,0303726
3128,9375;0,0305117
3129,9019;0,0306182
3130,8660;0,0306984
3131,8303;0,0307721
3132,7944;0,0308634
3133,7588;0,0309876
3134,7229;0,0311438
3135,6873;0,0313171
3136,6514;0,0314881
3137,6157;0,0316442
3138,5798;0,0317829
3139,5442;0,0319096
3140,5083;0,0320311
3141,4727;0,032152
3142,4368;0,0322744
3143,4011;0,0324001
3144,3652;0,0325308
3145,3296;0,0326671
3146,2937;0,0328061
3147,2581;0,0329427
3148,2222;0,0330727
3149,1865;0,0331968
3150,1506;0,0333211
3151,1150;0,0334531
3152,0791;0,0335967
3153,0435;0,033749
3154,0076;0,0339021
3154,9719;0,0340484
3155,9360;0,0341847
3156,9004;0,0343145
3157,8645;0,0344445
3158,8289;0,0345806
3159,7930;0,0347244
3160,7573;0,0348726
3161,7214;0,0350196
3162,6858;0,0351607
3163,6499;0,0352941
3164,6143;0,0354204
3165,5784;0,0355415
3166,5427;0,0356595
3167,5068;0,0357774
3168,4712;0,0359
3169,4353;0,0362233
3170,3997;0,0363731
3171,3638;0,0365379
3172,3281;0,0367108
3173,2922;0,0368785
3174,2566;0,0370275
3175,2207;0,0371516
3176,1851;0,0372558
3177,1492;0,0373536
3178,1135;0,0374596
3179,0776;0,037581
3180,0420;0,0377152
3181,0061;0,0378541
3181,9705;0,0379917
3182,9346;0,0381285
3183,8989;0,0382693
3184,8630;0,0384177
3185,8274;0,0385716
3186,7915;0,0387233
3187,7559;0,038866
3188,7200;0,038999
3189,6843;0,0391288
3190,6484;0,0392634
3191,6128;0,0394061
3192,5769;0,0395518
3193,5413;0,0396907
3194,5054;0,0398152
3195,4697;0,0399263
3196,4338;0,0400335
3197,3982;0,0401493
3198,3623;0,0402817
3199,3267;0,0404302
3200,2908;0,0405872
3201,2551;0,0407424
3202,2192;0,0408879
3203,1836;0,0410196
3204,1477;0,0411369
3205,1121;0,0412419
3206,0762;0,0413384
3207,0405;0,0414316
3208,0046;0,0415271
3208,9690;0,0416296
3209,9331;0,0417414
3210,8975;0,0418621
3211,8616;0,0419888
3212,8259;0,0421166
3213,7900;0,04224
3214,7544;0,0423538
3215,7185;0,0424552
3216,6829;0,0425463
3217,6470;0,0426365
3218,6113;0,0427394
3219,5754;0,0428683
3220,5398;0,0430276
3221,5039;0,0432097
3222,4683;0,043397
3223,4324;0,0435704
3224,3967;0,043718
3225,3608;0,0438399
3226,3252;0,0439452
3227,2893;0,0440459
3228,2537;0,0441498
3229,2178;0,0442581
3230,1821;0,0443673
3231,1462;0,0444737
3232,1106;0,0445755
3233,0747;0,0446735
3234,0391;0,0447699
3235,0032;0,0448677
3235,9675;0,0449718
3236,9316;0,0450879
3237,8960;0,0452207
3238,8601;0,0453697
3239,8245;0,0455269
3240,7886;0,0456787
3241,7529;0,0458124
3242,7170;0,0459228
3243,6814;0,0460168
3244,6455;0,0461106
3245,6099;0,0462221
3246,5740;0,0463612
3247,5383;0,0465261
3248,5024;0,0467048
3249,4668;0,0468814
3250,4309;0,0470431
3251,3953;0,0471851
3252,3594;0,0473117
3253,3237;0,0474338
3254,2878;0,0475628
3255,2522;0,0477056
3256,2163;0,0478618
3257,1807;0,0480242
3258,1448;0,0481832
3259,1091;0,0483313
3260,0732;0,0484663
3261,0376;0,048592
3262,0017;0,0487159
3262,9661;0,0488464
3263,9302;0,0489895
3264,8945;0,0491468
3265,8586;0,0493141
3266,8230;0,0494814
3267,7871;0,0496335
3268,7515;0,0497554
3269,7156;0,0498376
3270,6799;0,0498813
3271,6440;0,0499
3272,6084;0,0499158
3273,5725;0,0499503
3274,5369;0,0500169
3275,5010;0,0501149
3276,4653;0,050232
3277,4294;0,0503504
3278,3938;0,0504545
3279,3579;0,050536
3280,3223;0,0505948
3281,2864;0,0506361
3282,2507;0,0506676
3283,2148;0,0506957
3284,1792;0,0507238
3285,1433;0,0507519
3286,1077;0,0507777
3287,0718;0,0507983
3288,0361;0,0508125
3289,0002;0,0508217
3289,9646;0,0508295
3290,9287;0,0508394
3291,8931;0,0508521
3292,8572;0,0508657
3293,8215;0,0508764
3294,7856;0,0508831
3295,7500;0,0508896
3296,7141;0,0509027
3297,6785;0,0509282
3298,6426;0,0509658
3299,6069;0,0510085
3300,5710;0,0510451
3301,5354;0,0510656
3302,4995;0,0510659
3303,4639;0,0510479
3304,4280;0,0510176
3305,3923;0,0509811
3306,3564;0,0509437
3307,3208;0,0509094
3308,2849;0,0508828
3309,2493;0,0508686
3310,2134;0,0508703
3311,1777;0,0508893
3312,1418;0,0509234
3313,1062;0,050968
3314,0703;0,0510179
3315,0347;0,0510692
3315,9988;0,0511213
3316,9631;0,0511762
3317,9272;0,0512378
3318,8916;0,0513087
3319,8557;0,0513883
3320,8201;0,051472
3321,7842;0,0515529
3322,7485;0,0516253
3323,7126;0,0516883
3324,6770;0,0517463
3325,6411;0,0518065
3326,6055;0,051875
3327,5696;0,0519535
3328,5339;0,052038
3329,4980;0,05212
3330,4624;0,0521891
3331,4265;0,0522355
3332,3909;0,0522524
3333,3550;0,0522389
3334,3193;0,0522022
3335,2834;0,0521565
3336,2478;0,0521182
3337,2119;0,0520973
3338,1763;0,0520916
3339,1404;0,0520874
3340,1047;0,052067
3341,0688;0,052018
3342,0332;0,0519402
3342,9973;0,0518433
3343,9617;0,0517404
3344,9258;0,0516392
3345,8901;0,0515391
3346,8542;0,0514343
3347,8186;0,0513199
3348,7827;0,051196
3349,7471;0,0510664
3350,7112;0,0509354
3351,6755;0,050804
3352,6396;0,0506713
3353,6040;0,0505379
3354,5681;0,050408
3355,5325;0,0502883
3356,4966;0,0501827
3357,4609;0,0500887
3358,4250;0,0499974
3359,3894;0,0498991
3360,3535;0,0497886
3361,3179;0,0496681
3362,2820;0,0495451
3363,2463;0,0494266
3364,2104;0,0493153
3365,1748;0,0492096
3366,1389;0,0491067
3367,1033;0,049006
3368,0674;0,0489092
3369,0317;0,0488185
3369,9958;0,0487336
3370,9602;0,0486512
3371,9243;0,048567
3372,8887;0,0484776
3373,8528;0,0483825
3374,8171;0,0482828
3375,7813;0,04818
3376,7456;0,0480748
3377,7097;0,0479667
3378,6741;0,0478537
3379,6382;0,0477329
3380,6025;0,047601
3381,5667;0,0474582
3382,5310;0,047311
3383,4951;0,0471732
3384,4595;0,0470617
3385,4236;0,0469867
3386,3879;0,0469435
3387,3521;0,0469122
3388,3164;0,0468661
3389,2805;0,0467852
3390,2449;0,0466668
3391,2090;0,0465262
3392,1733;0,0463883
3393,1375;0,0462722
3394,1018;0,0461833
3395,0659;0,0461131
3396,0303;0,0460486
3396,9944;0,0459792
3397,9587;0,0459007
3398,9229;0,0458129
3399,8872;0,045718
3400,8513;0,0456178
3401,8157;0,045515
3402,7798;0,0454128
3403,7441;0,0453142
3404,7083;0,0452192
3405,6726;0,0451252
3406,6367;0,045027
3407,6011;0,0449198
3408,5652;0,0448008
3409,5295;0,0446697
3410,4937;0,0445292
3411,4580;0,0443843
3412,4221;0,0442409
3413,3865;0,0441032
3414,3506;0,0439701
3415,3149;0,0438321
3416,2791;0,0436728
3417,2434;0,0434781
3418,2075;0,043246
3419,1719;0,0429936
3420,1360;0,0427537
3421,1003;0,0425593
3422,0645;0,0424275
3423,0288;0,0423508
3423,9929;0,0423022
3424,9573;0,0422487
3425,9214;0,0421648
3426,8857;0,0420402
3427,8499;0,0418817
3428,8142;0,0417076
3429,7783;0,0415374
3430,7427;0,041384
3431,7068;0,0412498
3432,6711;0,0411292
3433,6353;0,0410129
3434,5996;0,0408925
3435,5637;0,0407613
3436,5281;0,0406149
3437,4922;0,0404517
3438,4565;0,0402747
3439,4207;0,0400915
3440,3850;0,0399109
3441,3491;0,0397353
3442,3135;0,0395553
3443,2776;0,0393531
3444,2419;0,0391155
3445,2061;0,0388488
3446,1704;0,0385843
3447,1345;0,0383644
3448,0989;0,0382162
3449,0630;0,0381342
3450,0273;0,0380858
3450,9915;0,0380316
3451,9558;0,0379448
3452,9199;0,0378203
3453,8843;0,0376697
3454,8484;0,0375078
3455,8127;0,0373402
3456,7769;0,0371609
3457,7412;0,0369608
3458,7053;0,0367385
3459,6697;0,0365063
3460,6338;0,0362848
3461,5981;0,0360909
3462,5623;0,0359278
3463,5266;0,0357826
3464,4907;0,0356357
3465,4551;0,0354723
3466,4192;0,0352905
3467,3835;0,0351007
3468,3477;0,0349166
3469,3120;0,0347447
3470,2761;0,0345802
3471,2405;0,0344122
3472,2046;0,0342339
3473,1689;0,0340507
3474,1331;0,0338772
3475,0974;0,0337249
3476,0615;0,0335889
3477,0259;0,033447
3477,9900;0,0332713
3478,9543;0,0330479
3479,9185;0,0327909
3480,8828;0,032538
3481,8469;0,0323279
3482,8113;0,0321728
3483,7754;0,0320515
3484,7397;0,031926
3485,7039;0,031768
3486,6682;0,0315758
3487,6323;0,0313744
3488,5967;0,0311966
3489,5608;0,0310593
3490,5251;0,0309509
3491,4893;0,0308379
3492,4536;0,0306866
3493,4177;0,0304839
3494,3821;0,0302487
3495,3462;0,030023
3496,3105;0,0298446
3497,2747;0,0297188
3498,2390;0,0296102
3499,2031;0,0294596
3500,1675;0,0292188
3501,1316;0,0288861
3502,0959;0,0285208
3503,0601;0,0282127
3504,0244;0,028022
3504,9885;0,0279415
3505,9529;0,0279094
3506,9170;0,0278518
3507,8813;0,0277223
3508,8455;0,0275241
3509,8098;0,0273031
3510,7739;0,0271128
3511,7383;0,0269785
3512,7024;0,0268873
3513,6667;0,0268061
3514,6309;0,0267051
3515,5952;0,0265732
3516,5593;0,0264174
3517,5237;0,0262511
3518,4878;0,0260796
3519,4521;0,025896
3520,4163;0,0256863
3521,3806;0,025443
3522,3447;0,0251716
3523,3091;0,0248877
3524,2732;0,024605
3525,2375;0,0243299
3526,2017;0,0240675
3527,1660;0,0238327
3528,1301;0,0236528
3529,0945;0,0235515
3530,0586;0,0235289
3531,0229;0,0235559
3531,9871;0,0235849
3532,9514;0,0235686
3533,9155;0,023479
3534,8799;0,0233206
3535,8440;0,0231276
3536,8083;0,0229445
3537,7725;0,0228002
3538,7368;0,022696
3539,7009;0,02261
3540,6653;0,0225084
3541,6294;0,0223539
3542,5938;0,022118
3543,5579;0,0218025
3544,5222;0,0214527
3545,4863;0,0211373
3546,4507;0,020902
3547,4148;0,0207423
3548,3792;0,0206207
3549,3433;0,0204976
3550,3076;0,0203509
3551,2717;0,0201863
3552,2361;0,0200357
3553,2002;0,0199361
3554,1646;0,0199002
3555,1287;0,0199059
3556,0930;0,0199083
3557,0571;0,0198589
3558,0215;0,0197263
3558,9856;0,0195172
3559,9500;0,0192792
3560,9141;0,019074
3561,8784;0,0189332
3562,8425;0,0188252
3563,8069;0,0186589
3564,7710;0,0183491
3565,7354;0,0179241
3566,6995;0,0175466
3567,6638;0,0173501
3568,6279;0,0173054
3569,5923;0,0173099
3570,5564;0,0173076
3571,5208;0,0172871
3572,4849;0,0172396
3573,4492;0,0171539
3574,4133;0,0170356
3575,3777;0,0169109
3576,3418;0,0168065
3577,3062;0,0167284
3578,2703;0,016665
3579,2346;0,0166088
3580,1987;0,0165752
3581,1631;0,0165994
3582,1272;0,0167067
3583,0916;0,0168736
3584,0557;0,0170098
3585,0200;0,0169979
3585,9841;0,0168001
3586,9485;0,0165312
3587,9126;0,0163555
3588,8770;0,0163251
3589,8411;0,0163867
3590,8054;0,0164732
3591,7695;0,0165211
3592,7339;0,0164638
3593,6980;0,0162653
3594,6624;0,0159579
3595,6265;0,0156202
3596,5908;0,0153142
3597,5549;0,0150545
3598,5193;0,0148289
3599,4834;0,0146362
3600,4478;0,0145012
3601,4119;0,0144552
3602,3762;0,0145048
3603,3403;0,0146141
3604,3047;0,0147044
3605,2688;0,0146699
3606,2332;0,0144233
3607,1973;0,0139525
3608,1616;0,0133251
3609,1257;0,0126283
3610,0901;0,0119214
3611,0542;0,0112541
3612,0186;0,0107041
3612,9827;0,0103701
3613,9470;0,0103149
3614,9111;0,010512
3615,8755;0,0108429
3616,8396;0,0111544
3617,8040;0,0113488
3618,7681;0,011446
3619,7324;0,0115427
3620,6965;0,0117108
3621,6609;0,0119784
3622,6250;0,0123823
3623,5894;0,0129587
3624,5535;0,0136588
3625,5178;0,0142754
3626,4819;0,0144823
3627,4463;0,0140654
3628,4104;0,0131882
3629,3748;0,012248
3630,3389;0,0114629
3631,3032;0,0108395
3632,2673;0,0103543
3633,2317;0,00998676
3634,1958;0,00969195
3635,1602;0,00941428
3636,1243;0,00911964
3637,0886;0,00880555
3638,0527;0,00848473
3639,0171;0,00816758
3639,9812;0,0078644
3640,9456;0,00760317
3641,9097;0,00743818
3642,8740;0,00742771
3643,8381;0,00757737
3644,8025;0,00776731
3645,7666;0,00771232
3646,7310;0,00707365
3647,6951;0,00584879
3648,6594;0,00468011
3649,6235;0,00422363
3650,5879;0,00436325
3651,5520;0,00467119
3652,5164;0,00496659
3653,4805;0,00522737
3654,4448;0,00540939
3655,4089;0,00544562
3656,3733;0,00533172
3657,3374;0,005148
3658,3018;0,00499309
3659,2659;0,00492156
3660,2302;0,00492964
3661,1943;0,00497604
3662,1587;0,00502784
3663,1228;0,0051011
3664,0872;0,005252
3665,0513;0,00550386
3666,0156;0,00577261
3666,9797;0,00586126
3667,9441;0,00559715
3668,9082;0,00505332
3669,8726;0,00456532
3670,8367;0,00442061
3671,8010;0,00461815
3672,7651;0,00492398
3673,7295;0,00504002
3674,6936;0,00481355
3675,6580;0,00438403
3676,6221;0,00401751
3677,5864;0,00383636
3678,5505;0,00383637
3679,5149;0,0039959
3680,4790;0,0042833
3681,4434;0,00465348
3682,4075;0,00507863
3683,3718;0,00556397
3684,3359;0,00610807
3685,3003;0,0066294
3686,2644;0,00693339
3687,2288;0,00681384
3688,1929;0,00629694
3689,1572;0,00575079
3690,1213;0,00554959
3691,0857;0,00572011
3692,0498;0,00607959
3693,0142;0,00649101
3693,9783;0,00690784
3694,9426;0,00732498
3695,9067;0,0077442
3696,8711;0,00815523
3697,8352;0,00851993
3698,7996;0,00877119
3699,7637;0,00884375
3700,7280;0,00872834
3701,6921;0,00849758
3702,6565;0,00826458
3703,6206;0,00811913
3704,5850;0,00810365
3705,5491;0,00820903
3706,5134;0,00835254
3707,4775;0,00835736
3708,4419;0,00799828
3709,4060;0,00716742
3710,3704;0,00606519
3711,3345;0,0051075
3712,2988;0,00454609
3713,2629;0,00434955
3714,2273;0,00442065
3715,1914;0,00472064
3716,1558;0,00522627
3717,1199;0,00587479
3718,0842;0,00656585
3719,0483;0,00720471
3720,0127;0,00774371
3720,9768;0,00818801
3721,9412;0,00856613
3722,9053;0,00889687
3723,8696;0,0091793
3724,8337;0,00940291
3725,7981;0,00956307
3726,7622;0,00967351
3727,7266;0,00976619
3728,6907;0,00986741
3729,6550;0,00995987
3730,6191;0,00996043
3731,5835;0,00974026
3732,5476;0,00919946
3733,5120;0,00836952
3734,4761;0,00742981
3735,4404;0,00655014
3736,4045;0,00576526
3737,3689;0,00510476
3738,3330;0,00472545
3739,2974;0,00482413
3740,2615;0,00545678
3741,2258;0,00641338
3742,1899;0,00721863
3743,1543;0,0073537
3744,1184;0,00666005
3745,0828;0,00549604
3746,0469;0,00437985
3747,0112;0,0035959
3747,9753;0,00311769
3748,9397;0,00274363
3749,9038;0,0023455
3750,8682;0,0020113
3751,8323;0,00183682
3752,7966;0,00176054
3753,7607;0,0017303
3754,7251;0,00177366
3755,6892;0,00189338
3756,6536;0,00202602
3757,6177;0,00211085
3758,5820;0,00215892
3759,5461;0,00222632
3760,5105;0,00234468
3761,4746;0,00250796
3762,4390;0,00269473
3763,4031;0,00287654
3764,3674;0,00302066
3765,3315;0,00309966
3766,2959;0,00309967
3767,2600;0,00302214
3768,2244;0,00288705
3769,1885;0,00273816
3770,1528;0,0026318
3771,1169;0,0026104
3772,0813;0,00268698
3773,0454;0,00285276
3774,0098;0,00307975
3774,9739;0,00330845
3775,9382;0,00344878
3776,9023;0,0034253
3777,8667;0,00324409
3778,8308;0,00299895
3779,7952;0,00278825
3780,7593;0,00264063
3781,7236;0,00253069
3782,6877;0,00243446
3783,6521;0,00235934
3784,6162;0,00233791
3785,5806;0,00239783
3786,5447;0,00253533
3787,5090;0,00271717
3788,4731;0,00290953
3789,4375;0,00310033
3790,4016;0,00329045
3791,3660;0,00346427
3792,3301;0,00357191
3793,2944;0,00355056
3794,2585;0,00338014
3795,2229;0,00312459
3796,1870;0,00290096
3797,1514;0,00278388
3798,1155;0,00273065
3799,0798;0,0026105
3800,0439;0,00233977
3801,0083;0,00200115
3801,9724;0,00178335
3802,9368;0,00180452
3803,9009;0,00204101
3804,8652;0,00237451
3805,8293;0,00265694
3806,7937;0,00278574
3807,7578;0,00276616
3808,7222;0,00270574
3809,6863;0,00275262
3810,6506;0,00301456
3811,6147;0,00347584
3812,5791;0,00396039
3813,5432;0,00420415
3814,5076;0,00403953
3815,4717;0,00354399
3816,4360;0,00296052
3817,4001;0,00247416
3818,3645;0,00211383
3819,3286;0,00183462
3820,2930;0,00162998
3821,2571;0,0015312
3822,2214;0,00152491
3823,1855;0,00156155
3824,1499;0,00163142
3825,1140;0,00176631
3826,0784;0,0019869
3827,0425;0,00227337
3828,0068;0,00257304
3828,9709;0,00282535
3829,9353;0,00298921
3830,8994;0,00306212
3831,8638;0,00307894
3832,8279;0,00308332
3833,7922;0,00308281
3834,7563;0,0030204
3835,7207;0,00280159
3836,6848;0,00238452
3837,6492;0,00186491
3838,6133;0,00143799
3839,5776;0,00124917
3840,5417;0,00130733
3841,5061;0,00153094
3842,4702;0,00181899
3843,4346;0,00208484
3844,3987;0,00227904
3845,3630;0,00241872
3846,3271;0,00260058
3847,2915;0,00296799
3848,2556;0,00362969
3849,2200;0,00455401
3850,1841;0,00548079
3851,1484;0,00595683
3852,1125;0,00566231
3853,0769;0,00482525
3854,0410;0,00393305
3855,0054;0,0031535
3855,9695;0,00252626
3856,9338;0,00218294
3857,8979;0,00221233
3858,8623;0,00254377
3859,8264;0,00296204
3860,7908;0,0032143
3861,7549;0,00316691
3862,7192;0,00291329
3863,6833;0,00269957
3864,6477;0,00271112
3865,6118;0,00294779
3866,5762;0,00326766
3867,5403;0,0034862
3868,5046;0,00346434
3869,4688;0,00318209
3870,4331;0,00275903
3871,3972;0,00238007
3872,3616;0,00218488
3873,3257;0,00222243
3874,2900;0,0024747
3875,2542;0,00288411
3876,2185;0,00335557
3877,1826;0,00375914
3878,1470;0,00396523
3879,1111;0,00391835
3880,0754;0,00369246
3881,0396;0,00344994
3882,0039;0,00332286
3882,9680;0,00333433
3883,9324;0,00342123
3884,8965;0,00350903
3885,8608;0,00356462
3886,8250;0,00359597
3887,7893;0,00361497
3888,7534;0,00359894
3889,7178;0,00349273
3890,6819;0,00327346
3891,6462;0,00301591
3892,6104;0,00285567
3893,5747;0,00288932
3894,5388;0,00313592
3895,5032;0,0035467
3896,4673;0,0040091
3897,4316;0,00437354
3898,3958;0,00452554
3899,3601;0,00444775
3900,3242;0,00420236
3901,2886;0,00385935
3902,2527;0,00347207
3903,2170;0,00310593
3904,1812;0,00283743
3905,1455;0,00271249
3906,1096;0,00272905
3907,0740;0,00285612
3908,0381;0,00305075
3909,0024;0,0032657
3909,9666;0,00346307
3910,9309;0,00363025
3911,8950;0,00377877
3912,8594;0,00392037
3913,8235;0,00403986
3914,7878;0,00409343
3915,7520;0,00404204
3916,7163;0,00389372
3917,6804;0,00370697
3918,6448;0,00354639
3919,6089;0,00343993
3920,5732;0,00337653
3921,5374;0,00332515
3922,5017;0,00325942
3923,4658;0,00318057
3924,4302;0,00312069
3925,3943;0,0031164
3926,3586;0,00317916
3927,3228;0,00328765
3928,2871;0,00339739
3929,2512;0,00345928
3930,2156;0,00344773
3931,1797;0,00338074
3932,1440;0,00330543
3933,1082;0,00326146
3934,0725;0,00326492
3935,0366;0,00331856
3936,0010;0,00341976
3936,9651;0,00355564
3937,9294;0,00369695
3938,8936;0,00380241
3939,8579;0,0038366
3940,8220;0,0037934
3941,7864;0,00370606
3942,7505;0,00362826
3943,7148;0,00359613
3944,6790;0,00360627
3945,6433;0,00362157
3946,6074;0,00359646
3947,5718;0,00350749
3948,5359;0,00337352
3949,5002;0,00324742
3950,4644;0,00318127
3951,4287;0,00319577
3952,3928;0,00327722
3953,3572;0,00339401
3954,3213;0,00351502
3955,2856;0,0036207
3956,2498;0,00370422
3957,2141;0,00376451
3958,1782;0,00379915
3959,1426;0,0038039
3960,1067;0,00377915
3961,0710;0,00373574
3962,0352;0,00369302
3962,9995;0,0036692
3963,9636;0,00367211
3964,9280;0,00369571
3965,8921;0,00372594
3966,8564;0,00374848
3967,8206;0,00375528
3968,7849;0,00374667
3969,7490;0,00372863
3970,7134;0,0037083
3971,6775;0,003691
3972,6418;0,00367978
3973,6060;0,00367644
3974,5703;0,00368177
3975,5344;0,00369486
3976,4988;0,00371249
3977,4629;0,00372983
3978,4272;0,00374216
3979,3914;0,00374701
3980,3557;0,00374553
3981,3198;0,00374266
3982,2842;0,00374528
3983,2483;0,00375893
3984,2126;0,00378499
3985,1768;0,00381968
3986,1411;0,00385535
3987,1052;0,00388313
3988,0696;0,0038963
3989,0337;0,0038916
3989,9980;0,00387068
3990,9622;0,00383878
3991,9265;0,0038032
3992,8906;0,00377196
3993,8550;0,00375259
3994,8191;0,00375049
3995,7834;0,00376689
3996,7476;0,0037978
3997,7119;0,00383508
3998,6760;0,00386968
3999,6404;0,00389518
4000,6045;0,00336751

##### Extended Information
[Comments]
Sample name
Comment
Username
Division
Organization;UNIVERSIDAD INDUSTRIAL DE SANTANDER

[Detailed Information]
Creation date;4/02/2025 9:20 a.m.

Data array type;Linear data array
Horizontal axis;Wavenumber [cm-1]
Vertical axis;Abs
Start;399,193 cm-1
End;4000,6 cm-1
Data interval;0,964233 cm-1
Data points;3736    

[Measurement Information]
Model name;FT/IR-4X1typeA
Serial No.;A035162111

Accessory;ATR PRO 4X
Accessory S/N;A021162126
Incident angle;45 deg

Measurement date;4/02/2025 9:20 a.m.

Light source;Standard
Detector;TGS
Accumulation;Auto (76)
Resolution;4 cm-1
Zero filling;On
Apodization;Cosine
Gain;Auto (8)
Aperture;Auto (7 mm)
Scan speed;Auto (2 mm/sec)
Filter;Auto (12800 Hz)

