TITLE;
DATA TYPE;INFRARED SPECTRUM
ORIGIN;JASCO
OWNER;
DATE;25/02/04
TIME;14:03:13
SPECTROMETER/DATA SYSTEM;
LOCALE;9226
RESOLUTION;
DELTAX;0,964233
XUNITS;1/CM
YUNITS;ABSORBANCE
FIRSTX;  399,1927
LASTX; 4000,6047
NPOINTS;    3736
FIRSTY;     0,11762
MAXY;     0,14449
MINY;     0,00626
XYDATA
399,1927;0,117619
400,1569;0,116381
401,1211;0,115806
402,0854;0,115937
403,0496;0,116638
404,0138;0,117673
404,9781;0,118723
405,9423;0,119447
406,9065;0,119614
407,8708;0,119228
408,8350;0,118528
409,7992;0,117861
410,7635;0,117511
411,7277;0,117563
412,6919;0,117896
413,6562;0,118302
414,6204;0,118644
415,5846;0,118931
416,5489;0,119313
417,5131;0,119997
418,4773;0,121033
419,4416;0,122134
420,4058;0,122869
421,3700;0,123068
422,3343;0,122871
423,2985;0,12252
424,2627;0,12223
425,2270;0,122134
426,1912;0,12227
427,1554;0,122591
428,1197;0,123011
429,0839;0,123455
430,0481;0,123878
431,0124;0,124272
431,9766;0,124647
432,9408;0,125021
433,9051;0,125385
434,8693;0,125694
435,8335;0,125865
436,7978;0,125826
437,7620;0,12556
438,7262;0,125138
439,6905;0,124692
440,6547;0,124359
441,6189;0,124221
442,5832;0,124257
443,5474;0,124347
444,5116;0,124338
445,4759;0,124133
446,4401;0,123735
447,4043;0,12323
448,3686;0,122736
449,3328;0,122367
450,2970;0,122197
451,2613;0,122232
452,2255;0,12241
453,1897;0,122618
454,1540;0,122748
455,1182;0,122749
456,0824;0,122645
457,0467;0,122513
458,0109;0,122407
458,9751;0,122296
459,9394;0,122093
460,9036;0,121751
461,8678;0,121332
462,8321;0,120992
463,7963;0,120905
464,7605;0,121162
465,7248;0,121697
466,6890;0,122298
467,6532;0,122716
468,6175;0,122784
469,5817;0,122483
470,5459;0,121928
471,5102;0,121325
472,4744;0,120895
473,4386;0,120784
474,4029;0,121014
475,3671;0,121494
476,3313;0,122071
477,2956;0,122582
478,2598;0,122884
479,2240;0,122904
480,1883;0,122662
481,1525;0,122276
482,1167;0,121919
483,0810;0,121756
484,0452;0,121871
485,0094;0,122237
485,9737;0,12273
486,9379;0,123203
487,9021;0,123543
488,8664;0,123704
489,8306;0,123699
490,7948;0,123584
491,7591;0,123435
492,7233;0,12332
493,6875;0,123281
494,6518;0,123322
495,6160;0,123418
496,5802;0,123521
497,5445;0,123583
498,5087;0,123563
499,4729;0,123443
500,4372;0,123244
501,4014;0,123031
502,3656;0,122892
503,3299;0,122906
504,2941;0,1231
505,2583;0,123442
506,2226;0,123864
507,1868;0,124281
508,1510;0,124623
509,1153;0,124849
510,0795;0,124955
511,0437;0,124974
512,0080;0,124959
512,9722;0,124969
513,9365;0,125053
514,9007;0,125234
515,8649;0,125496
516,8292;0,125783
517,7934;0,126018
518,7576;0,126137
519,7219;0,126131
520,6861;0,126041
521,6503;0,125937
522,6146;0,125876
523,5788;0,125884
524,5430;0,125946
525,5073;0,126005
526,4715;0,125994
527,4357;0,125869
528,4000;0,125641
529,3642;0,125357
530,3284;0,125081
531,2927;0,124856
532,2569;0,124694
533,2211;0,124578
534,1854;0,124481
535,1496;0,124385
536,1138;0,124291
537,0781;0,124212
538,0423;0,124155
539,0065;0,12411
539,9708;0,124058
540,9350;0,123988
541,8992;0,123909
542,8635;0,12385
543,8277;0,123846
544,7919;0,123916
545,7562;0,124055
546,7204;0,124233
547,6846;0,124412
548,6489;0,12456
549,6131;0,124662
550,5773;0,124728
551,5416;0,124786
552,5058;0,124868
553,4700;0,124993
554,4343;0,125151
555,3985;0,125302
556,3627;0,125382
557,3270;0,12533
558,2912;0,125107
559,2554;0,124704
560,2197;0,124135
561,1839;0,123429
562,1481;0,122623
563,1124;0,121765
564,0766;0,12091
565,0408;0,120109
566,0051;0,119396
566,9693;0,118781
567,9335;0,11825
568,8978;0,117783
569,8620;0,117371
570,8262;0,117018
571,7905;0,116739
572,7547;0,116544
573,7189;0,116428
574,6832;0,116366
575,6474;0,116322
576,6116;0,116263
577,5759;0,116172
578,5401;0,116053
579,5043;0,115919
580,4686;0,115788
581,4328;0,115671
582,3970;0,115573
583,3613;0,115499
584,3255;0,115457
585,2897;0,115452
586,2540;0,115483
587,2182;0,11553
588,1824;0,115562
589,1467;0,115545
590,1109;0,115454
591,0751;0,115292
592,0394;0,115083
593,0036;0,114866
593,9678;0,114672
594,9321;0,114512
595,8963;0,114374
596,8605;0,114235
597,8248;0,114067
598,7890;0,113848
599,7532;0,113572
600,7175;0,113254
601,6817;0,11292
602,6459;0,1126
603,6102;0,112312
604,5744;0,112058
605,5386;0,111822
606,5029;0,111577
607,4671;0,111293
608,4313;0,110944
609,3956;0,110519
610,3598;0,110029
611,3240;0,109513
612,2883;0,109035
613,2525;0,108653
614,2167;0,108392
615,1810;0,108213
616,1452;0,108013
617,1094;0,107667
618,0737;0,107094
619,0379;0,106307
620,0021;0,105402
620,9664;0,104502
621,9306;0,103695
622,8948;0,103015
623,8591;0,102443
624,8233;0,101916
625,7875;0,101451
626,7518;0,101036
627,7160;0,100671
628,6802;0,100351
629,6445;0,100062
630,6087;0,099782
631,5729;0,0994923
632,5372;0,0991854
633,5014;0,0988644
634,4656;0,0985382
635,4299;0,0982155
636,3941;0,0979026
637,3583;0,097604
638,3226;0,0973236
639,2868;0,0970628
640,2510;0,0968181
641,2153;0,0965811
642,1795;0,0963432
643,1437;0,0961035
644,1080;0,0958725
645,0722;0,0956683
646,0364;0,095506
647,0007;0,0953867
647,9649;0,0952938
648,9291;0,0952
649,8934;0,095085
650,8576;0,0949522
651,8218;0,0948331
652,7861;0,0947758
653,7503;0,0948219
654,7145;0,0949809
655,6788;0,0952166
656,6430;0,0954604
657,6072;0,0956443
658,5715;0,095733
659,5357;0,0957289
660,4999;0,095648
661,4642;0,0954818
662,4284;0,095172
663,3926;0,0946249
664,3569;0,0937745
665,3211;0,0926797
666,2853;0,0915894
667,2496;0,0908484
668,2138;0,0905688
669,1780;0,0905204
670,1423;0,0905204
671,1065;0,0904718
672,0707;0,0902137
673,0350;0,0896265
673,9992;0,0887293
674,9634;0,0876542
675,9277;0,0865628
676,8919;0,0855658
677,8561;0,0846939
678,8204;0,0839266
679,7846;0,0832405
680,7488;0,0826249
681,7131;0,0820732
682,6773;0,0815646
683,6415;0,0810723
684,6058;0,0805811
685,5700;0,0801004
686,5342;0,079657
687,4985;0,0792758
688,4627;0,0789678
689,4269;0,0787153
690,3912;0,078491
691,3554;0,0782698
692,3196;0,0780357
693,2839;0,0777828
694,2481;0,0775141
695,2123;0,0772393
696,1766;0,07697
697,1408;0,076713
698,1050;0,0764651
699,0693;0,076214
700,0335;0,0759452
700,9977;0,0756509
701,9620;0,0753342
702,9262;0,0750064
703,8904;0,0746707
704,8547;0,0743349
705,8189;0,0739966
706,7831;0,0736484
707,7474;0,0732824
708,7116;0,0728948
709,6758;0,0724859
710,6401;0,0720566
711,6043;0,0716066
712,5685;0,0711366
713,5328;0,0706548
714,4970;0,0701795
715,4612;0,0692384
716,4255;0,068939
717,3897;0,0687076
718,3539;0,0684715
719,3182;0,0681303
720,2824;0,0676081
721,2466;0,0669018
722,2109;0,066086
723,1751;0,0652684
724,1393;0,0645352
725,1036;0,0639209
726,0678;0,0634122
727,0320;0,0629703
727,9963;0,0625552
728,9605;0,0621401
729,9247;0,061714
730,8890;0,0612795
731,8532;0,0608493
732,8174;0,0604428
733,7817;0,0600794
734,7459;0,0597683
735,7101;0,0595013
736,6744;0,0592545
737,6386;0,0589994
738,6028;0,0587186
739,5671;0,0584141
740,5313;0,0581037
741,4955;0,0578087
742,4598;0,05754
743,4240;0,0572924
744,3882;0,0570491
745,3525;0,0567917
746,3167;0,0565101
747,2809;0,0562059
748,2452;0,0558893
749,2094;0,0555731
750,1736;0,0552672
751,1379;0,0549759
752,1021;0,0546979
753,0663;0,0544276
754,0306;0,0541574
754,9948;0,0538789
755,9590;0,0535863
756,9233;0,0532788
757,8875;0,0529629
758,8517;0,0526519
759,8160;0,0523609
760,7802;0,052101
761,7444;0,0518743
762,7087;0,0516728
763,6729;0,0514832
764,6371;0,0512939
765,6014;0,0511005
766,5656;0,0509065
767,5298;0,0507187
768,4941;0,0505415
769,4583;0,0503727
770,4225;0,0502046
771,3868;0,0500292
772,3510;0,0498425
773,3152;0,049647
774,2795;0,0494489
775,2437;0,0492536
776,2079;0,049063
777,1722;0,0488756
778,1364;0,0486895
779,1006;0,048505
780,0649;0,0483247
781,0291;0,0481495
781,9933;0,0479752
782,9576;0,0477924
783,9218;0,0475902
784,8860;0,047364
785,8503;0,04712
786,8145;0,0468753
787,7787;0,0466507
788,7430;0,0464614
789,7072;0,04631
790,6714;0,0461865
791,6357;0,0460736
792,5999;0,0459559
793,5641;0,0458259
794,5284;0,0456855
795,4926;0,0455427
796,4568;0,0454069
797,4211;0,0452846
798,3853;0,0451784
799,3495;0,0450864
800,3138;0,0450045
801,2780;0,0449269
802,2422;0,0448483
803,2065;0,0447654
804,1707;0,0446786
805,1349;0,0445926
806,0992;0,0445145
807,0634;0,0444511
808,0276;0,0444045
808,9919;0,0443707
809,9561;0,0443399
810,9203;0,0443011
811,8846;0,0442472
812,8488;0,0441793
813,8130;0,0441066
814,7773;0,0440425
815,7415;0,0439976
816,7057;0,0439746
817,6700;0,0439667
818,6342;0,0439613
819,5984;0,0439474
820,5627;0,0439212
821,5269;0,043888
822,4911;0,0438591
823,4554;0,0438447
824,4196;0,0438488
825,3839;0,0438674
826,3481;0,0438911
827,3123;0,0439097
828,2766;0,0439166
829,2408;0,0439091
830,2050;0,043887
831,1693;0,0438504
832,1335;0,0437979
833,0977;0,0437275
834,0620;0,0436377
835,0262;0,0435295
835,9904;0,0434073
836,9547;0,0432777
837,9189;0,0431486
838,8831;0,0430258
839,8474;0,0429112
840,8116;0,0428027
841,7758;0,0426966
842,7401;0,0425924
843,7043;0,0424955
844,6685;0,042417
845,6328;0,042368
846,5970;0,042353
847,5612;0,0423663
848,5255;0,0423937
849,4897;0,0424197
850,4539;0,0424334
851,4182;0,0424311
852,3824;0,0424135
853,3466;0,0423816
854,3109;0,0423349
855,2751;0,0422735
856,2393;0,0422016
857,2036;0,0421295
858,1678;0,0420706
859,1320;0,0420356
860,0963;0,042028
861,0605;0,0420425
862,0247;0,0420687
862,9890;0,0420956
863,9532;0,0421174
864,9174;0,0421355
865,8817;0,0421578
866,8459;0,0421959
867,8101;0,0422602
868,7744;0,0423556
869,7386;0,0424797
870,7028;0,0426231
871,6671;0,0427734
872,6313;0,0429194
873,5955;0,0430543
874,5598;0,0431768
875,5240;0,0432903
876,4882;0,0434012
877,4525;0,0435174
878,4167;0,0436474
879,3809;0,0437999
880,3452;0,0439833
881,3094;0,0442049
882,2736;0,0444707
883,2379;0,0447846
884,2021;0,0451484
885,1663;0,0455617
886,1306;0,0460223
887,0948;0,0465261
888,0590;0,0470676
889,0233;0,0476387
889,9875;0,0482284
890,9517;0,0488208
891,9160;0,049396
892,8802;0,049931
893,8444;0,0504026
894,8087;0,0507906
895,7729;0,0510806
896,7371;0,0512657
897,7014;0,0513461
898,6656;0,0513271
899,6298;0,0512166
900,5941;0,0510237
901,5583;0,0507589
902,5225;0,0504365
903,4868;0,0500766
904,4510;0,0497054
905,4152;0,0493521
906,3795;0,049044
907,3437;0,0488016
908,3079;0,0486354
909,2722;0,0485452
910,2364;0,0485229
911,2007;0,0485546
912,1649;0,0486253
913,1292;0,0487218
914,0934;0,0488369
915,0576;0,0489711
916,0219;0,0491313
916,9861;0,0493269
917,9503;0,0495636
918,9146;0,0498386
919,8788;0,0501395
920,8430;0,050447
921,8073;0,0507411
922,7715;0,0510075
923,7357;0,0512404
924,7000;0,0514428
925,6642;0,0516224
926,6284;0,0517864
927,5927;0,0519383
928,5569;0,0520773
929,5211;0,0522011
930,4854;0,052311
931,4496;0,0524145
932,4138;0,0525254
933,3781;0,0526595
934,3423;0,0528295
935,3065;0,0530405
936,2708;0,0532908
937,2350;0,0535752
938,1992;0,0538906
939,1635;0,0542398
940,1277;0,05463
941,0919;0,0550684
942,0562;0,0555571
943,0204;0,0560904
943,9846;0,0566584
944,9489;0,0572531
945,9131;0,0578742
946,8773;0,0585293
947,8416;0,0592284
948,8058;0,0599767
949,7700;0,06077
950,7343;0,0615988
951,6985;0,0624558
952,6627;0,0633428
953,6270;0,0642709
954,5912;0,0652532
955,5554;0,0662958
956,5197;0,0673929
957,4839;0,0685309
958,4481;0,0696963
959,4124;0,0708835
960,3766;0,0720943
961,3408;0,073333
962,3051;0,0745988
963,2693;0,0758838
964,2335;0,0771766
965,1978;0,0784699
966,1620;0,0797651
967,1262;0,081073
968,0905;0,082409
969,0547;0,0837896
970,0189;0,08523
970,9832;0,0867458
971,9474;0,0883541
972,9116;0,0900719
973,8759;0,0919123
974,8401;0,0938802
975,8043;0,0959701
976,7686;0,0981671
977,7328;0,100448
978,6970;0,102781
979,6613;0,105122
980,6255;0,10741
981,5897;0,109577
982,5540;0,111552
983,5182;0,113283
984,4824;0,11475
985,4467;0,115967
986,4109;0,116974
987,3751;0,117822
988,3394;0,118555
989,3036;0,1192
990,2678;0,119767
991,2321;0,120261
992,1963;0,120681
993,1605;0,121036
994,1248;0,121339
995,0890;0,121606
996,0532;0,121854
997,0175;0,122094
997,9817;0,122326
998,9459;0,122547
999,9102;0,122751
1000,8744;0,122944
1001,8386;0,123143
1002,8029;0,123382
1003,7671;0,123695
1004,7313;0,124112
1005,6956;0,12465
1006,6598;0,125309
1007,6240;0,126077
1008,5883;0,126939
1009,5525;0,127874
1010,5167;0,128861
1011,4810;0,129877
1012,4452;0,130903
1013,4094;0,131925
1014,3737;0,132936
1015,3379;0,133935
1016,3021;0,134922
1017,2664;0,135895
1018,2306;0,136844
1019,1948;0,137758
1020,1591;0,138628
1021,1233;0,139448
1022,0875;0,140216
1023,0518;0,140929
1024,0160;0,141587
1024,9802;0,142192
1025,9445;0,142746
1026,9087;0,143252
1027,8729;0,143706
1028,8372;0,144091
1029,8014;0,14437
1030,7656;0,144492
1031,7299;0,144401
1032,6941;0,144053
1033,6583;0,143432
1034,6226;0,14256
1035,5868;0,141496
1036,5510;0,140324
1037,5153;0,13914
1038,4795;0,138033
1039,4437;0,137075
1040,4080;0,136307
1041,3722;0,13574
1042,3364;0,135358
1043,3007;0,135125
1044,2649;0,13499
1045,2291;0,1349
1046,1934;0,134811
1047,1576;0,134686
1048,1218;0,134503
1049,0861;0,134246
1050,0503;0,133899
1051,0145;0,133447
1051,9788;0,132875
1052,9430;0,132176
1053,9072;0,131352
1054,8715;0,13041
1055,8357;0,129352
1056,7999;0,128167
1057,7642;0,126824
1058,7284;0,125291
1059,6926;0,123549
1060,6569;0,121616
1061,6211;0,119549
1062,5853;0,117434
1063,5496;0,115362
1064,5138;0,113408
1065,4780;0,111612
1066,4423;0,109982
1067,4065;0,1085
1068,3707;0,107142
1069,3350;0,105877
1070,2992;0,104682
1071,2634;0,103534
1072,2277;0,10241
1073,1919;0,101286
1074,1561;0,100134
1075,1204;0,0989307
1076,0846;0,0976637
1077,0488;0,0963409
1078,0131;0,0949929
1078,9773;0,0936683
1079,9415;0,0924208
1080,9058;0,091293
1081,8700;0,090305
1082,8342;0,0894515
1083,7985;0,0887093
1084,7627;0,0880509
1085,7269;0,087456
1086,6912;0,0869187
1087,6554;0,0864463
1088,6196;0,086053
1089,5839;0,0857517
1090,5481;0,0855482
1091,5123;0,0854386
1092,4766;0,0854103
1093,4408;0,0854464
1094,4050;0,0855296
1095,3693;0,0856473
1096,3335;0,0857923
1097,2977;0,0859617
1098,2620;0,0861521
1099,2262;0,0863545
1100,1904;0,0865516
1101,1547;0,0867191
1102,1189;0,0868319
1103,0831;0,0868723
1104,0474;0,0868359
1105,0116;0,0867333
1105,9758;0,0865835
1106,9401;0,0864039
1107,9043;0,0861976
1108,8685;0,0859468
1109,8328;0,0856149
1110,7970;0,0851587
1111,7612;0,0845471
1112,7255;0,0837773
1113,6897;0,0828805
1114,6539;0,0819146
1115,6182;0,0809451
1116,5824;0,0800246
1117,5466;0,0791798
1118,5109;0,0784089
1119,4751;0,0776882
1120,4393;0,0769822
1121,4036;0,0762517
1122,3678;0,0754593
1123,3320;0,0745726
1124,2963;0,0735692
1125,2605;0,0724404
1126,2247;0,0711942
1127,1890;0,0698528
1128,1532;0,0684465
1129,1174;0,0670063
1130,0817;0,0655585
1131,0459;0,0641238
1132,0101;0,0627199
1132,9744;0,061366
1133,9386;0,0600849
1134,9028;0,058903
1135,8671;0,0578467
1136,8313;0,0569373
1137,7955;0,0561876
1138,7598;0,0555999
1139,7240;0,0551667
1140,6882;0,0548735
1141,6525;0,0547016
1142,6167;0,0546313
1143,5809;0,0546441
1144,5452;0,054725
1145,5094;0,0548632
1146,4736;0,0550528
1147,4379;0,0552912
1148,4021;0,0555767
1149,3663;0,0559055
1150,3306;0,0562689
1151,2948;0,0566527
1152,2590;0,0570383
1153,2233;0,0574047
1154,1875;0,0577311
1155,1517;0,0579962
1156,1160;0,0581759
1157,0802;0,0582404
1158,0444;0,0581515
1159,0087;0,0578645
1159,9729;0,0573347
1160,9371;0,0565266
1161,9014;0,0554247
1162,8656;0,0540397
1163,8298;0,0524095
1164,7941;0,0505938
1165,7583;0,0486656
1166,7225;0,0467011
1167,6868;0,0447716
1168,6510;0,0429359
1169,6152;0,0412361
1170,5795;0,0396962
1171,5437;0,0383238
1172,5079;0,0371149
1173,4722;0,0360588
1174,4364;0,0351429
1175,4006;0,0343534
1176,3649;0,0336761
1177,3291;0,0330969
1178,2933;0,0326028
1179,2576;0,0321846
1180,2218;0,0318369
1181,1860;0,0315564
1182,1503;0,031339
1183,1145;0,0311773
1184,0787;0,0310624
1185,0430;0,0309872
1186,0072;0,0309501
1186,9714;0,0309566
1187,9357;0,0310162
1188,8999;0,0311373
1189,8641;0,0313227
1190,8284;0,0315682
1191,7926;0,0318651
1192,7568;0,032204
1193,7211;0,0325781
1194,6853;0,0329834
1195,6495;0,0334174
1196,6138;0,0338772
1197,5780;0,0343576
1198,5422;0,0348524
1199,5065;0,0353209
1200,4707;0,0358279
1201,4349;0,0363278
1202,3992;0,0368113
1203,3634;0,037268
1204,3276;0,0376894
1205,2919;0,038071
1206,2561;0,038415
1207,2203;0,0387313
1208,1846;0,0390356
1209,1488;0,0393481
1210,1130;0,0396896
1211,0773;0,0400787
1212,0415;0,0405273
1213,0057;0,0410384
1213,9700;0,0416047
1214,9342;0,0422112
1215,8984;0,0428395
1216,8627;0,0434726
1217,8269;0,0440975
1218,7911;0,0447061
1219,7554;0,0452942
1220,7196;0,0458594
1221,6838;0,0464002
1222,6481;0,0469144
1223,6123;0,0473991
1224,5765;0,0478507
1225,5408;0,0482653
1226,5050;0,0486417
1227,4692;0,0489818
1228,4335;0,0492914
1229,3977;0,0495766
1230,3619;0,04984
1231,3262;0,050078
1232,2904;0,0502816
1233,2546;0,0504416
1234,2189;0,0505544
1235,1831;0,0506251
1236,1473;0,0506653
1237,1116;0,0506877
1238,0758;0,0507012
1239,0400;0,0507076
1240,0043;0,0507036
1240,9685;0,0506838
1241,9327;0,0506424
1242,8970;0,0505747
1243,8612;0,050476
1244,8254;0,0503429
1245,7897;0,0501745
1246,7539;0,049974
1247,7181;0,0497491
1248,6824;0,0495092
1249,6466;0,0492622
1250,6108;0,0490132
1251,5751;0,0487648
1252,5393;0,0485194
1253,5035;0,0482804
1254,4678;0,0480513
1255,4320;0,0478325
1256,3962;0,047619
1257,3605;0,0474005
1258,3247;0,0471648
1259,2889;0,0469029
1260,2532;0,0466116
1261,2174;0,0462941
1262,1816;0,0459566
1263,1459;0,0456049
1264,1101;0,0452419
1265,0743;0,0448683
1266,0386;0,0444836
1267,0028;0,0440869
1267,9670;0,0436773
1268,9313;0,0432529
1269,8955;0,0428116
1270,8597;0,0423515
1271,8240;0,0418726
1272,7882;0,041378
1273,7524;0,0408747
1274,7167;0,0403726
1275,6809;0,039883
1276,6451;0,0394158
1277,6094;0,0389757
1278,5736;0,0385602
1279,5378;0,03816
1280,5021;0,0377632
1281,4663;0,0373612
1282,4305;0,0369543
1283,3948;0,036552
1284,3590;0,0361699
1285,3232;0,0358233
1286,2875;0,0355219
1287,2517;0,0352678
1288,2159;0,0350574
1289,1802;0,0348851
1290,1444;0,0347474
1291,1086;0,0346444
1292,0729;0,0345791
1293,0371;0,0345561
1294,0013;0,03458
1294,9656;0,0346545
1295,9298;0,0347819
1296,8940;0,0349616
1297,8583;0,03519
1298,8225;0,0354605
1299,7867;0,0357652
1300,7510;0,0360972
1301,7152;0,0364536
1302,6794;0,0368357
1303,6437;0,037247
1304,6079;0,0376908
1305,5721;0,0381665
1306,5364;0,0386681
1307,5006;0,0391865
1308,4648;0,0397125
1309,4291;0,0402381
1310,3933;0,0407554
1311,3575;0,0412527
1312,3218;0,0417129
1313,2860;0,0421155
1314,2502;0,042442
1315,2145;0,04268
1316,1787;0,042824
1317,1429;0,0428743
1318,1072;0,0428368
1319,0714;0,0427245
1320,0356;0,0425582
1320,9999;0,0423626
1321,9641;0,042161
1322,9283;0,0419702
1323,8926;0,0418
1324,8568;0,0416547
1325,8210;0,0415351
1326,7853;0,0414399
1327,7495;0,0413654
1328,7137;0,0413048
1329,6780;0,0412479
1330,6422;0,0411822
1331,6064;0,0410966
1332,5707;0,0409841
1333,5349;0,0408433
1334,4991;0,040675
1335,4634;0,0404765
1336,4276;0,0402381
1337,3918;0,0399447
1338,3561;0,0395874
1339,3203;0,0391786
1340,2845;0,0387558
1341,2488;0,038363
1342,2130;0,0380277
1343,1772;0,0377554
1344,1415;0,0375387
1345,1057;0,0373694
1346,0699;0,0372444
1347,0342;0,0371661
1347,9984;0,0371394
1348,9626;0,0371684
1349,9269;0,0372538
1350,8911;0,0373909
1351,8553;0,0375705
1352,8196;0,0377821
1353,7838;0,0380171
1354,7480;0,0382719
1355,7123;0,0385471
1356,6765;0,0388438
1357,6407;0,0391609
1358,6050;0,0394939
1359,5692;0,0398347
1360,5334;0,0401702
1361,4977;0,0404816
1362,4619;0,0407522
1363,4261;0,0409797
1364,3904;0,0411769
1365,3546;0,0413587
1366,3188;0,0415312
1367,2831;0,0416917
1368,2473;0,041832
1369,2115;0,041942
1370,1758;0,0420094
1371,1400;0,0420188
1372,1042;0,0419509
1373,0685;0,0417885
1374,0327;0,0415286
1374,9969;0,0411913
1375,9612;0,0408083
1376,9254;0,0403965
1377,8896;0,0399476
1378,8539;0,0394438
1379,8181;0,0388844
1380,7823;0,0382983
1381,7466;0,0377306
1382,7108;0,0372121
1383,6750;0,0367396
1384,6393;0,0362812
1385,6035;0,0358041
1386,5677;0,0353076
1387,5320;0,0348389
1388,4962;0,0344635
1389,4604;0,0342132
1390,4247;0,0340705
1391,3889;0,0339945
1392,3531;0,0339506
1393,3174;0,0339216
1394,2816;0,0339037
1395,2458;0,0338981
1396,2101;0,0339066
1397,1743;0,0339319
1398,1385;0,0339805
1399,1028;0,0340615
1400,0670;0,0341811
1401,0313;0,0343362
1401,9955;0,0345152
1402,9597;0,0347041
1403,9240;0,0348941
1404,8882;0,0350865
1405,8524;0,035292
1406,8167;0,0355224
1407,7809;0,0357834
1408,7451;0,0360737
1409,7094;0,0363915
1410,6736;0,0367384
1411,6378;0,037116
1412,6021;0,0375187
1413,5663;0,0379312
1414,5305;0,0383328
1415,4948;0,0387045
1416,4590;0,0390304
1417,4232;0,0392958
1418,3875;0,0394933
1419,3517;0,0396365
1420,3159;0,0397501
1421,2802;0,039834
1422,2444;0,0398573
1423,2086;0,0397865
1424,1729;0,0396134
1425,1371;0,0393565
1426,1013;0,0390394
1427,0656;0,0386668
1428,0298;0,0382238
1428,9940;0,0377031
1429,9583;0,0371347
1430,9225;0,0365788
1431,8867;0,036079
1432,8510;0,0356244
1433,8152;0,0351583
1434,7794;0,0346195
1435,7437;0,0339995
1436,7079;0,0333858
1437,6721;0,0329183
1438,6364;0,0326712
1439,6006;0,0326092
1440,5648;0,0326545
1441,5291;0,0327519
1442,4933;0,0328841
1443,4575;0,0330559
1444,4218;0,0332709
1445,3860;0,0335196
1446,3502;0,033782
1447,3145;0,0340396
1448,2787;0,0342871
1449,2429;0,0345316
1450,2072;0,0347799
1451,1714;0,0350244
1452,1356;0,035243
1453,0999;0,0354095
1454,0641;0,0354988
1455,0283;0,0354762
1455,9926;0,0352849
1456,9568;0,0349101
1457,9210;0,0345026
1458,8853;0,0342609
1459,8495;0,0342006
1460,8137;0,0342006
1461,7780;0,0341321
1462,7422;0,0339016
1463,7064;0,0334606
1464,6707;0,0328365
1465,6349;0,0321454
1466,5991;0,0315119
1467,5634;0,0309681
1468,5276;0,0304512
1469,4918;0,0298624
1470,4561;0,0291083
1471,4203;0,0281287
1472,3845;0,0269516
1473,3488;0,0257414
1474,3130;0,0247076
1475,2772;0,0239354
1476,2415;0,0233722
1477,2057;0,0229307
1478,1699;0,0225512
1479,1342;0,0222069
1480,0984;0,0218909
1481,0626;0,0216094
1482,0269;0,0213775
1482,9911;0,0212116
1483,9553;0,0211194
1484,9196;0,0210937
1485,8838;0,0211166
1486,8480;0,0211641
1487,8123;0,021211
1488,7765;0,0212437
1489,7407;0,0212863
1490,7050;0,0213904
1491,6692;0,0215829
1492,6334;0,0218492
1493,5977;0,0221638
1494,5619;0,0225162
1495,5261;0,0229108
1496,4904;0,0233507
1497,4546;0,0238273
1498,4188;0,0243303
1499,3831;0,0248523
1500,3473;0,0253727
1501,3115;0,0258531
1502,2758;0,0262562
1503,2400;0,0265642
1504,2042;0,0267829
1505,1685;0,0269147
1506,1327;0,0269006
1507,0969;0,026657
1508,0612;0,026284
1509,0254;0,0259875
1509,9896;0,0258107
1510,9539;0,0256805
1511,9181;0,0255288
1512,8823;0,0253225
1513,8466;0,0250511
1514,8108;0,0247149
1515,7750;0,0243231
1516,7393;0,0238933
1517,7035;0,0234425
1518,6677;0,0229766
1519,6320;0,022495
1520,5962;0,022012
1521,5604;0,0215718
1522,5247;0,021226
1523,4889;0,0209913
1524,4531;0,0208411
1525,4174;0,0207385
1526,3816;0,0206673
1527,3458;0,0206335
1528,3101;0,0206445
1529,2743;0,0206937
1530,2385;0,0207648
1531,2028;0,0208453
1532,1670;0,0209349
1533,1312;0,0210436
1534,0955;0,0211823
1535,0597;0,0213485
1536,0239;0,021523
1536,9882;0,0216884
1537,9524;0,0218466
1538,9166;0,0220057
1539,8809;0,0221262
1540,8451;0,0221297
1541,8093;0,0220503
1542,7736;0,0220159
1543,7378;0,0220713
1544,7020;0,0221863
1545,6663;0,0223316
1546,6305;0,0224951
1547,5947;0,0226677
1548,5590;0,0228338
1549,5232;0,0229776
1550,4874;0,023095
1551,4517;0,0232003
1552,4159;0,0233152
1553,3801;0,0234467
1554,3444;0,0235771
1555,3086;0,0236719
1556,2728;0,0236893
1557,2371;0,0235761
1558,2013;0,0233107
1559,1655;0,0230613
1560,1298;0,0230971
1561,0940;0,0234399
1562,0582;0,0239253
1563,0225;0,0244129
1563,9867;0,0248359
1564,9509;0,0251759
1565,9152;0,0254401
1566,8794;0,0256527
1567,8436;0,0258535
1568,8079;0,0260907
1569,7721;0,0263969
1570,7363;0,0267659
1571,7006;0,0271584
1572,6648;0,0275346
1573,6290;0,0278823
1574,5933;0,0282203
1575,5575;0,0285782
1576,5217;0,0289727
1577,4860;0,0294063
1578,4502;0,0298736
1579,4144;0,0303593
1580,3787;0,0308455
1581,3429;0,0313228
1582,3071;0,0317914
1583,2714;0,0322563
1584,2356;0,0327232
1585,1998;0,0331963
1586,1641;0,0336747
1587,1283;0,0341474
1588,0925;0,0345946
1589,0568;0,0349927
1590,0210;0,0353218
1590,9852;0,0355682
1591,9495;0,0357212
1592,9137;0,0357714
1593,8779;0,0357141
1594,8422;0,0355579
1595,8064;0,0353269
1596,7706;0,0350528
1597,7349;0,034762
1598,6991;0,034468
1599,6633;0,0341739
1600,6276;0,033879
1601,5918;0,0335864
1602,5560;0,0333061
1603,5203;0,0330509
1604,4845;0,0328275
1605,4487;0,0326294
1606,4130;0,0324389
1607,3772;0,0322401
1608,3414;0,032035
1609,3057;0,0318506
1610,2699;0,0317206
1611,2341;0,0316562
1612,1984;0,0316338
1613,1626;0,0316098
1614,1268;0,0315435
1615,0911;0,0314185
1616,0553;0,0312659
1617,0195;0,0311657
1617,9838;0,0311857
1618,9480;0,0313149
1619,9122;0,0314841
1620,8765;0,0316274
1621,8407;0,0317139
1622,8049;0,0317504
1623,7692;0,0317687
1624,7334;0,031802
1625,6976;0,0318634
1626,6619;0,0319463
1627,6261;0,0320435
1628,5903;0,0321567
1629,5546;0,0322873
1630,5188;0,0324233
1631,4830;0,0325398
1632,4473;0,0326127
1633,4115;0,0326286
1634,3757;0,0325803
1635,3400;0,0324697
1636,3042;0,0323436
1637,2684;0,0322853
1638,2327;0,032327
1639,1969;0,0324322
1640,1611;0,0325511
1641,1254;0,0326528
1642,0896;0,0327229
1643,0538;0,0327544
1644,0181;0,0327408
1644,9823;0,032675
1645,9465;0,0325626
1646,9108;0,0324482
1647,8750;0,032387
1648,8392;0,03237
1649,8035;0,0323199
1650,7677;0,0321409
1651,7319;0,0317462
1652,6962;0,0311164
1653,6604;0,0304601
1654,6246;0,0301127
1655,5889;0,0301127
1656,5531;0,0302487
1657,5173;0,030335
1658,4816;0,0302839
1659,4458;0,0300727
1660,4100;0,0297131
1661,3743;0,0292482
1662,3385;0,0287609
1663,3027;0,0283452
1664,2670;0,0280424
1665,2312;0,0278184
1666,1954;0,0275973
1667,1597;0,0273009
1668,1239;0,0268778
1669,0881;0,0263382
1670,0524;0,0257694
1671,0166;0,0252715
1671,9808;0,0248625
1672,9451;0,0244795
1673,9093;0,0240553
1674,8735;0,0235858
1675,8378;0,023142
1676,8020;0,0228123
1677,7662;0,0226206
1678,7305;0,0225096
1679,6947;0,0223867
1680,6589;0,0221638
1681,6232;0,0217681
1682,5874;0,0211562
1683,5516;0,020388
1684,5159;0,019682
1685,4801;0,0192383
1686,4443;0,0190424
1687,4086;0,0189523
1688,3728;0,0188515
1689,3370;0,0186969
1690,3013;0,0184994
1691,2655;0,0182891
1692,2297;0,0180912
1693,1940;0,0179172
1694,1582;0,0177673
1695,1224;0,0176305
1696,0867;0,0174825
1697,0509;0,0172898
1698,0151;0,0170334
1698,9794;0,0167463
1699,9436;0,016519
1700,9078;0,0164415
1701,8721;0,0165313
1702,8363;0,0167291
1703,8005;0,0169504
1704,7648;0,0171335
1705,7290;0,0172624
1706,6932;0,0173652
1707,6575;0,0174911
1708,6217;0,017676
1709,5859;0,0179243
1710,5502;0,0182173
1711,5144;0,0185291
1712,4786;0,0188354
1713,4429;0,0191149
1714,4071;0,0193472
1715,3713;0,0195125
1716,3356;0,019607
1717,2998;0,0196795
1718,2640;0,0198218
1719,2283;0,0200836
1720,1925;0,0204345
1721,1567;0,0208119
1722,1210;0,0211675
1723,0852;0,0214802
1724,0494;0,0217535
1725,0137;0,0220074
1725,9779;0,0222682
1726,9421;0,0225525
1727,9064;0,0228556
1728,8706;0,0231485
1729,8348;0,0233847
1730,7991;0,0235103
1731,7633;0,023478
1732,7275;0,0232817
1733,6918;0,0230031
1734,6560;0,0227849
1735,6202;0,022702
1736,5845;0,0227049
1737,5487;0,02269
1738,5129;0,0225792
1739,4772;0,0223502
1740,4414;0,0220354
1741,4056;0,0216946
1742,3699;0,0213729
1743,3341;0,0210749
1744,2983;0,0207746
1745,2626;0,0204397
1746,2268;0,0200399
1747,1910;0,0195391
1748,1553;0,0188985
1749,1195;0,0181138
1750,0837;0,0172646
1751,0480;0,0164889
1752,0122;0,0158806
1752,9764;0,0154331
1753,9407;0,0150752
1754,9049;0,0147343
1755,8691;0,0143728
1756,8334;0,0139919
1757,7976;0,0136087
1758,7618;0,0132292
1759,7261;0,0128399
1760,6903;0,0124291
1761,6545;0,012014
1762,6188;0,0116401
1763,5830;0,0113483
1764,5472;0,0111435
1765,5115;0,0109959
1766,4757;0,0108672
1767,4399;0,0107311
1768,4042;0,0105782
1769,3684;0,0104071
1770,3326;0,0102134
1771,2969;0,0099934
1772,2611;0,00976497
1773,2253;0,00957482
1774,1896;0,00946402
1775,1538;0,00943167
1776,1180;0,00944066
1777,0823;0,00944801
1778,0465;0,00942708
1779,0107;0,00937323
1779,9750;0,00929796
1780,9392;0,00921736
1781,9034;0,00914215
1782,8677;0,00907693
1783,8319;0,00902708
1784,7961;0,00900269
1785,7604;0,00901246
1786,7246;0,00905298
1787,6888;0,00910575
1788,6531;0,009145
1789,6173;0,00914855
1790,5815;0,00910518
1791,5458;0,00902176
1792,5100;0,0089301
1793,4742;0,00887373
1794,4385;0,00887235
1795,4027;0,00890719
1796,3669;0,00894267
1797,3312;0,00895195
1798,2954;0,00892642
1799,2596;0,00887268
1800,2239;0,00880557
1801,1881;0,00874193
1802,1523;0,00869532
1803,1166;0,00867251
1804,0808;0,00867349
1805,0450;0,00869362
1806,0093;0,00872526
1806,9735;0,00875799
1807,9377;0,00877904
1808,9020;0,00877645
1809,8662;0,00874504
1810,8304;0,00869177
1811,7947;0,00863345
1812,7589;0,00858651
1813,7231;0,00855813
1814,6874;0,00854622
1815,6516;0,00854508
1816,6158;0,00855014
1817,5801;0,00855943
1818,5443;0,00857242
1819,5085;0,00858785
1820,4728;0,00860253
1821,4370;0,00861261
1822,4012;0,0086163
1823,3655;0,00861539
1824,3297;0,00861407
1825,2939;0,0086153
1826,2582;0,00861613
1827,2224;0,00860613
1828,1866;0,00857239
1829,1509;0,00851092
1830,1151;0,00843767
1831,0793;0,00838456
1832,0436;0,00837673
1833,0078;0,0084137
1833,9720;0,00847312
1834,9363;0,0085278
1835,9005;0,00856007
1836,8647;0,00856876
1837,8290;0,00856684
1838,7932;0,00856939
1839,7574;0,00858117
1840,7217;0,0085949
1841,6859;0,00859805
1842,6501;0,00857953
1843,6144;0,00853611
1844,5786;0,00847994
1845,5428;0,00843477
1846,5071;0,00841511
1847,4713;0,00841395
1848,4355;0,00841429
1849,3998;0,00840628
1850,3640;0,00839305
1851,3282;0,00838435
1852,2925;0,00838617
1853,2567;0,00839573
1854,2209;0,00840528
1855,1852;0,00841002
1856,1494;0,00841254
1857,1136;0,00842043
1858,0779;0,00843908
1859,0421;0,00846664
1860,0063;0,00849523
1860,9706;0,00851711
1861,9348;0,00852978
1862,8990;0,00853619
1863,8633;0,00854096
1864,8275;0,00854718
1865,7917;0,0085547
1866,7560;0,00855843
1867,7202;0,00854844
1868,6844;0,00851773
1869,6487;0,00847208
1870,6129;0,00842579
1871,5771;0,00838728
1872,5414;0,00835511
1873,5056;0,00832556
1874,4698;0,00829942
1875,4341;0,00828169
1876,3983;0,00827734
1877,3625;0,00828725
1878,3268;0,00830797
1879,2910;0,00833365
1880,2552;0,00835859
1881,2195;0,00837883
1882,1837;0,00839287
1883,1479;0,00840222
1884,1122;0,00841126
1885,0764;0,00842564
1886,0406;0,00844926
1887,0049;0,00848054
1887,9691;0,00851035
1888,9333;0,0085253
1889,8976;0,00851682
1890,8618;0,00848842
1891,8260;0,00845304
1892,7903;0,00842315
1893,7545;0,00840299
1894,7188;0,00838794
1895,6830;0,0083704
1896,6472;0,00834821
1897,6115;0,0083287
1898,5757;0,00832417
1899,5399;0,00834262
1900,5042;0,00838131
1901,4684;0,00842744
1902,4326;0,00846507
1903,3969;0,00848314
1904,3611;0,00847835
1905,3253;0,00845151
1906,2896;0,0084026
1907,2538;0,00833152
1908,2180;0,00824562
1909,1823;0,0081671
1910,1465;0,00812919
1911,1107;0,00815857
1912,0750;0,00825673
1913,0392;0,00839612
1914,0034;0,00853297
1914,9677;0,00862661
1915,9319;0,00865639
1916,8961;0,00863064
1917,8604;0,00858179
1918,8246;0,0085456
1919,7888;0,00853795
1920,7531;0,00854832
1921,7173;0,00855275
1922,6815;0,00853345
1923,6458;0,0084914
1924,6100;0,00844458
1925,5742;0,0084141
1926,5385;0,0084098
1927,5027;0,00842692
1928,4669;0,00845397
1929,4312;0,00848345
1930,3954;0,00851755
1931,3596;0,00856457
1932,3239;0,00862733
1933,2881;0,00869255
1934,2523;0,00873082
1935,2166;0,00871099
1936,1808;0,00862204
1937,1450;0,00848813
1938,1093;0,00836497
1939,0735;0,00831796
1940,0377;0,00839045
1941,0020;0,00857314
1941,9662;0,0087927
1942,9304;0,00893981
1943,8947;0,00893046
1944,8589;0,00875472
1945,8231;0,00847529
1946,7874;0,0081879
1947,7516;0,00797697
1948,7158;0,00788628
1949,6801;0,00790987
1950,6443;0,00800367
1951,6085;0,00811123
1952,5728;0,00818975
1953,5370;0,00822322
1954,5012;0,0082201
1955,4655;0,00820097
1956,4297;0,00818528
1957,3939;0,00818308
1958,3582;0,00819399
1959,3224;0,00821143
1960,2866;0,00822884
1961,2509;0,00824439
1962,2151;0,00826188
1963,1793;0,00828812
1964,1436;0,00832929
1965,1078;0,00838819
1966,0720;0,00846209
1967,0363;0,00854034
1968,0005;0,00860238
1968,9647;0,00861964
1969,9290;0,00856498
1970,8932;0,00842941
1971,8574;0,00823928
1972,8217;0,00806138
1973,7859;0,00798406
1974,7501;0,00807297
1975,7144;0,00832352
1976,6786;0,00864627
1977,6428;0,00890981
1978,6071;0,00901753
1979,5713;0,00895844
1980,5355;0,00879516
1981,4998;0,00861041
1982,4640;0,00845988
1983,4282;0,00835846
1984,3925;0,00829696
1985,3567;0,00826857
1986,3209;0,00828345
1987,2852;0,00836182
1988,2494;0,00851406
1989,2136;0,00872512
1990,1779;0,00895536
1991,1421;0,0091566
1992,1063;0,00929105
1993,0706;0,00933906
1994,0348;0,00929312
1994,9990;0,00915044
1995,9633;0,00891676
1996,9275;0,00862005
1997,8917;0,00831952
1998,8560;0,00809551
1999,8202;0,00801892
2000,7844;0,00811765
2001,7487;0,00836312
2002,7129;0,00868443
2003,6771;0,00899808
2004,6414;0,00923542
2005,6056;0,00935842
2006,5698;0,0093636
2007,5341;0,00927684
2008,4983;0,00914198
2009,4625;0,00900569
2010,4268;0,00890297
2011,3910;0,00884889
2012,3552;0,0088403
2013,3195;0,00886638
2014,2837;0,00892092
2015,2479;0,00900869
2016,2122;0,00914143
2017,1764;0,00932718
2018,1406;0,00956069
2019,1049;0,00982076
2020,0691;0,0100725
2021,0333;0,010271
2021,9976;0,0103672
2022,9618;0,0103227
2023,9260;0,0101321
2024,8903;0,00984283
2025,8545;0,00954999
2026,8187;0,00935967
2027,7830;0,00933501
2028,7472;0,00945878
2029,7114;0,0096397
2030,6757;0,00976316
2031,6399;0,00975645
2032,6041;0,00962805
2033,5684;0,00945669
2034,5326;0,00933933
2035,4968;0,0093339
2036,4611;0,00943213
2037,4253;0,00957253
2038,3895;0,00967525
2039,3538;0,00967697
2040,3180;0,00955447
2041,2822;0,00933384
2042,2465;0,00908332
2043,2107;0,00888943
2044,1749;0,00882355
2045,1392;0,00891142
2046,1034;0,0091185
2047,0676;0,00936113
2048,0320;0,00954416
2048,9961;0,00960713
2049,9604;0,00954861
2050,9246;0,00941519
2051,8889;0,00926979
2052,8530;0,0091631
2053,8174;0,00911949
2054,7815;0,00913672
2055,7458;0,00919484
2056,7100;0,00926807
2057,6743;0,00933487
2058,6384;0,00938349
2059,6028;0,00941315
2060,5669;0,00943193
2061,5313;0,00945185
2062,4954;0,00948175
2063,4597;0,00952054
2064,4238;0,00955554
2065,3882;0,0095687
2066,3523;0,00954814
2067,3167;0,00949727
2068,2808;0,00943454
2069,2451;0,00938392
2070,2092;0,00936261
2071,1736;0,00937432
2072,1377;0,0094119
2073,1021;0,00946655
2074,0662;0,00953509
2075,0305;0,00961888
2075,9946;0,00971521
2076,9590;0,00980941
2077,9231;0,00987575
2078,8875;0,00988922
2079,8516;0,00984079
2080,8159;0,00974576
2081,7800;0,00963894
2082,7444;0,00955924
2083,7085;0,00953276
2084,6729;0,00956346
2085,6370;0,00963504
2086,6013;0,00972059
2087,5654;0,00979372
2088,5298;0,00983624
2089,4939;0,00984113
2090,4583;0,00981213
2091,4224;0,00976131
2092,3867;0,00970504
2093,3508;0,00965844
2094,3152;0,00962946
2095,2793;0,00961545
2096,2437;0,00960533
2097,2078;0,0095872
2098,1721;0,00955721
2099,1362;0,00952351
2100,1006;0,00950327
2101,0647;0,00951195
2102,0291;0,00955709
2102,9932;0,00963078
2103,9575;0,00971143
2104,9216;0,00977128
2105,8860;0,0097876
2106,8501;0,00975327
2107,8145;0,00968204
2108,7786;0,00960479
2109,7429;0,00955698
2110,7070;0,00956252
2111,6714;0,00962232
2112,6355;0,00971404
2113,5999;0,00980341
2114,5640;0,00986068
2115,5283;0,00987316
2116,4924;0,00984777
2117,4568;0,00980414
2118,4209;0,00976374
2119,3853;0,00974136
2120,3494;0,00974211
2121,3137;0,00976351
2122,2778;0,00979992
2123,2422;0,00984651
2124,2063;0,00990151
2125,1707;0,00996593
2126,1348;0,0100411
2127,0991;0,0101253
2128,0632;0,0102111
2129,0276;0,0102873
2129,9917;0,010344
2130,9561;0,0103795
2131,9202;0,0104031
2132,8845;0,0104297
2133,8486;0,0104683
2134,8130;0,0105117
2135,7771;0,0105359
2136,7415;0,0105149
2137,7056;0,0104397
2138,6699;0,0103283
2139,6340;0,0102196
2140,5984;0,0101541
2141,5625;0,0101537
2142,5269;0,010212
2143,4910;0,0103013
2144,4553;0,0103889
2145,4194;0,0104528
2146,3838;0,0104887
2147,3479;0,0105045
2148,3123;0,0105106
2149,2764;0,0105137
2150,2407;0,010518
2151,2048;0,0105317
2152,1692;0,0105708
2153,1333;0,0106566
2154,0977;0,0108071
2155,0618;0,011027
2156,0261;0,0113013
2156,9902;0,0115926
2157,9546;0,0118471
2158,9187;0,012007
2159,8831;0,0120285
2160,8472;0,0118964
2161,8115;0,0116296
2162,7756;0,0112805
2163,7400;0,0109264
2164,7041;0,0106503
2165,6685;0,010512
2166,6326;0,0105231
2167,5969;0,0106436
2168,5610;0,0108053
2169,5254;0,0109447
2170,4895;0,011027
2171,4539;0,0110492
2172,4180;0,0110268
2173,3823;0,010978
2174,3464;0,0109155
2175,3108;0,0108479
2176,2749;0,0107847
2177,2393;0,0107354
2178,2034;0,0107036
2179,1677;0,0106817
2180,1318;0,0106536
2181,0962;0,010605
2182,0603;0,010535
2183,0247;0,010459
2183,9888;0,0104005
2184,9531;0,0103775
2185,9172;0,0103938
2186,8816;0,0104403
2187,8457;0,0105
2188,8101;0,010555
2189,7742;0,0105894
2190,7385;0,010591
2191,7026;0,0105548
2192,6670;0,0104868
2193,6311;0,0104063
2194,5955;0,0103394
2195,5596;0,0103087
2196,5239;0,0103208
2197,4880;0,0103635
2198,4524;0,0104126
2199,4165;0,0104453
2200,3809;0,0104512
2201,3450;0,0104332
2202,3093;0,0103984
2203,2734;0,0103489
2204,2378;0,0102804
2205,2019;0,0101911
2206,1663;0,0100934
2207,1304;0,0100172
2208,0947;0,00999844
2209,0588;0,0100581
2210,0232;0,0101845
2210,9873;0,010333
2211,9517;0,0104453
2212,9158;0,0104781
2213,8801;0,0104233
2214,8442;0,0103085
2215,8086;0,0101787
2216,7727;0,0100716
2217,7371;0,0100025
2218,7012;0,00996451
2219,6655;0,00994163
2220,6296;0,00992266
2221,5940;0,00990759
2222,5581;0,00990476
2223,5225;0,0099232
2224,4866;0,00996568
2225,4509;0,010026
2226,4150;0,0100906
2227,3794;0,0101422
2228,3435;0,010167
2229,3079;0,0101595
2230,2720;0,0101252
2231,2363;0,0100777
2232,2004;0,0100324
2233,1648;0,00999919
2234,1289;0,00998013
2235,0933;0,00997255
2236,0574;0,00997531
2237,0217;0,00999193
2237,9858;0,0100275
2238,9502;0,0100814
2239,9143;0,0101428
2240,8787;0,0101927
2241,8428;0,0102139
2242,8071;0,0102018
2243,7712;0,0101673
2244,7356;0,0101318
2245,6997;0,0101148
2246,6641;0,0101247
2247,6282;0,0101559
2248,5925;0,0101957
2249,5566;0,0102337
2250,5210;0,0102673
2251,4851;0,010301
2252,4495;0,0103403
2253,4136;0,0103853
2254,3779;0,0104287
2255,3420;0,0104587
2256,3064;0,0104647
2257,2705;0,0104414
2258,2349;0,0103901
2259,1990;0,0103181
2260,1633;0,0102374
2261,1274;0,0101628
2262,0918;0,0101096
2263,0559;0,0100883
2264,0203;0,010101
2264,9844;0,0101398
2265,9487;0,0101902
2266,9128;0,0102376
2267,8772;0,0102727
2268,8413;0,0102915
2269,8057;0,0102925
2270,7698;0,0102736
2271,7341;0,010232
2272,6982;0,0101679
2273,6626;0,0100874
2274,6267;0,0100026
2275,5911;0,00992742
2276,5552;0,00987309
2277,5195;0,00984501
2278,4836;0,00984335
2279,4480;0,0098652
2280,4121;0,00990651
2281,3765;0,00996287
2282,3406;0,0100299
2283,3049;0,0101034
2284,2690;0,0101805
2285,2334;0,0102587
2286,1975;0,0103362
2287,1619;0,0104105
2288,1260;0,0104798
2289,0903;0,0105436
2290,0544;0,0106033
2291,0188;0,0106613
2291,9829;0,0107196
2292,9473;0,0107786
2293,9114;0,0108375
2294,8757;0,0108955
2295,8398;0,0109515
2296,8042;0,0110028
2297,7683;0,0110434
2298,7327;0,0110639
2299,6968;0,0110555
2300,6611;0,0110153
2301,6252;0,0109506
2302,5896;0,0108786
2303,5537;0,0108213
2304,5181;0,0107977
2305,4822;0,0108157
2306,4465;0,0108666
2307,4106;0,0109261
2308,3750;0,0109604
2309,3391;0,0109393
2310,3035;0,0108486
2311,2676;0,0106989
2312,2319;0,0105228
2313,1960;0,0103618
2314,1604;0,0102469
2315,1245;0,0101861
2316,0889;0,0101643
2317,0530;0,0101539
2318,0173;0,0101306
2318,9814;0,0100874
2319,9458;0,0100412
2320,9099;0,0100297
2321,8743;0,0100955
2322,8384;0,0102605
2323,8027;0,0105055
2324,7668;0,0107712
2325,7312;0,0109831
2326,6953;0,0110845
2327,6597;0,0110608
2328,6238;0,010946
2329,5881;0,0108095
2330,5522;0,0107281
2331,5166;0,0107529
2332,4807;0,0108872
2333,4451;0,0110896
2334,4092;0,0112998
2335,3735;0,0114714
2336,3376;0,0115922
2337,3020;0,0116847
2338,2661;0,0117872
2339,2305;0,0119215
2340,1946;0,0120612
2341,1589;0,0121196
2342,1230;0,0119836
2343,0874;0,011619
2344,0515;0,0111912
2345,0159;0,011006
2345,9800;0,0112397
2346,9443;0,0117811
2347,9084;0,0123466
2348,8728;0,0126822
2349,8369;0,0126822
2350,8013;0,0124092
2351,7654;0,0120421
2352,7297;0,0117737
2353,6938;0,0117082
2354,6582;0,0118348
2355,6223;0,0120868
2356,5867;0,0123903
2357,5508;0,0126629
2358,5151;0,0128202
2359,4792;0,012818
2360,4436;0,0126835
2361,4077;0,0124819
2362,3721;0,0122499
2363,3362;0,0119695
2364,3005;0,0116022
2365,2646;0,0111387
2366,2290;0,0106157
2367,1931;0,0100951
2368,1575;0,00963053
2369,1216;0,00924945
2370,0859;0,00895294
2371,0500;0,00872671
2372,0144;0,00855589
2372,9785;0,0084369
2373,9429;0,00838107
2374,9070;0,00840774
2375,8713;0,0085311
2376,8354;0,0087488
2377,7998;0,00903837
2378,7639;0,00936251
2379,7283;0,00967911
2380,6924;0,00995118
2381,6567;0,0101535
2382,6208;0,0102755
2383,5852;0,0103216
2384,5493;0,0103081
2385,5137;0,0102591
2386,4778;0,0101996
2387,4421;0,0101489
2388,4063;0,0101166
2389,3706;0,0101019
2390,3347;0,0100977
2391,2991;0,0100959
2392,2632;0,010093
2393,2275;0,0100901
2394,1917;0,0100906
2395,1560;0,0100963
2396,1201;0,010106
2397,0845;0,0101166
2398,0486;0,0101283
2399,0129;0,0101444
2399,9771;0,0101705
2400,9414;0,0102105
2401,9055;0,0102616
2402,8699;0,010314
2403,8340;0,0103549
2404,7983;0,0103747
2405,7625;0,010372
2406,7268;0,0103541
2407,6909;0,0103324
2408,6553;0,0103165
2409,6194;0,0103102
2410,5837;0,0103119
2411,5479;0,010318
2412,5122;0,0103271
2413,4763;0,0103414
2414,4407;0,0103651
2415,4048;0,0104004
2416,3691;0,0104438
2417,3333;0,010486
2418,2976;0,0105148
2419,2617;0,0105215
2420,2261;0,0105058
2421,1902;0,0104772
2422,1545;0,0104517
2423,1187;0,0104436
2424,0830;0,0104588
2425,0471;0,0104916
2426,0115;0,0105289
2426,9756;0,0105585
2427,9399;0,0105762
2428,9041;0,0105881
2429,8684;0,0106049
2430,8325;0,0106345
2431,7969;0,0106756
2432,7610;0,0107183
2433,7253;0,0107499
2434,6895;0,0107626
2435,6538;0,010757
2436,6179;0,0107409
2437,5823;0,0107243
2438,5464;0,0107143
2439,5107;0,0107128
2440,4749;0,0107178
2441,4392;0,0107271
2442,4033;0,0107401
2443,3677;0,0107582
2444,3318;0,0107828
2445,2961;0,0108125
2446,2603;0,0108422
2447,2246;0,0108646
2448,1887;0,0108739
2449,1531;0,0108689
2450,1172;0,0108551
2451,0815;0,0108425
2452,0457;0,0108411
2453,0100;0,0108558
2453,9741;0,010884
2454,9385;0,0109167
2455,9026;0,0109439
2456,8669;0,0109592
2457,8311;0,0109626
2458,7954;0,0109596
2459,7595;0,0109567
2460,7239;0,0109581
2461,6880;0,0109642
2462,6523;0,010973
2463,6165;0,0109828
2464,5808;0,010994
2465,5449;0,0110082
2466,5093;0,0110268
2467,4734;0,01105
2468,4377;0,0110761
2469,4019;0,011103
2470,3662;0,0111283
2471,3303;0,0111499
2472,2947;0,0111656
2473,2588;0,0111739
2474,2231;0,0111752
2475,1873;0,0111727
2476,1516;0,0111712
2477,1157;0,0111752
2478,0801;0,0111858
2479,0442;0,0112006
2480,0085;0,011215
2480,9727;0,0112256
2481,9370;0,0112321
2482,9011;0,0112366
2483,8655;0,0112404
2484,8296;0,0112429
2485,7939;0,0112418
2486,7581;0,0112356
2487,7224;0,0112271
2488,6865;0,0112231
2489,6509;0,0112312
2490,6150;0,0112558
2491,5793;0,0112942
2492,5435;0,011338
2493,5078;0,0113764
2494,4719;0,0114022
2495,4363;0,0114145
2496,4004;0,0114182
2497,3647;0,0114207
2498,3289;0,0114276
2499,2932;0,0114394
2500,2573;0,0114524
2501,2217;0,0114609
2502,1858;0,0114615
2503,1501;0,011455
2504,1143;0,0114461
2505,0786;0,0114411
2506,0427;0,0114444
2507,0071;0,0114566
2507,9712;0,0114746
2508,9355;0,0114933
2509,8997;0,011508
2510,8640;0,0115154
2511,8281;0,0115139
2512,7925;0,0115031
2513,7566;0,0114844
2514,7209;0,0114611
2515,6851;0,0114397
2516,6494;0,0114278
2517,6135;0,0114319
2518,5779;0,0114542
2519,5420;0,0114909
2520,5063;0,0115332
2521,4705;0,0115709
2522,4348;0,0115961
2523,3989;0,0116053
2524,3633;0,0116004
2525,3274;0,0115875
2526,2917;0,0115747
2527,2559;0,0115699
2528,2202;0,0115777
2529,1843;0,0115978
2530,1487;0,0116241
2531,1128;0,0116469
2532,0771;0,0116576
2533,0413;0,0116535
2534,0056;0,0116394
2534,9697;0,0116257
2535,9341;0,0116227
2536,8982;0,0116354
2537,8625;0,0116608
2538,8267;0,0116903
2539,7910;0,0117145
2540,7551;0,011728
2541,7195;0,0117314
2542,6836;0,0117294
2543,6479;0,0117272
2544,6121;0,0117264
2545,5764;0,0117246
2546,5405;0,0117177
2547,5049;0,0117043
2548,4690;0,0116889
2549,4333;0,0116803
2550,3975;0,0116872
2551,3618;0,0117113
2552,3259;0,0117445
2553,2903;0,011772
2554,2544;0,0117799
2555,2188;0,0117639
2556,1829;0,0117322
2557,1472;0,0117015
2558,1113;0,0116883
2559,0757;0,0117008
2560,0398;0,0117351
2561,0042;0,0117782
2561,9683;0,0118153
2562,9326;0,0118359
2563,8967;0,0118373
2564,8611;0,0118244
2565,8252;0,0118058
2566,7896;0,0117906
2567,7537;0,0117847
2568,7180;0,0117898
2569,6821;0,0118031
2570,6465;0,0118194
2571,6106;0,0118333
2572,5750;0,0118413
2573,5391;0,0118429
2574,5034;0,0118414
2575,4675;0,0118418
2576,4319;0,0118484
2577,3960;0,0118624
2578,3604;0,0118802
2579,3245;0,0118949
2580,2888;0,0118993
2581,2529;0,011891
2582,2173;0,0118743
2583,1814;0,0118593
2584,1458;0,0118568
2585,1099;0,0118725
2586,0742;0,0119033
2587,0383;0,0119386
2588,0027;0,0119658
2588,9668;0,0119764
2589,9312;0,0119704
2590,8953;0,0119549
2591,8596;0,0119409
2592,8237;0,011937
2593,7881;0,0119454
2594,7522;0,0119619
2595,7166;0,0119787
2596,6807;0,0119892
2597,6450;0,0119923
2598,6091;0,0119931
2599,5735;0,0119999
2600,5376;0,0120195
2601,5020;0,0120524
2602,4661;0,0120922
2603,4304;0,0121291
2604,3945;0,0121545
2605,3589;0,0121659
2606,3230;0,0121671
2607,2874;0,0121657
2608,2515;0,0121688
2609,2158;0,0121798
2610,1799;0,0121969
2611,1443;0,0122154
2612,1084;0,0122297
2613,0728;0,0122363
2614,0369;0,0122349
2615,0012;0,0122282
2615,9653;0,0122211
2616,9297;0,0122189
2617,8938;0,0122257
2618,8582;0,0122436
2619,8223;0,0122717
2620,7866;0,0123068
2621,7507;0,0123442
2622,7151;0,0123787
2623,6792;0,012406
2624,6436;0,0124238
2625,6077;0,0124324
2626,5720;0,0124342
2627,5361;0,0124333
2628,5005;0,0124339
2629,4646;0,0124391
2630,4290;0,012451
2631,3931;0,0124697
2632,3574;0,0124941
2633,3215;0,0125218
2634,2859;0,0125492
2635,2500;0,0125728
2636,2144;0,01259
2637,1785;0,0126011
2638,1428;0,0126086
2639,1069;0,0126169
2640,0713;0,012629
2641,0354;0,0126454
2641,9998;0,012664
2642,9639;0,012682
2643,9282;0,0126987
2644,8923;0,012716
2645,8567;0,0127371
2646,8208;0,0127637
2647,7852;0,012794
2648,7493;0,012823
2649,7136;0,0128456
2650,6777;0,0128593
2651,6421;0,012866
2652,6062;0,0128705
2653,5706;0,0128779
2654,5347;0,012891
2655,4990;0,01291
2656,4631;0,0129327
2657,4275;0,0129561
2658,3916;0,0129775
2659,3560;0,0129947
2660,3201;0,013007
2661,2844;0,013015
2662,2485;0,013021
2663,2129;0,0130278
2664,1770;0,0130376
2665,1414;0,0130512
2666,1055;0,0130677
2667,0698;0,0130861
2668,0339;0,0131056
2668,9983;0,0131263
2669,9624;0,0131478
2670,9268;0,0131684
2671,8909;0,0131856
2672,8552;0,0131973
2673,8193;0,0132042
2674,7837;0,0132093
2675,7478;0,0132168
2676,7122;0,0132298
2677,6763;0,0132489
2678,6406;0,0132726
2679,6047;0,0132991
2680,5691;0,0133271
2681,5332;0,0133567
2682,4976;0,0133879
2683,4617;0,0134199
2684,4260;0,0134513
2685,3901;0,0134801
2686,3545;0,0135054
2687,3186;0,0135269
2688,2830;0,0135449
2689,2471;0,0135598
2690,2114;0,013572
2691,1755;0,0135819
2692,1399;0,0135905
2693,1040;0,0135996
2694,0684;0,0136113
2695,0325;0,0136279
2695,9968;0,0136505
2696,9609;0,0136786
2697,9253;0,0137099
2698,8894;0,0137407
2699,8538;0,0137675
2700,8179;0,0137883
2701,7822;0,0138041
2702,7463;0,0138179
2703,7107;0,0138334
2704,6748;0,0138525
2705,6392;0,0138747
2706,6033;0,0138982
2707,5676;0,0139214
2708,5317;0,0139444
2709,4961;0,0139683
2710,4602;0,0139944
2711,4246;0,014022
2712,3887;0,0140495
2713,3530;0,0140748
2714,3171;0,0140972
2715,2815;0,0141175
2716,2456;0,0141371
2717,2100;0,0141568
2718,1741;0,0141763
2719,1384;0,0141948
2720,1025;0,0142116
2721,0669;0,0142265
2722,0310;0,0142397
2722,9954;0,0142513
2723,9595;0,0142614
2724,9238;0,0142712
2725,8879;0,0142828
2726,8523;0,0142987
2727,8164;0,0143208
2728,7808;0,0143489
2729,7449;0,0143804
2730,7092;0,0144121
2731,6733;0,0144406
2732,6377;0,0144636
2733,6018;0,01448
2734,5662;0,0144895
2735,5303;0,0144932
2736,4946;0,0144937
2737,4587;0,0144953
2738,4231;0,0145024
2739,3872;0,0145177
2740,3516;0,0145402
2741,3157;0,0145661
2742,2800;0,0145903
2743,2441;0,0146087
2744,2085;0,0146201
2745,1726;0,0146259
2746,1370;0,0146288
2747,1011;0,0146317
2748,0654;0,0146374
2749,0295;0,0146485
2749,9939;0,0146675
2750,9580;0,0146956
2751,9224;0,014731
2752,8865;0,0147693
2753,8508;0,0148045
2754,8149;0,0148322
2755,7793;0,0148515
2756,7434;0,0148658
2757,7078;0,0148805
2758,6719;0,0149003
2759,6362;0,0149266
2760,6003;0,0149579
2761,5647;0,0149902
2762,5288;0,0150197
2763,4932;0,0150436
2764,4573;0,0150612
2765,4216;0,015074
2766,3857;0,0150851
2767,3501;0,0150988
2768,3142;0,0151189
2769,2786;0,0151469
2770,2427;0,0151807
2771,2070;0,0152151
2772,1711;0,0152446
2773,1355;0,0152663
2774,0996;0,0152818
2775,0640;0,0152966
2776,0281;0,0153173
2776,9924;0,0153475
2777,9565;0,0153865
2778,9209;0,0154296
2779,8850;0,0154713
2780,8494;0,0155083
2781,8135;0,0155403
2782,7778;0,0155696
2783,7419;0,0155992
2784,7063;0,0156303
2785,6704;0,0156625
2786,6348;0,0156942
2787,5989;0,0157252
2788,5632;0,0157568
2789,5273;0,0157923
2790,4917;0,015835
2791,4558;0,0158866
2792,4202;0,0159455
2793,3843;0,0160075
2794,3486;0,0160675
2795,3127;0,0161219
2796,2771;0,0161703
2797,2412;0,0162156
2798,2056;0,0162625
2799,1697;0,016315
2800,1340;0,0163753
2801,0981;0,0164427
2802,0625;0,0165145
2803,0266;0,0165875
2803,9910;0,016659
2804,9551;0,016727
2805,9194;0,0167907
2806,8835;0,0168495
2807,8479;0,0169038
2808,8120;0,0169551
2809,7764;0,0170065
2810,7405;0,0170628
2811,7048;0,0171288
2812,6689;0,017208
2813,6333;0,0173008
2814,5974;0,0174034
2815,5618;0,0175091
2816,5259;0,0176109
2817,4902;0,0177035
2818,4543;0,0177861
2819,4187;0,0178623
2820,3828;0,0179384
2821,3472;0,0180215
2822,3113;0,0181165
2823,2756;0,0182259
2824,2397;0,0183494
2825,2041;0,0184849
2826,1682;0,0186297
2827,1326;0,0187802
2828,0967;0,0189325
2829,0610;0,0190827
2830,0251;0,0192283
2830,9895;0,0193697
2831,9536;0,0195111
2832,9180;0,0196594
2833,8821;0,0198216
2834,8464;0,0200017
2835,8105;0,0201989
2836,7749;0,0204084
2837,7390;0,0206249
2838,7034;0,0208466
2839,6675;0,0210769
2840,6318;0,0213231
2841,5959;0,021593
2842,5603;0,0218897
2843,5244;0,0222096
2844,4888;0,0225423
2845,4529;0,0228742
2846,4172;0,0231919
2847,3813;0,0234852
2848,3457;0,0237467
2849,3098;0,023971
2850,2742;0,0241534
2851,2383;0,0242896
2852,2026;0,0243779
2853,1667;0,0244212
2854,1311;0,0244269
2855,0952;0,024406
2856,0596;0,0243701
2857,0237;0,0243286
2857,9880;0,0242881
2858,9521;0,0242533
2859,9165;0,0242284
2860,8806;0,024218
2861,8450;0,0242264
2862,8091;0,0242564
2863,7734;0,0243087
2864,7375;0,0243821
2865,7019;0,024474
2866,6660;0,0245806
2867,6304;0,0246967
2868,5945;0,0248138
2869,5588;0,0249216
2870,5229;0,0250096
2871,4873;0,0250714
2872,4514;0,0251081
2873,4158;0,0251285
2874,3799;0,0251454
2875,3442;0,0251709
2876,3083;0,0252108
2877,2727;0,0252637
2878,2368;0,0253234
2879,2012;0,0253833
2880,1653;0,0254401
2881,1296;0,025495
2882,0938;0,025552
2883,0581;0,0256149
2884,0222;0,0256845
2884,9866;0,0257581
2885,9507;0,0258314
2886,9150;0,025901
2887,8792;0,0259666
2888,8435;0,0260314
2889,8076;0,0261
2890,7720;0,0261752
2891,7361;0,0262561
2892,7004;0,0263379
2893,6646;0,0264149
2894,6289;0,0264846
2895,5930;0,0265491
2896,5574;0,0266144
2897,5215;0,0266863
2898,4858;0,0267664
2899,4500;0,0268504
2900,4143;0,0269307
2901,3784;0,0270004
2902,3428;0,0270572
2903,3069;0,0271049
2904,2712;0,0271511
2905,2354;0,0272039
2906,1997;0,0272694
2907,1638;0,0273501
2908,1282;0,0274461
2909,0923;0,0275567
2910,0566;0,0276812
2911,0208;0,0278182
2911,9851;0,0279647
2912,9492;0,0281156
2913,9136;0,0282638
2914,8777;0,028402
2915,8420;0,0285246
2916,8062;0,0286286
2917,7705;0,0287127
2918,7346;0,0287759
2919,6990;0,0288156
2920,6631;0,0288281
2921,6274;0,0288088
2922,5916;0,0287554
2923,5559;0,0286684
2924,5200;0,0285517
2925,4844;0,0284116
2926,4485;0,0282547
2927,4128;0,0280869
2928,3770;0,0279121
2929,3413;0,0277315
2930,3054;0,0275449
2931,2698;0,0273515
2932,2339;0,0271513
2933,1982;0,0269461
2934,1624;0,0267387
2935,1267;0,0265312
2936,0908;0,0263242
2937,0552;0,0261167
2938,0193;0,0259074
2938,9836;0,0256966
2939,9478;0,0254857
2940,9121;0,0252763
2941,8762;0,0250679
2942,8406;0,0248584
2943,8047;0,0246452
2944,7690;0,024429
2945,7332;0,0242149
2946,6975;0,0240113
2947,6616;0,0238264
2948,6260;0,0236649
2949,5901;0,0235267
2950,5544;0,0234071
2951,5186;0,0232995
2952,4829;0,0231965
2953,4470;0,0230915
2954,4114;0,0229795
2955,3755;0,0228588
2956,3398;0,0227314
2957,3040;0,0226031
2958,2683;0,02248
2959,2324;0,0223655
2960,1968;0,0222577
2961,1609;0,0221501
2962,1252;0,0220348
2963,0894;0,0219072
2964,0537;0,0217676
2965,0178;0,021621
2965,9822;0,0214739
2966,9463;0,0213315
2967,9106;0,0211952
2968,8748;0,0210633
2969,8391;0,0209318
2970,8032;0,0207969
2971,7676;0,0206561
2972,7317;0,0205097
2973,6960;0,0203607
2974,6602;0,0202141
2975,6245;0,0200748
2976,5886;0,0199466
2977,5530;0,0198306
2978,5171;0,0197262
2979,4814;0,0196316
2980,4456;0,0195454
2981,4099;0,0194664
2982,3740;0,0193942
2983,3384;0,019328
2984,3025;0,0192668
2985,2668;0,0192092
2986,2310;0,0191541
2987,1953;0,0191005
2988,1594;0,0190484
2989,1238;0,0189988
2990,0879;0,0189534
2991,0522;0,0189142
2992,0164;0,0188823
2992,9807;0,0188581
2993,9448;0,0188407
2994,9092;0,0188292
2995,8733;0,0188235
2996,8376;0,0188239
2997,8018;0,0188308
2998,7661;0,018843
2999,7302;0,0188583
3000,6946;0,0188741
3001,6587;0,0188897
3002,6230;0,0189061
3003,5872;0,0189261
3004,5515;0,0189513
3005,5156;0,0189806
3006,4800;0,0190105
3007,4441;0,0190365
3008,4084;0,0190563
3009,3726;0,0190709
3010,3369;0,0190832
3011,3010;0,0190965
3012,2654;0,0191117
3013,2295;0,0191276
3014,1938;0,0191427
3015,1580;0,0191571
3016,1223;0,0191738
3017,0864;0,0191972
3018,0508;0,0192303
3019,0149;0,0192723
3019,9792;0,0193185
3020,9434;0,0193623
3021,9077;0,0193989
3022,8718;0,019428
3023,8362;0,0194543
3024,8003;0,0194853
3025,7646;0,0195278
3026,7288;0,0195844
3027,6931;0,0196518
3028,6572;0,0197231
3029,6216;0,0197902
3030,5857;0,019848
3031,5500;0,019896
3032,5142;0,0199385
3033,4785;0,0199817
3034,4426;0,0200306
3035,4070;0,0200869
3036,3711;0,0201491
3037,3354;0,0202135
3038,2996;0,0202771
3039,2639;0,0203383
3040,2280;0,0203976
3041,1924;0,0204567
3042,1565;0,0205178
3043,1208;0,0205821
3044,0850;0,0206497
3045,0493;0,0207196
3046,0134;0,02079
3046,9778;0,0208592
3047,9419;0,0209273
3048,9063;0,0209968
3049,8704;0,0210715
3050,8347;0,0211543
3051,7988;0,0212448
3052,7632;0,0213381
3053,7273;0,0214267
3054,6917;0,0215049
3055,6558;0,0215717
3056,6201;0,0216326
3057,5842;0,0216962
3058,5486;0,0217701
3059,5127;0,0218567
3060,4771;0,021953
3061,4412;0,022053
3062,4055;0,0221502
3063,3696;0,0222404
3064,3340;0,0223214
3065,2981;0,0223925
3066,2625;0,0224542
3067,2266;0,0225088
3068,1909;0,0225612
3069,1550;0,0226181
3070,1194;0,0226867
3071,0835;0,0227716
3072,0479;0,0228725
3073,0120;0,0229833
3073,9763;0,0230939
3074,9404;0,0231934
3075,9048;0,0232742
3076,8689;0,0233355
3077,8333;0,0233838
3078,7974;0,0234301
3079,7617;0,0234848
3080,7258;0,0235536
3081,6902;0,0236351
3082,6543;0,0237234
3083,6187;0,0238114
3084,5828;0,0238952
3085,5471;0,0239735
3086,5112;0,0240472
3087,4756;0,0241168
3088,4397;0,0241823
3089,4041;0,0242447
3090,3682;0,024307
3091,3325;0,024374
3092,2966;0,0244503
3093,2610;0,0245369
3094,2251;0,0246307
3095,1895;0,0247255
3096,1536;0,0248156
3097,1179;0,0248987
3098,0820;0,0249758
3099,0464;0,0250503
3100,0105;0,0251248
3100,9749;0,025201
3101,9390;0,0252794
3102,9033;0,0253606
3103,8674;0,0254458
3104,8318;0,0255357
3105,7959;0,0256296
3106,7603;0,0257253
3107,7244;0,0258201
3108,6887;0,0259126
3109,6528;0,0260034
3110,6172;0,0260946
3111,5813;0,0261878
3112,5457;0,026283
3113,5098;0,0263781
3114,4741;0,0264709
3115,4382;0,0265599
3116,4026;0,0266452
3117,3667;0,0267286
3118,3311;0,0268119
3119,2952;0,0268969
3120,2595;0,0269852
3121,2236;0,0270783
3122,1880;0,0271779
3123,1521;0,0272844
3124,1165;0,0273963
3125,0806;0,0275099
3126,0449;0,0276204
3127,0090;0,0277236
3127,9734;0,0278171
3128,9375;0,0279019
3129,9019;0,0279811
3130,8660;0,0280599
3131,8303;0,028143
3132,7944;0,028234
3133,7588;0,0283336
3134,7229;0,0284402
3135,6873;0,0285506
3136,6514;0,0286617
3137,6157;0,0287713
3138,5798;0,0288785
3139,5442;0,0289835
3140,5083;0,0290862
3141,4727;0,0291862
3142,4368;0,0292836
3143,4011;0,0293797
3144,3652;0,0294776
3145,3296;0,0295807
3146,2937;0,0296904
3147,2581;0,0298052
3148,2222;0,0299201
3149,1865;0,0300295
3150,1506;0,0301304
3151,1150;0,030225
3152,0791;0,0303202
3153,0435;0,0304236
3154,0076;0,0305395
3154,9719;0,030666
3155,9360;0,0307961
3156,9004;0,0309216
3157,8645;0,0310378
3158,8289;0,0311462
3159,7930;0,0312525
3160,7573;0,0313632
3161,7214;0,0314816
3162,6858;0,0316058
3163,6499;0,0317303
3164,6143;0,0318495
3165,5784;0,0319603
3166,5427;0,0320633
3167,5068;0,0321624
3168,4712;0,032262
3169,4353;0,0323329
3170,3997;0,0324411
3171,3638;0,0325534
3172,3281;0,0326683
3173,2922;0,0327848
3174,2566;0,0329035
3175,2207;0,0330252
3176,1851;0,0331499
3177,1492;0,033275
3178,1135;0,0333954
3179,0776;0,0335063
3180,0420;0,0336056
3181,0061;0,0336965
3181,9705;0,033786
3182,9346;0,0338822
3183,8989;0,0339899
3184,8630;0,0341083
3185,8274;0,0342319
3186,7915;0,0343537
3187,7559;0,0344686
3188,7200;0,0345752
3189,6843;0,034675
3190,6484;0,0347706
3191,6128;0,0348643
3192,5769;0,034958
3193,5413;0,0350538
3194,5054;0,0351536
3195,4697;0,0352582
3196,4338;0,0353662
3197,3982;0,035474
3198,3623;0,0355781
3199,3267;0,0356771
3200,2908;0,035773
3201,2551;0,0358692
3202,2192;0,0359681
3203,1836;0,0360698
3204,1477;0,0361719
3205,1121;0,0362726
3206,0762;0,0363723
3207,0405;0,0364734
3208,0046;0,0365778
3208,9690;0,0366847
3209,9331;0,0367906
3210,8975;0,0368919
3211,8616;0,0369881
3212,8259;0,0370824
3213,7900;0,0371791
3214,7544;0,0372801
3215,7185;0,0373829
3216,6829;0,0374824
3217,6470;0,0375749
3218,6113;0,037662
3219,5754;0,03775
3220,5398;0,0378457
3221,5039;0,0379512
3222,4683;0,0380625
3223,4324;0,0381709
3224,3967;0,0382698
3225,3608;0,038358
3226,3252;0,038441
3227,2893;0,0385268
3228,2537;0,0386209
3229,2178;0,0387226
3230,1821;0,0388264
3231,1462;0,0389261
3232,1106;0,0390184
3233,0747;0,0391052
3234,0391;0,0391907
3235,0032;0,039279
3235,9675;0,0393713
3236,9316;0,0394672
3237,8960;0,039566
3238,8601;0,0396682
3239,8245;0,0397752
3240,7886;0,0398868
3241,7529;0,04
3242,7170;0,0401099
3243,6814;0,0402117
3244,6455;0,0403049
3245,6099;0,0403939
3246,5740;0,0404864
3247,5383;0,0405887
3248,5024;0,0407023
3249,4668;0,0408227
3250,4309;0,040942
3251,3953;0,0410528
3252,3594;0,0411521
3253,3237;0,0412429
3254,2878;0,0413322
3255,2522;0,0414279
3256,2163;0,0415349
3257,1807;0,0416535
3258,1448;0,0417805
3259,1091;0,0419116
3260,0732;0,0420433
3261,0376;0,0421733
3262,0017;0,0423005
3262,9661;0,0424237
3263,9302;0,0425415
3264,8945;0,0426529
3265,8586;0,0427581
3266,8230;0,0428582
3267,7871;0,0429543
3268,7515;0,0430461
3269,7156;0,0431316
3270,6799;0,0432081
3271,6440;0,0432736
3272,6084;0,0433288
3273,5725;0,0433761
3274,5369;0,0434189
3275,5010;0,04346
3276,4653;0,0435011
3277,4294;0,0435429
3278,3938;0,0435862
3279,3579;0,0436318
3280,3223;0,0436798
3281,2864;0,0437291
3282,2507;0,0437775
3283,2148;0,0438228
3284,1792;0,0438635
3285,1433;0,0438995
3286,1077;0,0439315
3287,0718;0,0439602
3288,0361;0,0439856
3289,0002;0,0440076
3289,9646;0,0440262
3290,9287;0,0440414
3291,8931;0,0440532
3292,8572;0,0440611
3293,8215;0,0440643
3294,7856;0,0440623
3295,7500;0,0440552
3296,7141;0,0440446
3297,6785;0,0440327
3298,6426;0,0440226
3299,6069;0,0440179
3300,5710;0,0440219
3301,5354;0,0440367
3302,4995;0,0440614
3303,4639;0,0440913
3304,4280;0,0441192
3305,3923;0,0441374
3306,3564;0,044141
3307,3208;0,04413
3308,2849;0,0441095
3309,2493;0,0440869
3310,2134;0,04407
3311,1777;0,0440646
3312,1418;0,0440727
3313,1062;0,0440932
3314,0703;0,0441222
3315,0347;0,0441549
3315,9988;0,0441878
3316,9631;0,0442208
3317,9272;0,0442573
3318,8916;0,0443013
3319,8557;0,0443538
3320,8201;0,0444111
3321,7842;0,0444656
3322,7485;0,0445109
3323,7126;0,0445467
3324,6770;0,0445797
3325,6411;0,0446195
3326,6055;0,0446722
3327,5696;0,0447357
3328,5339;0,0448009
3329,4980;0,0448571
3330,4624;0,0448982
3331,4265;0,0449249
3332,3909;0,0449422
3333,3550;0,0449545
3334,3193;0,0449619
3335,2834;0,044961
3336,2478;0,0449483
3337,2119;0,0449232
3338,1763;0,0448878
3339,1404;0,0448449
3340,1047;0,0447948
3341,0688;0,0447365
3342,0332;0,0446697
3342,9973;0,0445969
3343,9617;0,0445234
3344,9258;0,0444542
3345,8901;0,04439
3346,8542;0,0443269
3347,8186;0,0442578
3348,7827;0,0441767
3349,7471;0,0440811
3350,7112;0,0439726
3351,6755;0,0438553
3352,6396;0,0437343
3353,6040;0,0436148
3354,5681;0,0435024
3355,5325;0,0434018
3356,4966;0,0433155
3357,4609;0,043242
3358,4250;0,0431756
3359,3894;0,0431091
3360,3535;0,0430363
3361,3179;0,0429548
3362,2820;0,042866
3363,2463;0,0427734
3364,2104;0,0426803
3365,1748;0,0425884
3366,1389;0,0424978
3367,1033;0,042407
3368,0674;0,0423142
3369,0317;0,0422178
3369,9958;0,0421178
3370,9602;0,042016
3371,9243;0,0419163
3372,8887;0,0418225
3373,8528;0,0417361
3374,8171;0,0416545
3375,7813;0,0415717
3376,7456;0,0414816
3377,7097;0,0413811
3378,6741;0,0412715
3379,6382;0,0411569
3380,6025;0,041041
3381,5667;0,0409264
3382,5310;0,0408146
3383,4951;0,0407093
3384,4595;0,0406167
3385,4236;0,0405432
3386,3879;0,0404898
3387,3521;0,0404492
3388,3164;0,0404076
3389,2805;0,040351
3390,2449;0,0402724
3391,2090;0,0401757
3392,1733;0,0400722
3393,1375;0,039974
3394,1018;0,0398867
3395,0659;0,0398077
3396,0303;0,0397298
3396,9944;0,0396471
3397,9587;0,0395574
3398,9229;0,0394622
3399,8872;0,0393636
3400,8513;0,0392619
3401,8157;0,0391567
3402,7798;0,0390478
3403,7441;0,0389368
3404,7083;0,0388266
3405,6726;0,0387203
3406,6367;0,0386197
3407,6011;0,0385244
3408,5652;0,0384319
3409,5295;0,0383369
3410,4937;0,038233
3411,4580;0,0381151
3412,4221;0,0379829
3413,3865;0,037843
3414,3506;0,0377063
3415,3149;0,037583
3416,2791;0,0374765
3417,2434;0,037382
3418,2075;0,0372882
3419,1719;0,0371838
3420,1360;0,037063
3421,1003;0,0369273
3422,0645;0,0367839
3423,0288;0,0366404
3423,9929;0,0365013
3424,9573;0,0363678
3425,9214;0,0362383
3426,8857;0,0361106
3427,8499;0,035983
3428,8142;0,0358543
3429,7783;0,0357242
3430,7427;0,0355927
3431,7068;0,0354599
3432,6711;0,0353257
3433,6353;0,0351904
3434,5996;0,0350548
3435,5637;0,03492
3436,5281;0,0347863
3437,4922;0,0346529
3438,4565;0,0345179
3439,4207;0,0343804
3440,3850;0,0342417
3441,3491;0,0341047
3442,3135;0,0339713
3443,2776;0,0338401
3444,2419;0,0337063
3445,2061;0,0335645
3446,1704;0,0334133
3447,1345;0,0332574
3448,0989;0,0331045
3449,0630;0,0329604
3450,0273;0,0328247
3450,9915;0,0326926
3451,9558;0,0325595
3452,9199;0,0324243
3453,8843;0,0322898
3454,8484;0,0321599
3455,8127;0,0320363
3456,7769;0,0319159
3457,7412;0,0317929
3458,7053;0,0316613
3459,6697;0,0315176
3460,6338;0,0313623
3461,5981;0,0311997
3462,5623;0,031036
3463,5266;0,0308773
3464,4907;0,0307273
3465,4551;0,030586
3466,4192;0,0304511
3467,3835;0,0303193
3468,3477;0,0301872
3469,3120;0,0300522
3470,2761;0,0299117
3471,2405;0,0297633
3472,2046;0,0296071
3473,1689;0,0294476
3474,1331;0,0292938
3475,0974;0,0291551
3476,0615;0,0290348
3477,0259;0,0289269
3477,9900;0,0288178
3478,9543;0,0286935
3479,9185;0,0285482
3480,8828;0,0283885
3481,8469;0,0282292
3482,8113;0,0280836
3483,7754;0,0279547
3484,7397;0,0278335
3485,7039;0,0277054
3486,6682;0,0275601
3487,6323;0,0273982
3488,5967;0,0272306
3489,5608;0,0270721
3490,5251;0,0269319
3491,4893;0,0268091
3492,4536;0,0266939
3493,4177;0,0265759
3494,3821;0,0264504
3495,3462;0,0263227
3496,3105;0,0262034
3497,2747;0,0260994
3498,2390;0,0260066
3499,2031;0,0259097
3500,1675;0,0257898
3501,1316;0,0256357
3502,0959;0,0254532
3503,0601;0,0252637
3504,0244;0,0250923
3504,9885;0,024951
3505,9529;0,0248328
3506,9170;0,0247184
3507,8813;0,0245891
3508,8455;0,0244366
3509,8098;0,0242668
3510,7739;0,0240945
3511,7383;0,023934
3512,7024;0,0237915
3513,6667;0,0236648
3514,6309;0,023549
3515,5952;0,0234407
3516,5593;0,0233396
3517,5237;0,0232464
3518,4878;0,0231596
3519,4521;0,0230748
3520,4163;0,0229858
3521,3806;0,0228876
3522,3447;0,0227787
3523,3091;0,0226603
3524,2732;0,0225328
3525,2375;0,0223934
3526,2017;0,0222367
3527,1660;0,0220605
3528,1301;0,021871
3529,0945;0,0216844
3530,0586;0,0215195
3531,0229;0,0213873
3531,9871;0,0212845
3532,9514;0,0211962
3533,9155;0,0211018
3534,8799;0,0209859
3535,8440;0,020846
3536,8083;0,0206963
3537,7725;0,0205609
3538,7368;0,0204609
3539,7009;0,0204019
3540,6653;0,0203704
3541,6294;0,0203376
3542,5938;0,0202693
3543,5579;0,0201396
3544,5222;0,0199474
3545,4863;0,0197221
3546,4507;0,0195093
3547,4148;0,0193409
3548,3792;0,0192184
3549,3433;0,019118
3550,3076;0,0190106
3551,2717;0,0188795
3552,2361;0,0187288
3553,2002;0,0185786
3554,1646;0,0184497
3555,1287;0,0183486
3556,0930;0,0182664
3557,0571;0,0181897
3558,0215;0,0181137
3558,9856;0,0180482
3559,9500;0,0180113
3560,9141;0,0180139
3561,8784;0,0180453
3562,8425;0,0180698
3563,8069;0,0180335
3564,7710;0,0178806
3565,7354;0,0175868
3566,6995;0,0172007
3567,6638;0,0168362
3568,6279;0,0165884
3569,5923;0,0164685
3570,5564;0,0164243
3571,5208;0,0163948
3572,4849;0,0163427
3573,4492;0,01626
3574,4133;0,0161583
3575,3777;0,0160533
3576,3418;0,0159536
3577,3062;0,0158609
3578,2703;0,0157789
3579,2346;0,015721
3580,1987;0,0157048
3581,1631;0,0157366
3582,1272;0,0157992
3583,0916;0,0158521
3584,0557;0,015843
3585,0200;0,0157279
3585,9841;0,0155012
3586,9485;0,0152252
3587,9126;0,01501
3588,8770;0,014932
3589,8411;0,0149791
3590,8054;0,0150788
3591,7695;0,0151547
3592,7339;0,0151608
3593,6980;0,0150926
3594,6624;0,0149811
3595,6265;0,0148664
3596,5908;0,0147658
3597,5549;0,0146647
3598,5193;0,0145387
3599,4834;0,0143832
3600,4478;0,0142257
3601,4119;0,0141069
3602,3762;0,014046
3603,3403;0,0140236
3604,3047;0,0139917
3605,2688;0,0138985
3606,2332;0,0137122
3607,1973;0,0134396
3608,1616;0,0131275
3609,1257;0,0128382
3610,0901;0,0126165
3611,0542;0,012478
3612,0186;0,0124179
3612,9827;0,0124205
3613,9470;0,0124607
3614,9111;0,012502
3615,8755;0,0125033
3616,8396;0,0124339
3617,8040;0,0122955
3618,7681;0,0121378
3619,7324;0,0120444
3620,6965;0,0120795
3621,6609;0,0122426
3622,6250;0,0124759
3623,5894;0,0127014
3624,5535;0,0128466
3625,5178;0,012849
3626,4819;0,0126597
3627,4463;0,0122734
3628,4104;0,0117859
3629,3748;0,0113753
3630,3389;0,011152
3631,3032;0,0110782
3632,2673;0,0110476
3633,2317;0,0109793
3634,1958;0,0108497
3635,1602;0,0106807
3636,1243;0,0105098
3637,0886;0,0103609
3638,0527;0,0102357
3639,0171;0,0101267
3639,9812;0,0100369
3640,9456;0,00998557
3641,9097;0,0099946
3642,8740;0,0100682
3643,8381;0,0101823
3644,8025;0,0102859
3645,7666;0,0103043
3646,7310;0,0101428
3647,6951;0,00973077
3648,6594;0,00914362
3649,6235;0,00863545
3650,5879;0,00839904
3651,5520;0,00839891
3652,5164;0,00848466
3653,4805;0,00852784
3654,4448;0,00846865
3655,4089;0,00831975
3656,3733;0,00814946
3657,3374;0,00803407
3658,3018;0,00800224
3659,2659;0,00802561
3660,2302;0,00805879
3661,1943;0,00808083
3662,1587;0,00810565
3663,1228;0,00816093
3664,0872;0,00825629
3665,0513;0,0083691
3666,0156;0,00845615
3666,9797;0,00847925
3667,9441;0,00843115
3668,9082;0,00835117
3669,8726;0,00830583
3670,8367;0,00832829
3671,8010;0,00837991
3672,7651;0,00837837
3673,7295;0,00825391
3674,6936;0,00800256
3675,6580;0,00771665
3676,6221;0,00753025
3677,5864;0,0075013
3678,5505;0,00758449
3679,5149;0,0077072
3680,4790;0,00783103
3681,4434;0,00795814
3682,4075;0,00810578
3683,3718;0,00827788
3684,3359;0,00845321
3685,3003;0,00859296
3686,2644;0,0086569
3687,2288;0,00862015
3688,1929;0,00849406
3689,1572;0,00834273
3690,1213;0,00825397
3691,0857;0,00827032
3692,0498;0,00836881
3693,0142;0,00850327
3693,9783;0,00864178
3694,9426;0,00877237
3695,9067;0,00889128
3696,8711;0,00899107
3697,8352;0,0090574
3698,7996;0,00907555
3699,7637;0,00904269
3700,7280;0,00897863
3701,6921;0,00892463
3702,6565;0,00892331
3703,6206;0,00899235
3704,5850;0,00911606
3705,5491;0,00925732
3706,5134;0,00937074
3707,4775;0,00940442
3708,4419;0,00929685
3709,4060;0,00899427
3710,3704;0,00851279
3711,3345;0,00799227
3712,2988;0,0076232
3713,2629;0,00750175
3714,2273;0,00759729
3715,1914;0,00782429
3716,1558;0,00810568
3717,1199;0,0083946
3718,0842;0,0086718
3719,0483;0,00893405
3720,0127;0,00918035
3720,9768;0,0094013
3721,9412;0,00957789
3722,9053;0,00969186
3723,8696;0,00974139
3724,8337;0,00974977
3725,7981;0,0097556
3726,7622;0,0097891
3727,7266;0,00985573
3728,6907;0,00993987
3729,6550;0,0100187
3730,6191;0,0100698
3731,5835;0,0100655
3732,5476;0,00996234
3733,5120;0,00970984
3734,4761;0,00930803
3735,4404;0,00886494
3736,4045;0,00853988
3737,3689;0,00841148
3738,3330;0,00843755
3739,2974;0,00851327
3740,2615;0,00853252
3741,2258;0,00841981
3742,1899;0,00815485
3743,1543;0,00780515
3744,1184;0,00752589
3745,0828;0,00745447
3746,0469;0,007581
3747,0112;0,00776428
3747,9753;0,00784021
3748,9397;0,0076994
3749,9038;0,00734694
3750,8682;0,00694558
3751,8323;0,0067193
3752,7966;0,00675314
3753,7607;0,00695814
3754,7251;0,00719265
3755,6892;0,00734977
3756,6536;0,00737863
3757,6177;0,00728693
3758,5820;0,00713719
3759,5461;0,00701557
3760,5105;0,00697875
3761,4746;0,00702746
3762,4390;0,00712423
3763,4031;0,00722416
3764,3674;0,00729306
3765,3315;0,0073119
3766,2959;0,00727457
3767,2600;0,00718436
3768,2244;0,0070539
3769,1885;0,00690914
3770,1528;0,00678991
3771,1169;0,0067364
3772,0813;0,00676697
3773,0454;0,00686684
3774,0098;0,00699658
3774,9739;0,00710968
3775,9382;0,00716839
3776,9023;0,00715615
3777,8667;0,00708696
3778,8308;0,00700298
3779,7952;0,00695014
3780,7593;0,00694746
3781,7236;0,00697949
3782,6877;0,00701415
3783,6521;0,00702481
3784,6162;0,00700266
3785,5806;0,00695762
3786,5447;0,00691044
3787,5090;0,00688176
3788,4731;0,00688386
3789,4375;0,00691809
3790,4016;0,00697697
3791,3660;0,00704942
3792,3301;0,00712697
3793,2944;0,00720826
3794,2585;0,00729786
3795,2229;0,00739796
3796,1870;0,00749712
3797,1514;0,00756554
3798,1155;0,00756433
3799,0798;0,00746825
3800,0439;0,00729411
3801,0083;0,00711063
3801,9724;0,00699761
3802,9368;0,00697765
3803,9009;0,00699876
3804,8652;0,0069831
3805,8293;0,00689016
3806,7937;0,00675378
3807,7578;0,00666549
3808,7222;0,00670076
3809,6863;0,0068574
3810,6506;0,00706861
3811,6147;0,00725667
3812,5791;0,00737266
3813,5432;0,0074121
3814,5076;0,00741229
3815,4717;0,00742526
3816,4360;0,00747099
3817,4001;0,00751235
3818,3645;0,00748231
3819,3286;0,00734091
3820,2930;0,00712229
3821,2571;0,00692778
3822,2214;0,00684832
3823,1855;0,00689299
3824,1499;0,00700246
3825,1140;0,00710872
3826,0784;0,00717476
3827,0425;0,00720095
3828,0068;0,00721083
3828,9709;0,00723062
3829,9353;0,00727458
3830,8994;0,00734263
3831,8638;0,00742591
3832,8279;0,00751148
3833,7922;0,00758267
3834,7563;0,00761846
3835,7207;0,00759778
3836,6848;0,0075112
3837,6492;0,0073746
3838,6133;0,00722777
3839,5776;0,00710809
3840,5417;0,0070241
3841,5061;0,00696057
3842,4702;0,00690686
3843,4346;0,00687778
3844,3987;0,00690896
3845,3630;0,00703137
3846,3271;0,00724618
3847,2915;0,00751865
3848,2556;0,00778908
3849,2200;0,00798441
3850,1841;0,00802099
3851,1484;0,00781146
3852,1125;0,00732635
3853,0769;0,00672392
3854,0410;0,00631568
3855,0054;0,00626098
3855,9695;0,00646753
3856,9338;0,00677289
3857,8979;0,00706573
3858,8623;0,00729358
3859,8264;0,00743889
3860,7908;0,0075017
3861,7549;0,00749507
3862,7192;0,00744805
3863,6833;0,00740105
3864,6477;0,00738563
3865,6118;0,00740608
3866,5762;0,00744188
3867,5403;0,00746326
3868,5046;0,00744457
3869,4688;0,0073732
3870,4331;0,00725746
3871,3972;0,00712887
3872,3616;0,00703027
3873,3257;0,00699421
3874,2900;0,00702766
3875,2542;0,00711177
3876,2185;0,00721302
3877,1826;0,00729785
3878,1470;0,00734556
3879,1111;0,00735515
3880,0754;0,00734076
3881,0396;0,00731488
3882,0039;0,00727355
3882,9680;0,00720244
3883,9324;0,0071017
3884,8965;0,00700261
3885,8608;0,00695157
3886,8250;0,00697052
3887,7893;0,00703433
3888,7534;0,00708772
3889,7178;0,00708421
3890,6819;0,00702206
3891,6462;0,006954
3892,6104;0,00695058
3893,5747;0,00704077
3894,5388;0,00719408
3895,5032;0,00735369
3896,4673;0,00747454
3897,4316;0,00753934
3898,3958;0,00755488
3899,3601;0,00753603
3900,3242;0,00748662
3901,2886;0,00739435
3902,2527;0,00724927
3903,2170;0,00706951
3904,1812;0,00690279
3905,1455;0,00679533
3906,1096;0,00676092
3907,0740;0,00678087
3908,0381;0,00682623
3909,0024;0,00687791
3909,9666;0,00693261
3910,9309;0,00699638
3911,8950;0,00707249
3912,8594;0,00715213
3913,8235;0,00721448
3914,7878;0,0072367
3915,7520;0,00720952
3916,7163;0,00714972
3917,6804;0,00709635
3918,6448;0,00708613
3919,6089;0,00712708
3920,5732;0,00719448
3921,5374;0,00724922
3922,5017;0,00726216
3923,4658;0,0072317
3924,4302;0,00718537
3925,3943;0,0071609
3926,3586;0,00717885
3927,3228;0,00722945
3928,2871;0,00728094
3929,2512;0,00729849
3930,2156;0,00726249
3931,1797;0,00718002
3932,1440;0,00708232
3933,1082;0,00700636
3934,0725;0,00697449
3935,0366;0,00698832
3936,0010;0,00703572
3936,9651;0,00709959
3937,9294;0,00716235
3938,8936;0,0072081
3939,8579;0,00722593
3940,8220;0,00721523
3941,7864;0,00718882
3942,7505;0,00716793
3943,7148;0,00716924
3944,6790;0,00719328
3945,6433;0,00722402
3946,6074;0,00723885
3947,5718;0,00722166
3948,5359;0,00717221
3949,5002;0,00710647
3950,4644;0,00704667
3951,4287;0,0070085
3952,3928;0,00699536
3953,3572;0,00700209
3954,3213;0,00702167
3955,2856;0,0070491
3956,2498;0,007081
3957,2141;0,0071131
3958,1782;0,00713875
3959,1426;0,00715018
3960,1067;0,00714212
3961,0710;0,00711566
3962,0352;0,00707954
3962,9995;0,00704711
3963,9636;0,00703032
3964,9280;0,00703438
3965,8921;0,00705573
3966,8564;0,00708426
3967,8206;0,00710819
3968,7849;0,00711936
3969,7490;0,00711634
3970,7134;0,00710376
3971,6775;0,0070886
3972,6418;0,00707615
3973,6060;0,00706806
3974,5703;0,00706304
3975,5344;0,00705886
3976,4988;0,00705382
3977,4629;0,00704686
3978,4272;0,00703705
3979,3914;0,00702379
3980,3557;0,00700801
3981,3198;0,00699331
3982,2842;0,00698536
3983,2483;0,00698904
3984,2126;0,00700494
3985,1768;0,00702794
3986,1411;0,0070494
3987,1052;0,007062
3988,0696;0,00706408
3989,0337;0,00706034
3989,9980;0,00705809
3990,9622;0,0070617
3991,9265;0,00706943
3992,8906;0,00707511
3993,8550;0,00707334
3994,8191;0,00706381
3995,7834;0,00705148
3996,7476;0,00704261
3997,7119;0,00704021
3998,6760;0,00704264
3999,6404;0,00704605
4000,6045;0,0070859

##### Extended Information
[Comments]
Sample name
Comment
Username
Division
Organization;UNIVERSIDAD INDUSTRIAL DE SANTANDER

[Detailed Information]
Creation date;4/02/2025 2:03 p.m.

Data array type;Linear data array
Horizontal axis;Wavenumber [cm-1]
Vertical axis;Abs
Start;399,193 cm-1
End;4000,6 cm-1
Data interval;0,964233 cm-1
Data points;3736    

[Measurement Information]
Model name;FT/IR-4X1typeA
Serial No.;A035162111

Accessory;ATR PRO 4X
Accessory S/N;A021162126
Incident angle;45 deg

Measurement date;4/02/2025 2:03 p.m.

Light source;Standard
Detector;TGS
Accumulation;Auto (72)
Resolution;4 cm-1
Zero filling;On
Apodization;Cosine
Gain;Auto (8)
Aperture;Auto (7 mm)
Scan speed;Auto (2 mm/sec)
Filter;Auto (12800 Hz)

