TITLE;
DATA TYPE;INFRARED SPECTRUM
ORIGIN;JASCO
OWNER;
DATE;25/02/04
TIME;09:28:33
SPECTROMETER/DATA SYSTEM;
LOCALE;9226
RESOLUTION;
DELTAX;0,964233
XUNITS;1/CM
YUNITS;ABSORBANCE
FIRSTX;  399,1927
LASTX; 4000,6047
NPOINTS;    3736
FIRSTY;     0,16188
MAXY;     0,18195
MINY;    -0,00205
XYDATA
399,1927;0,161879
400,1569;0,162037
401,1211;0,161406
402,0854;0,160016
403,0496;0,15811
404,0138;0,156058
404,9781;0,154281
405,9423;0,153127
406,9065;0,152725
407,8708;0,152913
408,8350;0,153337
409,7992;0,153633
410,7635;0,153568
411,7277;0,153096
412,6919;0,152321
413,6562;0,151397
414,6204;0,150457
415,5846;0,149613
416,5489;0,149013
417,5131;0,148846
418,4773;0,149195
419,4416;0,149808
420,4058;0,150237
421,3700;0,150286
422,3343;0,150111
423,2985;0,150012
424,2627;0,150241
425,2270;0,150884
426,1912;0,151811
427,1554;0,15275
428,1197;0,153437
429,0839;0,153747
430,0481;0,153731
431,0124;0,153563
431,9766;0,153449
432,9408;0,153528
433,9051;0,153819
434,8693;0,154228
435,8335;0,154593
436,7978;0,154759
437,7620;0,154644
438,7262;0,15426
439,6905;0,153696
440,6547;0,153085
441,6189;0,152575
442,5832;0,152282
443,5474;0,152246
444,5116;0,152411
445,4759;0,152655
446,4401;0,152859
447,4043;0,152947
448,3686;0,152897
449,3328;0,152725
450,2970;0,152469
451,2613;0,152167
452,2255;0,151842
453,1897;0,151495
454,1540;0,15112
455,1182;0,150734
456,0824;0,150412
457,0467;0,150292
458,0109;0,150501
458,9751;0,151046
459,9394;0,151777
460,9036;0,152482
461,8678;0,153001
462,8321;0,153282
463,7963;0,153359
464,7605;0,153309
465,7248;0,153194
466,6890;0,153019
467,6532;0,152735
468,6175;0,152289
469,5817;0,151688
470,5459;0,151042
471,5102;0,150548
472,4744;0,150398
473,4386;0,150659
474,4029;0,151232
475,3671;0,151923
476,3313;0,152546
477,2956;0,152963
478,2598;0,153079
479,2240;0,152844
480,1883;0,152278
481,1525;0,151493
482,1167;0,150699
483,0810;0,150146
484,0452;0,15002
485,0094;0,150338
485,9737;0,150921
486,9379;0,151495
487,9021;0,151837
488,8664;0,151858
489,8306;0,151611
490,7948;0,151243
491,7591;0,150919
492,7233;0,150752
493,6875;0,150774
494,6518;0,150939
495,6160;0,151165
496,5802;0,151368
497,5445;0,151477
498,5087;0,151447
499,4729;0,151268
500,4372;0,150974
501,4014;0,150637
502,3656;0,150336
503,3299;0,150126
504,2941;0,150014
505,2583;0,14998
506,2226;0,150007
507,1868;0,150106
508,1510;0,150308
509,1153;0,150641
510,0795;0,1511
511,0437;0,151635
512,0080;0,152167
512,9722;0,152607
513,9365;0,152882
514,9007;0,152963
515,8649;0,152884
516,8292;0,152747
517,7934;0,152689
518,7576;0,152802
519,7219;0,153071
520,6861;0,153374
521,6503;0,153551
522,6146;0,15349
523,5788;0,153172
524,5430;0,152693
525,5073;0,152235
526,4715;0,151971
527,4357;0,151969
528,4000;0,152156
529,3642;0,152368
530,3284;0,152444
531,2927;0,152288
532,2569;0,151894
533,2211;0,151333
534,1854;0,150718
535,1496;0,150158
536,1138;0,149725
537,0781;0,149441
538,0423;0,149291
539,0065;0,149244
539,9708;0,149266
540,9350;0,14933
541,8992;0,149419
542,8635;0,149522
543,8277;0,149629
544,7919;0,149736
545,7562;0,14984
546,7204;0,149951
547,6846;0,150087
548,6489;0,150273
549,6131;0,150531
550,5773;0,150862
551,5416;0,151247
552,5058;0,151639
553,4700;0,151984
554,4343;0,152231
555,3985;0,152346
556,3627;0,152306
557,3270;0,152097
558,2912;0,151704
559,2554;0,151114
560,2197;0,150334
561,1839;0,149394
562,1481;0,148344
563,1124;0,147237
564,0766;0,146115
565,0408;0,145009
566,0051;0,14396
566,9693;0,143031
567,9335;0,142299
568,8978;0,141813
569,8620;0,141555
570,8262;0,141434
571,7905;0,141329
572,7547;0,141145
573,7189;0,140854
574,6832;0,140493
575,6474;0,140127
576,6116;0,139809
577,5759;0,139552
578,5401;0,139337
579,5043;0,139149
580,4686;0,138992
581,4328;0,138889
582,3970;0,138858
583,3613;0,138894
584,3255;0,138957
585,2897;0,138995
586,2540;0,138966
587,2182;0,138853
588,1824;0,138669
589,1467;0,138449
590,1109;0,138232
591,0751;0,138052
592,0394;0,13792
593,0036;0,137827
593,9678;0,137745
594,9321;0,13765
595,8963;0,137526
596,8605;0,137377
597,8248;0,137211
598,7890;0,137034
599,7532;0,136838
600,7175;0,136609
601,6817;0,136332
602,6459;0,136006
603,6102;0,135653
604,5744;0,135308
605,5386;0,135
606,5029;0,134732
607,4671;0,134469
608,4313;0,134146
609,3956;0,133712
610,3598;0,133169
611,3240;0,132596
612,2883;0,132125
613,2525;0,131871
614,2167;0,131853
615,1810;0,131946
616,1452;0,131914
617,1094;0,131515
618,0737;0,130634
619,0379;0,129355
620,0021;0,127913
620,9664;0,12656
621,9306;0,12546
622,8948;0,12465
623,8591;0,124071
624,8233;0,123569
625,7875;0,123164
626,7518;0,122805
627,7160;0,122469
628,6802;0,122132
629,6445;0,121773
630,6087;0,121373
631,5729;0,120933
632,5372;0,120481
633,5014;0,120059
634,4656;0,119711
635,4299;0,119463
636,3941;0,11932
637,3583;0,11926
638,3226;0,119248
639,2868;0,119244
640,2510;0,119217
641,2153;0,11915
642,1795;0,119052
643,1437;0,118948
644,1080;0,118866
645,0722;0,118819
646,0364;0,118792
647,0007;0,118744
647,9649;0,118635
648,9291;0,118445
649,8934;0,118194
650,8576;0,117939
651,8218;0,117743
652,7861;0,117658
653,7503;0,117696
654,7145;0,117836
655,6788;0,118026
656,6430;0,118208
657,6072;0,118347
658,5715;0,118439
659,5357;0,118486
660,4999;0,118455
661,4642;0,118244
662,4284;0,1177
663,3926;0,116672
664,3569;0,115144
665,3211;0,113416
666,2853;0,112192
667,2496;0,112192
668,2138;0,113181
669,1780;0,113981
670,1423;0,11409
671,1065;0,113763
672,0707;0,113096
673,0350;0,112047
673,9992;0,110712
674,9634;0,109319
675,9277;0,108072
676,8919;0,107031
677,8561;0,106124
678,8204;0,105257
679,7846;0,104388
680,7488;0,103539
681,7131;0,102745
682,6773;0,102014
683,6415;0,101327
684,6058;0,10066
685,5700;0,100018
686,5342;0,0994316
687,4985;0,0989389
688,4627;0,0985706
689,4269;0,098312
690,3912;0,0981264
691,3554;0,0979684
692,3196;0,0977968
693,2839;0,0975838
694,2481;0,0973198
695,2123;0,0970121
696,1766;0,0966776
697,1408;0,0963307
698,1050;0,0959744
699,0693;0,0956
700,0335;0,0951951
700,9977;0,0947533
701,9620;0,094281
702,9262;0,0937939
703,8904;0,0932902
704,8547;0,0927887
705,8189;0,0923007
706,7831;0,0918341
707,7474;0,0913921
708,7116;0,0909685
709,6758;0,0905403
710,6401;0,0900666
711,6043;0,089502
712,5685;0,088824
713,5328;0,0880601
714,4970;0,0872907
715,4612;0,0854987
716,4255;0,0852283
717,3897;0,0852008
718,3539;0,0852452
719,3182;0,0851068
720,2824;0,0845739
721,2466;0,0835972
722,2109;0,0823154
723,1751;0,0809662
724,1393;0,0797585
725,1036;0,0787926
726,0678;0,0780539
727,0320;0,0774595
727,9963;0,0769183
728,9605;0,0763739
729,9247;0,0758152
730,8890;0,0752611
731,8532;0,0747369
732,8174;0,0742606
733,7817;0,073839
734,7459;0,0734714
735,7101;0,0731525
736,6744;0,0728724
737,6386;0,0726155
738,6028;0,0723607
739,5671;0,0720866
740,5313;0,0717795
741,4955;0,0714394
742,4598;0,0710807
743,4240;0,0707241
744,3882;0,0703867
745,3525;0,0700742
746,3167;0,0697803
747,2809;0,0694926
748,2452;0,0691995
749,2094;0,0688946
750,1736;0,0685773
751,1379;0,0682509
752,1021;0,0679217
753,0663;0,0675972
754,0306;0,067284
754,9948;0,0669839
755,9590;0,0666911
756,9233;0,0663939
757,8875;0,0660802
758,8517;0,0657455
759,8160;0,0653965
760,7802;0,0650486
761,7444;0,064718
762,7087;0,0644126
763,6729;0,0641284
764,6371;0,0638521
765,6014;0,0635702
766,5656;0,0632774
767,5298;0,0629809
768,4941;0,0626956
769,4583;0,0624342
770,4225;0,0621968
771,3868;0,0619687
772,3510;0,0617275
773,3152;0,0614568
774,2795;0,0611574
775,2437;0,0608489
776,2079;0,0605592
777,1722;0,0603087
778,1364;0,0600985
779,1006;0,0599091
780,0649;0,0597106
781,0291;0,0594773
781,9933;0,0591995
782,9576;0,0588869
783,9218;0,0585629
784,8860;0,0582541
785,8503;0,0579787
786,8145;0,0577399
787,7787;0,0575262
788,7430;0,0573194
789,7072;0,0571046
790,6714;0,0568781
791,6357;0,0566484
792,5999;0,0564305
793,5641;0,0562372
794,5284;0,0560744
795,4926;0,0559394
796,4568;0,0558243
797,4211;0,055718
798,3853;0,0556083
799,3495;0,0554835
800,3138;0,0553363
801,2780;0,0551679
802,2422;0,0549891
803,2065;0,0548163
804,1707;0,0546622
805,1349;0,0545294
806,0992;0,0544101
807,0634;0,0542937
808,0276;0,0541746
808,9919;0,0540558
809,9561;0,053944
810,9203;0,0538425
811,8846;0,0537484
812,8488;0,0536555
813,8130;0,0535626
814,7773;0,0534766
815,7415;0,0534091
816,7057;0,0533686
817,6700;0,0533534
818,6342;0,0533519
819,5984;0,0533492
820,5627;0,0533355
821,5269;0,0533099
822,4911;0,0532794
823,4554;0,0532522
824,4196;0,0532332
825,3839;0,0532217
826,3481;0,0532123
827,3123;0,0531978
828,2766;0,0531707
829,2408;0,0531244
830,2050;0,0530532
831,1693;0,0529536
832,1335;0,0528255
833,0977;0,052675
834,0620;0,0525144
835,0262;0,0523594
835,9904;0,0522233
836,9547;0,0521103
837,9189;0,0520122
838,8831;0,0519114
839,8474;0,0517893
840,8116;0,0516362
841,7758;0,0514572
842,7401;0,0512703
843,7043;0,0510982
844,6685;0,0509577
845,6328;0,0508533
846,5970;0,050777
847,5612;0,0507142
848,5255;0,0506515
849,4897;0,0505833
850,4539;0,0505131
851,4182;0,0504503
852,3824;0,0504043
853,3466;0,0503796
854,3109;0,0503733
855,2751;0,0503767
856,2393;0,0503808
857,2036;0,0503804
858,1678;0,0503768
859,1320;0,0503761
860,0963;0,0503859
861,0605;0,0504117
862,0247;0,0504555
862,9890;0,0505172
863,9532;0,0505968
864,9174;0,0506969
865,8817;0,0508226
866,8459;0,0509801
867,8101;0,0511734
868,7744;0,051401
869,7386;0,0516539
870,7028;0,0519158
871,6671;0,0521668
872,6313;0,0523896
873,5955;0,0525751
874,5598;0,0527247
875,5240;0,0528487
876,4882;0,0529622
877,4525;0,0530803
878,4167;0,0532166
879,3809;0,0533838
880,3452;0,0535945
881,3094;0,0538609
882,2736;0,0541923
883,2379;0,0545925
884,2021;0,0550593
885,1663;0,0555864
886,1306;0,0561672
887,0948;0,0567956
888,0590;0,0574653
889,0233;0,0581669
889,9875;0,0588859
890,9517;0,0596034
891,9160;0,0602979
892,8802;0,060947
893,8444;0,0615279
894,8087;0,0620177
895,7729;0,0623944
896,7371;0,0626411
897,7014;0,0627503
898,6656;0,0627261
899,6298;0,0625835
900,5941;0,0623428
901,5583;0,0620265
902,5225;0,061658
903,4868;0,0612637
904,4510;0,0608745
905,4152;0,0605231
906,3795;0,0602354
907,3437;0,0600228
908,3079;0,0598783
909,2722;0,0597831
910,2364;0,0597188
911,2007;0,0596792
912,1649;0,0596743
913,1292;0,0597232
914,0934;0,0598421
915,0576;0,0600333
916,0219;0,0602832
916,9861;0,0605687
917,9503;0,0608671
918,9146;0,0611648
919,8788;0,0614588
920,8430;0,0617537
921,8073;0,0620557
922,7715;0,062368
923,7357;0,0626875
924,7000;0,0630036
925,6642;0,0633002
926,6284;0,0635603
927,5927;0,0637724
928,5569;0,0639369
929,5211;0,0640677
930,4854;0,0641875
931,4496;0,0643195
932,4138;0,0644795
933,3781;0,064673
934,3423;0,0648988
935,3065;0,0651554
936,2708;0,0654457
937,2350;0,0657777
938,1992;0,0661618
939,1635;0,0666067
940,1277;0,0671167
941,0919;0,0676912
942,0562;0,0683247
943,0204;0,0690091
943,9846;0,0697364
944,9489;0,0705025
945,9131;0,0713098
946,8773;0,0721661
947,8416;0,0730805
948,8058;0,0740585
949,7700;0,0751008
950,7343;0,0762066
951,6985;0,0773776
952,6627;0,0786195
953,6270;0,0799381
954,5912;0,0813311
955,5554;0,0827848
956,5197;0,0842768
957,4839;0,0857853
958,4481;0,0872999
959,4124;0,0888248
960,3766;0,0903748
961,3408;0,091965
962,3051;0,0936024
963,2693;0,0952822
964,2335;0,0969909
965,1978;0,0987134
966,1620;0,10044
967,1262;0,102172
968,0905;0,103922
969,0547;0,105712
970,0189;0,107569
970,9832;0,109521
971,9474;0,111589
972,9116;0,113789
973,8759;0,116129
974,8401;0,118615
975,8043;0,121245
976,7686;0,124006
977,7328;0,126872
978,6970;0,129795
979,6613;0,13271
980,6255;0,135541
981,5897;0,138212
982,5540;0,140656
983,5182;0,142826
984,4824;0,144704
985,4467;0,146304
986,4109;0,147663
987,3751;0,148836
988,3394;0,149878
989,3036;0,150839
990,2678;0,151751
991,2321;0,152629
992,1963;0,153475
993,1605;0,154277
994,1248;0,155021
995,0890;0,155689
996,0532;0,156272
997,0175;0,156772
997,9817;0,157202
998,9459;0,157587
999,9102;0,157957
1000,8744;0,158343
1001,8386;0,158772
1002,8029;0,15927
1003,7671;0,159859
1004,7313;0,160558
1005,6956;0,161387
1006,6598;0,162361
1007,6240;0,163491
1008,5883;0,164778
1009,5525;0,166213
1010,5167;0,167766
1011,4810;0,169394
1012,4452;0,171035
1013,4094;0,172627
1014,3737;0,174113
1015,3379;0,175449
1016,3021;0,176608
1017,2664;0,177583
1018,2306;0,17838
1019,1948;0,17902
1020,1591;0,179532
1021,1233;0,179951
1022,0875;0,180307
1023,0518;0,180625
1024,0160;0,18092
1024,9802;0,181196
1025,9445;0,181452
1026,9087;0,181677
1027,8729;0,181853
1028,8372;0,181954
1029,8014;0,18194
1030,7656;0,181761
1031,7299;0,181366
1032,6941;0,180713
1033,6583;0,179781
1034,6226;0,178589
1035,5868;0,177196
1036,5510;0,1757
1037,5153;0,174216
1038,4795;0,172853
1039,4437;0,171693
1040,4080;0,170776
1041,3722;0,170106
1042,3364;0,169659
1043,3007;0,169387
1044,2649;0,169239
1045,2291;0,169158
1046,1934;0,169092
1047,1576;0,168997
1048,1218;0,168835
1049,0861;0,168576
1050,0503;0,168193
1051,0145;0,16766
1051,9788;0,166961
1052,9430;0,16609
1053,9072;0,165057
1054,8715;0,163871
1055,8357;0,162533
1056,7999;0,161022
1057,7642;0,159297
1058,7284;0,157321
1059,6926;0,155084
1060,6569;0,152624
1061,6211;0,150028
1062,5853;0,147406
1063,5496;0,144864
1064,5138;0,14248
1065,4780;0,140292
1066,4423;0,138305
1067,4065;0,136505
1068,3707;0,134863
1069,3350;0,133352
1070,2992;0,131935
1071,2634;0,130578
1072,2277;0,129238
1073,1919;0,127878
1074,1561;0,126463
1075,1204;0,124967
1076,0846;0,123384
1077,0488;0,121722
1078,0131;0,120014
1078,9773;0,11831
1079,9415;0,116668
1080,9058;0,115145
1081,8700;0,113783
1082,8342;0,1126
1083,7985;0,11159
1084,7627;0,110731
1085,7269;0,109994
1086,6912;0,109357
1087,6554;0,10881
1088,6196;0,108355
1089,5839;0,107998
1090,5481;0,107742
1091,5123;0,107585
1092,4766;0,107516
1093,4408;0,10752
1094,4050;0,107584
1095,3693;0,107699
1096,3335;0,107859
1097,2977;0,108056
1098,2620;0,108279
1099,2262;0,108509
1100,1904;0,108718
1101,1547;0,108878
1102,1189;0,108959
1103,0831;0,108939
1104,0474;0,10881
1105,0116;0,108578
1105,9758;0,108265
1106,9401;0,107898
1107,9043;0,107494
1108,8685;0,107046
1109,8328;0,106519
1110,7970;0,105854
1111,7612;0,104993
1112,7255;0,103906
1113,6897;0,102616
1114,6539;0,101192
1115,6182;0,0997345
1116,5824;0,0983422
1117,5466;0,0970773
1118,5109;0,0959522
1119,4751;0,0949314
1120,4393;0,0939509
1121,4036;0,0929403
1122,3678;0,0918408
1123,3320;0,0906141
1124,2963;0,0892438
1125,2605;0,0877333
1126,2247;0,0861035
1127,1890;0,0843889
1128,1532;0,0826313
1129,1174;0,0808706
1130,0817;0,0791375
1131,0459;0,0774504
1132,0101;0,0758196
1132,9744;0,0742569
1133,9386;0,0727831
1134,9028;0,0714302
1135,8671;0,0702358
1136,8313;0,0692339
1137,7955;0,068446
1138,7598;0,0678788
1139,7240;0,0675258
1140,6882;0,0673706
1141,6525;0,0673895
1142,6167;0,0675525
1143,5809;0,067825
1144,5452;0,0681716
1145,5094;0,068563
1146,4736;0,0689814
1147,4379;0,0694227
1148,4021;0,0698921
1149,3663;0,0703964
1150,3306;0,0709349
1151,2948;0,0714941
1152,2590;0,0720479
1153,2233;0,0725625
1154,1875;0,0730028
1155,1517;0,0733368
1156,1160;0,0735356
1157,0802;0,0735681
1158,0444;0,0733953
1159,0087;0,0729682
1159,9729;0,0722318
1160,9371;0,0711374
1161,9014;0,0696586
1162,8656;0,0678032
1163,8298;0,0656181
1164,7941;0,0631829
1165,7583;0,0605976
1166,7225;0,0579669
1167,6868;0,0553862
1168,6510;0,052932
1169,6152;0,0506573
1170,5795;0,0485911
1171,5437;0,0467432
1172,5079;0,0451106
1173,4722;0,0436835
1174,4364;0,0424479
1175,4006;0,0413865
1176,3649;0,0404776
1177,3291;0,039696
1178,2933;0,0390171
1179,2576;0,0384208
1180,2218;0,0378953
1181,1860;0,0374367
1182,1503;0,0370471
1183,1145;0,0367307
1184,0787;0,0364917
1185,0430;0,0363329
1186,0072;0,0362559
1186,9714;0,0362604
1187,9357;0,0363449
1188,8999;0,0365073
1189,8641;0,0367458
1190,8284;0,0370587
1191,7926;0,0374442
1192,7568;0,037898
1193,7211;0,0384129
1194,6853;0,038978
1195,6495;0,0395808
1196,6138;0,0402083
1197,5780;0,0408478
1198,5422;0,0414878
1199,5065;0,0423975
1200,4707;0,0429768
1201,4349;0,0435312
1202,3992;0,0440597
1203,3634;0,0445611
1204,3276;0,0450315
1205,2919;0,0454637
1206,2561;0,045851
1207,2203;0,0461937
1208,1846;0,0465049
1209,1488;0,0468123
1210,1130;0,0471523
1211,0773;0,0475588
1212,0415;0,0480525
1213,0057;0,0486344
1213,9700;0,0492881
1214,9342;0,0499893
1215,8984;0,0507143
1216,8627;0,0514494
1217,8269;0,0521904
1218,7911;0,0529355
1219,7554;0,0536813
1220,7196;0,054421
1221,6838;0,0551447
1222,6481;0,0558423
1223,6123;0,0565062
1224,5765;0,0571325
1225,5408;0,0577203
1226,5050;0,0582709
1227,4692;0,0587856
1228,4335;0,0592652
1229,3977;0,059709
1230,3619;0,0601136
1231,3262;0,0604733
1232,2904;0,0607805
1233,2546;0,0610285
1234,2189;0,0612146
1235,1831;0,0613428
1236,1473;0,0614237
1237,1116;0,0614703
1238,0758;0,061493
1239,0400;0,0614959
1240,0043;0,0614761
1240,9685;0,0614276
1241,9327;0,0613452
1242,8970;0,0612262
1243,8612;0,0610699
1244,8254;0,060875
1245,7897;0,0606396
1246,7539;0,0603629
1247,7181;0,0600487
1248,6824;0,0597069
1249,6466;0,0593517
1250,6108;0,0589983
1251,5751;0,0586595
1252,5393;0,0583429
1253,5035;0,05805
1254,4678;0,0577761
1255,4320;0,0575112
1256,3962;0,0572436
1257,3605;0,0569651
1258,3247;0,0566749
1259,2889;0,0563792
1260,2532;0,0560854
1261,2174;0,0557932
1262,1816;0,05549
1263,1459;0,0551543
1264,1101;0,0547652
1265,0743;0,0543125
1266,0386;0,0538008
1267,0028;0,0532459
1267,9670;0,0526687
1268,9313;0,0520877
1269,8955;0,0515155
1270,8597;0,0509581
1271,8240;0,0504151
1272,7882;0,0498812
1273,7524;0,0493487
1274,7167;0,0488117
1275,6809;0,0482702
1276,6451;0,0477305
1277,6094;0,0472026
1278,5736;0,046694
1279,5378;0,0462045
1280,5021;0,0457263
1281,4663;0,045248
1282,4305;0,0447622
1283,3948;0,0442703
1284,3590;0,0437837
1285,3232;0,0433205
1286,2875;0,0429004
1287,2517;0,0425395
1288,2159;0,0422458
1289,1802;0,0420178
1290,1444;0,0418471
1291,1086;0,0417234
1292,0729;0,0416414
1293,0371;0,0416039
1294,0013;0,0416198
1294,9656;0,0416989
1295,9298;0,0418456
1296,8940;0,0420569
1297,8583;0,042325
1298,8225;0,0426424
1299,7867;0,0430052
1300,7510;0,0434132
1301,7152;0,0438628
1302,6794;0,0443506
1303,6437;0,0448739
1304,6079;0,0454291
1305,5721;0,0460136
1306,5364;0,0466225
1307,5006;0,047245
1308,4648;0,0478653
1309,4291;0,0484679
1310,3933;0,0490426
1311,3575;0,0495854
1312,3218;0,0500914
1313,2860;0,0505456
1314,2502;0,0509187
1315,2145;0,0511748
1316,1787;0,0512881
1317,1429;0,0512604
1318,1072;0,0511274
1319,0714;0,0509472
1320,0356;0,0507735
1320,9999;0,0506322
1321,9641;0,0505185
1322,9283;0,0504127
1323,8926;0,0502994
1324,8568;0,0501792
1325,8210;0,0500661
1326,7853;0,049977
1327,7495;0,0499207
1328,7137;0,0498918
1329,6780;0,0498751
1330,6422;0,0498498
1331,6064;0,0497941
1332,5707;0,0496868
1333,5349;0,0495013
1334,4991;0,0492057
1335,4634;0,0487677
1336,4276;0,0481727
1337,3918;0,047456
1338,3561;0,0467228
1339,3203;0,0461107
1340,2845;0,0457014
1341,2488;0,04547
1342,2130;0,0453262
1343,1772;0,0451864
1344,1415;0,0450081
1345,1057;0,0447896
1346,0699;0,0445604
1347,0342;0,0443688
1347,9984;0,0442626
1348,9626;0,0442695
1349,9269;0,0443866
1350,8911;0,0445847
1351,8553;0,0448249
1352,8196;0,0450776
1353,7838;0,0453368
1354,7480;0,0456193
1355,7123;0,045948
1356,6765;0,0463293
1357,6407;0,0467422
1358,6050;0,0471431
1359,5692;0,0474861
1360,5334;0,0477565
1361,4977;0,0479981
1362,4619;0,0482849
1363,4261;0,0486448
1364,3904;0,0490339
1365,3546;0,0493914
1366,3188;0,0496878
1367,2831;0,049923
1368,2473;0,0501012
1369,2115;0,050212
1370,1758;0,0502234
1371,1400;0,0500915
1372,1042;0,0497874
1373,0685;0,0493366
1374,0327;0,0488334
1374,9969;0,0483887
1375,9612;0,0480455
1376,9254;0,047754
1377,8896;0,0474234
1378,8539;0,0469809
1379,8181;0,0464041
1380,7823;0,0457275
1381,7466;0,0450192
1382,7108;0,044334
1383,6750;0,0436751
1384,6393;0,042997
1385,6035;0,0422601
1386,5677;0,041501
1387,5320;0,0408271
1388,4962;0,0403216
1389,4604;0,0399853
1390,4247;0,0397686
1391,3889;0,0396026
1392,3531;0,039404
1393,3174;0,0391038
1394,2816;0,0387073
1395,2458;0,0383204
1396,2101;0,0380904
1397,1743;0,0381053
1398,1385;0,0383474
1399,1028;0,0387214
1400,0670;0,0391181
1401,0313;0,0394651
1401,9955;0,0397446
1402,9597;0,0399809
1403,9240;0,0402211
1404,8882;0,0405122
1405,8524;0,040872
1406,8167;0,0412775
1407,7809;0,0416901
1408,7451;0,0420907
1409,7094;0,0424831
1410,6736;0,0428782
1411,6378;0,043283
1412,6021;0,043703
1413,5663;0,0441508
1414,5305;0,0446383
1415,4948;0,0451494
1416,4590;0,0456299
1417,4232;0,0460336
1418,3875;0,046366
1419,3517;0,0466208
1420,3159;0,0467254
1421,2802;0,0466406
1422,2444;0,0464336
1423,2086;0,0462134
1424,1729;0,0460469
1425,1371;0,0459274
1426,1013;0,0457848
1427,0656;0,0455184
1428,0298;0,0450455
1428,9940;0,0443628
1429,9583;0,0435817
1430,9225;0,042881
1431,8867;0,0424003
1432,8510;0,0421601
1433,8152;0,0420454
1434,7794;0,0418622
1435,7437;0,0414751
1436,7079;0,0409237
1437,6721;0,0403451
1438,6364;0,0398304
1439,6006;0,039435
1440,5648;0,0392145
1441,5291;0,0391892
1442,4933;0,0393186
1443,4575;0,039525
1444,4218;0,0397405
1445,3860;0,0399373
1446,3502;0,0401239
1447,3145;0,0403155
1448,2787;0,0405035
1449,2429;0,0406587
1450,2072;0,0407794
1451,1714;0,0409321
1452,1356;0,04121
1453,0999;0,0416172
1454,0641;0,0419493
1455,0283;0,0418099
1455,9926;0,0409816
1456,9568;0,0399731
1457,9210;0,0395198
1458,8853;0,0395197
1459,8495;0,0395559
1460,8137;0,0395514
1461,7780;0,0395462
1462,7422;0,0394471
1463,7064;0,0390781
1464,6707;0,038383
1465,6349;0,0375062
1466,5991;0,0366447
1467,5634;0,0359052
1468,5276;0,0352658
1469,4918;0,034547
1470,4561;0,0334351
1471,4203;0,0317
1472,3845;0,0295744
1473,3488;0,0277474
1474,3130;0,0266454
1475,2772;0,026063
1476,2415;0,0256295
1477,2057;0,0251701
1478,1699;0,0246728
1479,1342;0,0241781
1480,0984;0,0237255
1481,0626;0,0233405
1482,0269;0,023031
1482,9911;0,0227857
1483,9553;0,0225733
1484,9196;0,022335
1485,8838;0,0219802
1486,8480;0,0214378
1487,8123;0,0208065
1488,7765;0,0204405
1489,7407;0,0206468
1490,7050;0,0212963
1491,6692;0,0220407
1492,6334;0,0227059
1493,5977;0,0232855
1494,5619;0,0237744
1495,5261;0,0241344
1496,4904;0,0244007
1497,4546;0,0247242
1498,4188;0,0251909
1499,3831;0,025719
1500,3473;0,0262611
1501,3115;0,0269221
1502,2758;0,0278184
1503,2400;0,0288667
1504,2042;0,0296372
1505,1685;0,0294324
1506,1327;0,0280004
1507,0969;0,0264589
1508,0612;0,0260132
1509,0254;0,0262446
1509,9896;0,0264485
1510,9539;0,0265115
1511,9181;0,0264998
1512,8823;0,0263728
1513,8466;0,0260075
1514,8108;0,0253432
1515,7750;0,0244824
1516,7393;0,023633
1517,7035;0,022933
1518,6677;0,0223417
1519,6320;0,0217106
1520,5962;0,0209619
1521,5604;0,0201884
1522,5247;0,0195642
1523,4889;0,019203
1524,4531;0,0191248
1525,4174;0,0192856
1526,3816;0,0196026
1527,3458;0,0199848
1528,3101;0,0203733
1529,2743;0,0207454
1530,2385;0,021067
1531,2028;0,0212644
1532,1670;0,021291
1533,1312;0,0212301
1534,0955;0,0212678
1535,0597;0,0215515
1536,0239;0,0220984
1536,9882;0,0227221
1537,9524;0,0229324
1538,9166;0,0220591
1539,8809;0,0200634
1540,8451;0,0183959
1541,8093;0,0184097
1542,7736;0,0195297
1543,7378;0,0207326
1544,7020;0,0216562
1545,6663;0,0222942
1546,6305;0,0226995
1547,5947;0,0229302
1548,5590;0,0230486
1549,5232;0,0231008
1550,4874;0,0231034
1551,4517;0,0230644
1552,4159;0,0230252
1553,3801;0,0230748
1554,3444;0,0232938
1555,3086;0,0236348
1556,2728;0,0238476
1557,2371;0,023723
1558,2013;0,023699
1559,1655;0,0243431
1560,1298;0,0249186
1561,0940;0,0246909
1562,0582;0,0239885
1563,0225;0,0233962
1563,9867;0,0232102
1564,9509;0,0234187
1565,9152;0,0238309
1566,8794;0,024228
1567,8436;0,0245087
1568,8079;0,0247422
1569,7721;0,0250452
1570,7363;0,0254414
1571,7006;0,0258998
1572,6648;0,026399
1573,6290;0,0268907
1574,5933;0,0272984
1575,5575;0,0276433
1576,5217;0,0280783
1577,4860;0,0286424
1578,4502;0,0292019
1579,4144;0,0297086
1580,3787;0,0302437
1581,3429;0,0308666
1582,3071;0,0315513
1583,2714;0,0322313
1584,2356;0,0328665
1585,1998;0,0334614
1586,1641;0,0340407
1587,1283;0,0346153
1588,0925;0,0351691
1589,0568;0,0356701
1590,0210;0,0360877
1590,9852;0,0364018
1591,9495;0,0366038
1592,9137;0,0366994
1593,8779;0,0367144
1594,8422;0,036689
1595,8064;0,0366551
1596,7706;0,036613
1597,7349;0,0365327
1598,6991;0,0363789
1599,6633;0,0361414
1600,6276;0,0358489
1601,5918;0,0355574
1602,5560;0,0353166
1603,5203;0,0351398
1604,4845;0,035002
1605,4487;0,0348659
1606,4130;0,0347114
1607,3772;0,0345532
1608,3414;0,0344384
1609,3057;0,0344198
1610,2699;0,0345256
1611,2341;0,0347581
1612,1984;0,0350992
1613,1626;0,0354812
1614,1268;0,0357676
1615,0911;0,0358414
1616,0553;0,0357596
1617,0195;0,0357
1617,9838;0,035719
1618,9480;0,0357687
1619,9122;0,0358511
1620,8765;0,0359922
1621,8407;0,0361774
1622,8049;0,0363804
1623,7692;0,0366046
1624,7334;0,0368577
1625,6976;0,0371244
1626,6619;0,0373872
1627,6261;0,0376459
1628,5903;0,0379199
1629,5546;0,0382542
1630,5188;0,0387106
1631,4830;0,0393054
1632,4473;0,0399025
1633,4115;0,0401683
1634,3757;0,0397843
1635,3400;0,0389274
1636,3042;0,0382666
1637,2684;0,0381058
1638,2327;0,0381986
1639,1969;0,0383432
1640,1611;0,0385517
1641,1254;0,038892
1642,0896;0,0393562
1643,0538;0,0397818
1644,0181;0,039834
1644,9823;0,0391877
1645,9465;0,0379624
1646,9108;0,0368636
1647,8750;0,0365404
1648,8392;0,0371049
1649,8035;0,0383106
1650,7677;0,0396519
1651,7319;0,0403771
1652,6962;0,0400393
1653,6604;0,0391394
1654,6246;0,0382027
1655,5889;0,0371949
1656,5531;0,0362485
1657,5173;0,0356152
1658,4816;0,0353356
1659,4458;0,035199
1660,4100;0,0349077
1661,3743;0,0343262
1662,3385;0,0336007
1663,3027;0,0329772
1664,2670;0,032565
1665,2312;0,0323104
1666,1954;0,0320441
1667,1597;0,0315217
1668,1239;0,0305674
1669,0881;0,0293142
1670,0524;0,0282048
1671,0166;0,0275857
1671,9808;0,0274385
1672,9451;0,027525
1673,9093;0,0275696
1674,8735;0,0273419
1675,8378;0,0267382
1676,8020;0,0258418
1677,7662;0,0248931
1678,7305;0,0241707
1679,6947;0,023834
1680,6589;0,0237963
1681,6232;0,0237129
1682,5874;0,0232197
1683,5516;0,0223645
1684,5159;0,0215303
1685,4801;0,0207988
1686,4443;0,0200276
1687,4086;0,0192583
1688,3728;0,0186641
1689,3370;0,0183776
1690,3013;0,0184329
1691,2655;0,0187655
1692,2297;0,0192188
1693,1940;0,0195631
1694,1582;0,0195631
1695,1224;0,0191147
1696,0867;0,0183864
1697,0509;0,0177997
1698,0151;0,017739
1698,9794;0,0181796
1699,9436;0,0186451
1700,9078;0,0186305
1701,8721;0,0180409
1702,8363;0,0171881
1703,8005;0,0164929
1704,7648;0,0162399
1705,7290;0,0164853
1706,6932;0,0170744
1707,6575;0,0177543
1708,6217;0,0183403
1709,5859;0,0188031
1710,5502;0,0192144
1711,5144;0,019639
1712,4786;0,0200688
1713,4429;0,0204238
1714,4071;0,0206275
1715,3713;0,020771
1716,3356;0,0212144
1717,2998;0,0222305
1718,2640;0,0235
1719,2283;0,0244789
1720,1925;0,0250398
1721,1567;0,0254149
1722,1210;0,0258542
1723,0852;0,026456
1724,0494;0,0271653
1725,0137;0,0278456
1725,9779;0,0283724
1726,9421;0,0287065
1727,9064;0,0289134
1728,8706;0,0291129
1729,8348;0,0293891
1730,7991;0,0297147
1731,7633;0,0299588
1732,7275;0,0300068
1733,6918;0,0298504
1734,6560;0,0294989
1735,6202;0,0289494
1736,5845;0,0282891
1737,5487;0,0276502
1738,5129;0,0270793
1739,4772;0,0265178
1740,4414;0,0258826
1741,4056;0,025138
1742,3699;0,0242969
1743,3341;0,0233908
1744,2983;0,0224546
1745,2626;0,0215181
1746,2268;0,0205987
1747,1910;0,0197137
1748,1553;0,0189127
1749,1195;0,0182792
1750,0837;0,0178407
1751,0480;0,0174897
1752,0122;0,017075
1752,9764;0,0165371
1753,9407;0,0159095
1754,9049;0,0152473
1755,8691;0,0145934
1756,8334;0,013983
1757,7976;0,0134393
1758,7618;0,012953
1759,7261;0,0124805
1760,6903;0,0119818
1761,6545;0,0114618
1762,6188;0,0109717
1763,5830;0,0105674
1764,5472;0,0102722
1765,5115;0,0100652
1766,4757;0,00988441
1767,4399;0,00964157
1768,4042;0,00925242
1769,3684;0,00868174
1770,3326;0,0079934
1771,2969;0,00736278
1772,2611;0,00697333
1773,2253;0,00684768
1774,1896;0,00684768
1775,1538;0,00684918
1776,1180;0,00682784
1777,0823;0,00680129
1778,0465;0,00677072
1779,0107;0,00673134
1779,9750;0,00670707
1780,9392;0,0067436
1781,9034;0,00686085
1782,8677;0,00702303
1783,8319;0,00715746
1784,7961;0,00720401
1785,7604;0,00715897
1786,7246;0,00707895
1787,6888;0,00703397
1788,6531;0,00703855
1789,6173;0,00701988
1790,5815;0,00687576
1791,5458;0,00659498
1792,5100;0,00628389
1793,4742;0,0060344
1794,4385;0,00585632
1795,4027;0,00575111
1796,3669;0,00573981
1797,3312;0,00581923
1798,2954;0,00594621
1799,2596;0,00607333
1800,2239;0,0061841
1801,1881;0,00628322
1802,1523;0,00636771
1803,1166;0,00642543
1804,0808;0,00645041
1805,0450;0,00644399
1806,0093;0,00640429
1806,9735;0,00632277
1807,9377;0,00619612
1808,9020;0,00604559
1809,8662;0,00592214
1810,8304;0,00588043
1811,7947;0,00594078
1812,7589;0,00608024
1813,7231;0,00625565
1814,6874;0,00642459
1815,6516;0,00655274
1816,6158;0,00662128
1817,5801;0,00663677
1818,5443;0,00662863
1819,5085;0,00663056
1820,4728;0,00665902
1821,4370;0,00670088
1822,4012;0,00671762
1823,3655;0,00666788
1824,3297;0,00653339
1825,2939;0,0063265
1826,2582;0,00607941
1827,2224;0,00583481
1828,1866;0,0056475
1829,1509;0,00557967
1830,1151;0,00566183
1831,0793;0,00584815
1832,0436;0,00604527
1833,0078;0,00619022
1833,9720;0,00627285
1834,9363;0,00630103
1835,9005;0,00628275
1836,8647;0,00624039
1837,8290;0,00622089
1838,7932;0,00627844
1839,7574;0,00644196
1840,7217;0,00668036
1841,6859;0,00689106
1842,6501;0,00695073
1843,6144;0,00681489
1844,5786;0,00655688
1845,5428;0,00628689
1846,5071;0,00607581
1847,4713;0,00596272
1848,4355;0,00596583
1849,3998;0,00606862
1850,3640;0,00622038
1851,3282;0,00636209
1852,2925;0,00645689
1853,2567;0,0065001
1854,2209;0,0065083
1855,1852;0,00650184
1856,1494;0,00649564
1857,1136;0,00649656
1858,0779;0,0065072
1859,0421;0,00652575
1860,0063;0,00654297
1860,9706;0,00654193
1861,9348;0,00650491
1862,8990;0,00642182
1863,8633;0,00629104
1864,8275;0,00611146
1865,7917;0,00588564
1866,7560;0,00565116
1867,7202;0,00550594
1868,6844;0,00554778
1869,6487;0,0057584
1870,6129;0,00600785
1871,5771;0,00618668
1872,5414;0,00627751
1873,5056;0,00631761
1874,4698;0,00634436
1875,4341;0,00637814
1876,3983;0,00642547
1877,3625;0,00648503
1878,3268;0,0065473
1879,2910;0,00659961
1880,2552;0,00663175
1881,2195;0,00664097
1882,1837;0,00663317
1883,1479;0,00661878
1884,1122;0,00660477
1885,0764;0,00658813
1886,0406;0,00655584
1887,0049;0,00649461
1887,9691;0,00640679
1888,9333;0,00631622
1889,8976;0,00625081
1890,8618;0,00621843
1891,8260;0,00620533
1892,7903;0,00619473
1893,7545;0,00618276
1894,7188;0,00618245
1895,6830;0,00621601
1896,6472;0,00629746
1897,6115;0,00641763
1898,5757;0,00654573
1899,5399;0,00664493
1900,5042;0,00668857
1901,4684;0,00666914
1902,4326;0,00659805
1903,3969;0,00649688
1904,3611;0,00638581
1905,3253;0,00627768
1906,2896;0,00618057
1907,2538;0,0061049
1908,2180;0,00606754
1909,1823;0,0060855
1910,1465;0,00616182
1911,1107;0,00627913
1912,0750;0,00641044
1913,0392;0,00653346
1914,0034;0,00663175
1914,9677;0,00668907
1915,9319;0,00669323
1916,8961;0,00664716
1917,8604;0,00656749
1918,8246;0,00646901
1919,7888;0,00635754
1920,7531;0,00623942
1921,7173;0,00613107
1922,6815;0,00605792
1923,6458;0,00604333
1924,6100;0,00609349
1925,5742;0,00619115
1926,5385;0,00630525
1927,5027;0,00640564
1928,4669;0,00647215
1929,4312;0,00650025
1930,3954;0,00650055
1931,3596;0,00648932
1932,3239;0,00647843
1933,2881;0,00646925
1934,2523;0,00645602
1935,2166;0,00643472
1936,1808;0,00640966
1937,1450;0,00639139
1938,1093;0,00638655
1939,0735;0,00638729
1940,0377;0,00637157
1941,0020;0,00632014
1941,9662;0,00623813
1942,9304;0,00615813
1943,8947;0,00611887
1944,8589;0,00614194
1945,8231;0,00622475
1946,7874;0,00634499
1947,7516;0,00646933
1948,7158;0,00656575
1949,6801;0,00661587
1950,6443;0,00661939
1951,6085;0,00658763
1952,5728;0,00653292
1953,5370;0,00646376
1954,5012;0,00638906
1955,4655;0,00632548
1956,4297;0,00629814
1957,3939;0,00632986
1958,3582;0,00642357
1959,3224;0,00654979
1960,2866;0,00665165
1961,2509;0,00667018
1962,2151;0,00657746
1963,1793;0,00639596
1964,1436;0,00619173
1965,1078;0,00604605
1966,0720;0,0060178
1967,0363;0,00611191
1968,0005;0,00627373
1968,9647;0,00642077
1969,9290;0,00649259
1970,8932;0,00648221
1971,8574;0,0064334
1972,8217;0,00641504
1973,7859;0,00648954
1974,7501;0,00668776
1975,7144;0,00698758
1976,6786;0,00731394
1977,6428;0,00756458
1978,6071;0,00765551
1979,5713;0,00756136
1980,5355;0,00732634
1981,4998;0,00704288
1982,4640;0,00681155
1983,4282;0,00670101
1984,3925;0,00672285
1985,3567;0,00683347
1986,3209;0,00696426
1987,2852;0,00706345
1988,2494;0,00712275
1989,2136;0,00717331
1990,1779;0,00725694
1991,1421;0,00739266
1992,1063;0,00756123
1993,0706;0,0077192
1994,0348;0,00783013
1994,9990;0,00788394
1995,9633;0,0078895
1996,9275;0,00785354
1997,8917;0,00776994
1998,8560;0,00763008
1999,8202;0,00744522
2000,7844;0,00726088
2001,7487;0,0071487
2002,7129;0,00717779
2003,6771;0,00738057
2004,6414;0,00773009
2005,6056;0,0081432
2006,5698;0,00850995
2007,5341;0,00874013
2008,4983;0,00879862
2009,4625;0,00870754
2010,4268;0,00851898
2011,3910;0,00828119
2012,3552;0,00802225
2013,3195;0,0077566
2014,2837;0,00750512
2015,2479;0,00731068
2016,2122;0,00723248
2017,1764;0,00731594
2018,1406;0,00755735
2019,1049;0,00789229
2020,0691;0,00821904
2021,0333;0,00844165
2021,9976;0,00850777
2022,9618;0,00842499
2023,9260;0,00825016
2024,8903;0,00805743
2025,8545;0,00790172
2026,8187;0,00779836
2027,7830;0,00772936
2028,7472;0,00766849
2029,7114;0,00760593
2030,6757;0,00755612
2031,6399;0,00754556
2032,6041;0,00759358
2033,5684;0,00769955
2034,5326;0,00784631
2035,4968;0,00801254
2036,4611;0,00818394
2037,4253;0,00834836
2038,3895;0,00848756
2039,3538;0,00857401
2040,3180;0,00858081
2041,2822;0,00850017
2042,2465;0,0083565
2043,2107;0,00820228
2044,1749;0,00809619
2045,1392;0,00807659
2046,1034;0,0081438
2047,0676;0,00825979
2048,0320;0,00836677
2048,9961;0,00841551
2049,9604;0,00838717
2050,9246;0,00829689
2051,8889;0,00818216
2052,8530;0,00808663
2053,8174;0,00804522
2054,7815;0,00807519
2055,7458;0,00816915
2056,7100;0,00829789
2057,6743;0,0084205
2058,6384;0,00849884
2059,6028;0,00851049
2060,5669;0,00845593
2061,5313;0,00835784
2062,4954;0,00825235
2063,4597;0,00817435
2064,4238;0,00814215
2065,3882;0,00814876
2066,3523;0,00816579
2067,3167;0,00815878
2068,2808;0,00810574
2069,2451;0,00800891
2070,2092;0,00789471
2071,1736;0,00780251
2072,1377;0,00776923
2073,1021;0,00781222
2074,0662;0,00792149
2075,0305;0,00806283
2075,9946;0,00819167
2076,9590;0,00827046
2077,9231;0,00828234
2078,8875;0,00823411
2079,8516;0,00814781
2080,8159;0,00804715
2081,7800;0,00794774
2082,7444;0,00785624
2083,7085;0,00777618
2084,6729;0,00771403
2085,6370;0,00767751
2086,6013;0,00766936
2087,5654;0,00768149
2088,5298;0,00769791
2089,4939;0,00770594
2090,4583;0,00770798
2091,4224;0,00772365
2092,3867;0,00777826
2093,3508;0,00788374
2094,3152;0,00802474
2095,2793;0,0081607
2096,2437;0,00824506
2097,2078;0,00825086
2098,1721;0,00818512
2099,1362;0,00808398
2100,1006;0,00798905
2101,0647;0,0079401
2102,0291;0,00793845
2102,9932;0,00796681
2103,9575;0,00799911
2104,9216;0,00801716
2105,8860;0,00801976
2106,8501;0,00801961
2107,8145;0,0080313
2108,7786;0,00805935
2109,7429;0,00809483
2110,7070;0,00812212
2111,6714;0,0081302
2112,6355;0,00811965
2113,5999;0,00810077
2114,5640;0,00808516
2115,5283;0,00807764
2116,4924;0,00807434
2117,4568;0,00806713
2118,4209;0,00805038
2119,3853;0,00802529
2120,3494;0,00799979
2121,3137;0,00798529
2122,2778;0,00799284
2123,2422;0,00802988
2124,2063;0,00809747
2125,1707;0,00818799
2126,1348;0,00828428
2127,0991;0,0083624
2128,0632;0,0083987
2129,0276;0,0083792
2129,9917;0,00830718
2130,9561;0,00820519
2131,9202;0,00810951
2132,8845;0,00805813
2133,8486;0,00807605
2134,8130;0,00816432
2135,7771;0,00829988
2136,7415;0,00844762
2137,7056;0,00857812
2138,6699;0,00867989
2139,6340;0,00875948
2140,5984;0,0088316
2141,5625;0,00890779
2142,5269;0,00899076
2143,4910;0,00907613
2144,4553;0,00915683
2145,4194;0,0092252
2146,3838;0,00927265
2147,3479;0,00929164
2148,3123;0,00928357
2149,2764;0,00926807
2150,2407;0,00928358
2151,2048;0,00937288
2152,1692;0,00955968
2153,1333;0,00983242
2154,0977;0,010149
2155,0618;0,0104607
2156,0261;0,0107379
2156,9902;0,0109777
2157,9546;0,0111841
2158,9187;0,0113374
2159,8831;0,0113922
2160,8472;0,0113135
2161,8115;0,0111161
2162,7756;0,0108679
2163,7400;0,0106549
2164,7041;0,0105337
2165,6685;0,0104999
2166,6326;0,0104912
2167,5969;0,0104262
2168,5610;0,0102538
2169,5254;0,00998155
2170,4895;0,00966893
2171,4539;0,00939373
2172,4180;0,00921218
2173,3823;0,0091358
2174,3464;0,0091363
2175,3108;0,00917304
2176,2749;0,00922282
2177,2393;0,00929016
2178,2034;0,00939229
2179,1677;0,00953295
2180,1318;0,00968642
2181,0962;0,0098052
2182,0603;0,00984706
2183,0247;0,00980217
2183,9888;0,00969985
2184,9531;0,00958996
2185,9172;0,00951385
2186,8816;0,00948458
2187,8457;0,00948599
2188,8101;0,00948655
2189,7742;0,00945671
2190,7385;0,00938043
2191,7026;0,00925839
2192,6670;0,00910508
2193,6311;0,00894385
2194,5955;0,00880147
2195,5596;0,00870209
2196,5239;0,00866055
2197,4880;0,00867695
2198,4524;0,00873484
2199,4165;0,00880522
2200,3809;0,00885586
2201,3450;0,0088629
2202,3093;0,00882019
2203,2734;0,00874183
2204,2378;0,00865649
2205,2019;0,00859567
2206,1663;0,00858118
2207,1304;0,0086174
2208,0947;0,00869114
2209,0588;0,00877774
2210,0232;0,00884957
2210,9873;0,00888325
2211,9517;0,00886461
2212,9158;0,00879155
2213,8801;0,00867527
2214,8442;0,00853834
2215,8086;0,00840842
2216,7727;0,00830873
2217,7371;0,00824962
2218,7012;0,00822667
2219,6655;0,00822719
2220,6296;0,00824123
2221,5940;0,00826948
2222,5581;0,00832167
2223,5225;0,00840554
2224,4866;0,00851355
2225,4509;0,00861746
2226,4150;0,00867653
2227,3794;0,00865609
2228,3435;0,00854977
2229,3079;0,00838671
2230,2720;0,00822184
2231,2363;0,00811232
2232,2004;0,00809265
2233,1648;0,00816164
2234,1289;0,00828713
2235,0933;0,00842368
2236,0574;0,00853219
2237,0217;0,00859105
2237,9858;0,00859657
2238,9502;0,0085569
2239,9143;0,00848654
2240,8787;0,00840405
2241,8428;0,00833104
2242,8071;0,00828819
2243,7712;0,0082874
2244,7356;0,00832452
2245,6997;0,00837869
2246,6641;0,00842152
2247,6282;0,0084321
2248,5925;0,00840917
2249,5566;0,0083725
2250,5210;0,00835258
2251,4851;0,0083743
2252,4495;0,00844467
2253,4136;0,00855088
2254,3779;0,00866853
2255,3420;0,00877352
2256,3064;0,00884965
2257,2705;0,00888868
2258,2349;0,00888644
2259,1990;0,00884143
2260,1633;0,00875876
2261,1274;0,00865606
2262,0918;0,00856384
2263,0559;0,00851593
2264,0203;0,00853322
2264,9844;0,00861066
2265,9487;0,00871734
2266,9128;0,00881086
2267,8772;0,0088576
2268,8413;0,0088463
2269,8057;0,00878822
2270,7698;0,00870668
2271,7341;0,00862465
2272,6982;0,00855763
2273,6626;0,00851287
2274,6267;0,00849123
2275,5911;0,00848832
2276,5552;0,00849518
2277,5195;0,00850145
2278,4836;0,00850193
2279,4480;0,00850332
2280,4121;0,00852497
2281,3765;0,00859101
2282,3406;0,00871726
2283,3049;0,00890118
2284,2690;0,00912141
2285,2334;0,00934785
2286,1975;0,00955636
2287,1619;0,00974006
2288,1260;0,00991117
2289,0903;0,0100928
2290,0544;0,0103057
2291,0188;0,010558
2291,9829;0,0108425
2292,9473;0,0111421
2293,9114;0,0114387
2294,8757;0,0117191
2295,8398;0,0119759
2296,8042;0,0122027
2297,7683;0,0123906
2298,7327;0,0125294
2299,6968;0,0126151
2300,6611;0,0126589
2301,6252;0,0126919
2302,5896;0,0127583
2303,5537;0,0129014
2304,5181;0,0131444
2305,4822;0,0134754
2306,4465;0,0138432
2307,4106;0,014167
2308,3750;0,0143614
2309,3391;0,0143658
2310,3035;0,0141704
2311,2676;0,0138232
2312,2319;0,0134145
2313,1960;0,0130415
2314,1604;0,0127705
2315,1245;0,012617
2316,0889;0,0125515
2317,0530;0,0125255
2318,0173;0,0124997
2318,9814;0,0124601
2319,9458;0,0124192
2320,9099;0,012406
2321,8743;0,0124498
2322,8384;0,0125624
2323,8027;0,0127207
2324,7668;0,0128655
2325,7312;0,0129236
2326,6953;0,012842
2327,6597;0,0126123
2328,6238;0,012271
2329,5881;0,0118805
2330,5522;0,0115073
2331,5166;0,0112025
2332,4807;0,0109863
2333,4451;0,010844
2334,4092;0,0107421
2335,3735;0,0106602
2336,3376;0,0106166
2337,3020;0,0106732
2338,2661;0,0109092
2339,2305;0,0113708
2340,1946;0,012011
2341,1589;0,0126511
2342,1230;0,0130167
2343,0874;0,0129211
2344,0515;0,0125345
2345,0159;0,0123672
2345,9800;0,0128057
2346,9443;0,0137509
2347,9084;0,0147565
2348,8728;0,0153881
2349,8369;0,0154615
2350,8013;0,0150887
2351,7654;0,01457
2352,7297;0,0141891
2353,6938;0,014039
2354,6582;0,014039
2355,6223;0,0141036
2356,5867;0,0142157
2357,5508;0,0143454
2358,5151;0,0143938
2359,4792;0,0142609
2360,4436;0,0139417
2361,4077;0,0135187
2362,3721;0,0130646
2363,3362;0,0125801
2364,3005;0,0120214
2365,2646;0,0113653
2366,2290;0,0106404
2367,1931;0,00990769
2368,1575;0,00922911
2369,1216;0,00864986
2370,0859;0,00819588
2371,0500;0,00787622
2372,0144;0,00768877
2372,9785;0,00762968
2373,9429;0,0077018
2374,9070;0,00791357
2375,8713;0,00826642
2376,8354;0,0087385
2377,7998;0,00927618
2378,7639;0,00980031
2379,7283;0,0102252
2380,6924;0,0104815
2381,6567;0,0105345
2382,6208;0,0103897
2383,5852;0,0100876
2384,5493;0,00968984
2385,5137;0,00926217
2386,4778;0,00886033
2387,4421;0,00852133
2388,4063;0,0082616
2389,3706;0,00808044
2390,3347;0,00796602
2391,2991;0,00790177
2392,2632;0,00787137
2393,2275;0,00786194
2394,1917;0,00786504
2395,1560;0,00787587
2396,1201;0,00789183
2397,0845;0,0079113
2398,0486;0,00793514
2399,0129;0,00796322
2399,9771;0,00799503
2400,9414;0,00802961
2401,9055;0,00806319
2402,8699;0,0080911
2403,8340;0,00810955
2404,7983;0,00811817
2405,7625;0,00812086
2406,7268;0,00812341
2407,6909;0,00813125
2408,6553;0,0081471
2409,6194;0,00816971
2410,5837;0,00819633
2411,5479;0,0082241
2412,5122;0,00825103
2413,4763;0,00827606
2414,4407;0,00829916
2415,4048;0,0083213
2416,3691;0,00834428
2417,3333;0,00836972
2418,2976;0,00839716
2419,2617;0,00842311
2420,2261;0,0084416
2421,1902;0,00844659
2422,1545;0,00843681
2423,1187;0,00841753
2424,0830;0,00839947
2425,0471;0,00839428
2426,0115;0,00840897
2426,9756;0,00844267
2427,9399;0,00848741
2428,9041;0,00853277
2429,8684;0,00857138
2430,8325;0,0086019
2431,7969;0,00862786
2432,7610;0,00865311
2433,7253;0,00867751
2434,6895;0,00869589
2435,6538;0,00870155
2436,6179;0,00869173
2437,5823;0,0086712
2438,5464;0,00865098
2439,5107;0,0086428
2440,4749;0,00865288
2441,4392;0,00867921
2442,4033;0,00871376
2443,3677;0,00874776
2444,3318;0,00877614
2445,2961;0,0087983
2446,2603;0,00881576
2447,2246;0,0088292
2448,1887;0,0088379
2449,1531;0,00884153
2450,1172;0,00884243
2451,0815;0,00884576
2452,0457;0,00885689
2453,0100;0,00887791
2453,9741;0,00890613
2454,9385;0,00893576
2455,9026;0,00896145
2456,8669;0,00898103
2457,8311;0,00899542
2458,7954;0,00900656
2459,7595;0,00901553
2460,7239;0,00902257
2461,6880;0,00902876
2462,6523;0,00903703
2463,6165;0,00905088
2464,5808;0,00907136
2465,5449;0,009095
2466,5093;0,00911502
2467,4734;0,00912561
2468,4377;0,00912608
2469,4019;0,00912158
2470,3662;0,00911949
2471,3303;0,00912428
2472,2947;0,00913488
2473,2588;0,00914636
2474,2231;0,00915453
2475,1873;0,00915955
2476,1516;0,0091659
2477,1157;0,00917901
2478,0801;0,00920153
2479,0442;0,00923183
2480,0085;0,00926542
2480,9727;0,00929737
2481,9370;0,0093239
2482,9011;0,00934239
2483,8655;0,00935117
2484,8296;0,00934993
2485,7939;0,0093409
2486,7581;0,00932926
2487,7224;0,00932181
2488,6865;0,00932413
2489,6509;0,00933809
2490,6150;0,0093614
2491,5793;0,00938949
2492,5435;0,00941831
2493,5078;0,0094459
2494,4719;0,00947199
2495,4363;0,00949629
2496,4004;0,00951727
2497,3647;0,00953262
2498,3289;0,00954087
2499,2932;0,00954256
2500,2573;0,00954006
2501,2217;0,00953594
2502,1858;0,00953177
2503,1501;0,00952859
2504,1143;0,00952875
2505,0786;0,00953718
2506,0427;0,00956005
2507,0071;0,00960064
2507,9712;0,00965524
2508,9355;0,0097122
2509,8997;0,00975634
2510,8640;0,00977649
2511,8281;0,00977203
2512,7925;0,00975381
2513,7566;0,00973865
2514,7209;0,00974047
2515,6851;0,00976305
2516,6494;0,00979868
2517,6135;0,00983289
2518,5779;0,00985234
2519,5420;0,00985117
2520,5063;0,00983268
2521,4705;0,00980613
2522,4348;0,00978125
2523,3989;0,00976409
2524,3633;0,00975609
2525,3274;0,00975627
2526,2917;0,00976406
2527,2559;0,00978035
2528,2202;0,00980608
2529,1843;0,0098398
2530,1487;0,00987635
2531,1128;0,0099081
2532,0771;0,00992793
2533,0413;0,00993216
2534,0056;0,00992176
2534,9697;0,00990158
2535,9341;0,00987874
2536,8982;0,00986074
2537,8625;0,0098538
2538,8267;0,00986111
2539,7910;0,00988143
2540,7551;0,00990908
2541,7195;0,00993608
2542,6836;0,00995578
2543,6479;0,00996597
2544,6121;0,00996944
2545,5764;0,00997159
2546,5405;0,00997679
2547,5049;0,00998587
2548,4690;0,00999609
2549,4333;0,0100032
2550,3975;0,0100039
2551,3618;0,00999741
2552,3259;0,00998586
2553,2903;0,00997326
2554,2544;0,00996411
2555,2188;0,00996161
2556,1829;0,00996643
2557,1472;0,00997675
2558,1113;0,00998985
2559,0757;0,0100041
2560,0398;0,0100196
2561,0042;0,010037
2561,9683;0,010055
2562,9326;0,0100689
2563,8967;0,0100728
2564,8611;0,0100639
2565,8252;0,0100456
2566,7896;0,0100267
2567,7537;0,0100169
2568,7180;0,010021
2569,6821;0,0100362
2570,6465;0,0100545
2571,6106;0,0100683
2572,5750;0,0100752
2573,5391;0,0100793
2574,5034;0,0100882
2575,4675;0,010107
2576,4319;0,0101355
2577,3960;0,0101668
2578,3604;0,010191
2579,3245;0,0102005
2580,2888;0,0101937
2581,2529;0,0101768
2582,2173;0,010161
2583,1814;0,0101579
2584,1458;0,0101744
2585,1099;0,0102103
2586,0742;0,0102589
2587,0383;0,01031
2588,0027;0,0103532
2588,9668;0,010381
2589,9312;0,0103909
2590,8953;0,0103857
2591,8596;0,0103727
2592,8237;0,010361
2593,7881;0,0103579
2594,7522;0,0103657
2595,7166;0,0103818
2596,6807;0,010401
2597,6450;0,0104196
2598,6091;0,0104374
2599,5735;0,0104565
2600,5376;0,0104785
2601,5020;0,0105017
2602,4661;0,0105229
2603,4304;0,0105393
2604,3945;0,0105516
2605,3589;0,0105629
2606,3230;0,0105764
2607,2874;0,0105926
2608,2515;0,0106094
2609,2158;0,0106242
2610,1799;0,0106359
2611,1443;0,0106459
2612,1084;0,0106556
2613,0728;0,0106654
2614,0369;0,0106746
2615,0012;0,0106827
2615,9653;0,0106907
2616,9297;0,0107014
2617,8938;0,0107171
2618,8582;0,010738
2619,8223;0,0107617
2620,7866;0,0107851
2621,7507;0,0108056
2622,7151;0,010823
2623,6792;0,010839
2624,6436;0,0108567
2625,6077;0,0108788
2626,5720;0,0109071
2627,5361;0,0109409
2628,5005;0,0109774
2629,4646;0,0110126
2630,4290;0,0110428
2631,3931;0,0110675
2632,3574;0,011089
2633,3215;0,0111113
2634,2859;0,0111367
2635,2500;0,0111636
2636,2144;0,0111867
2637,1785;0,0112005
2638,1428;0,0112035
2639,1069;0,0112001
2640,0713;0,0111991
2641,0354;0,0112094
2641,9998;0,0112349
2642,9639;0,0112723
2643,9282;0,0113126
2644,8923;0,011346
2645,8567;0,0113671
2646,8208;0,0113769
2647,7852;0,011382
2648,7493;0,0113905
2649,7136;0,0114084
2650,6777;0,0114365
2651,6421;0,0114709
2652,6062;0,0115056
2653,5706;0,0115356
2654,5347;0,0115588
2655,4990;0,011577
2656,4631;0,0115944
2657,4275;0,0116147
2658,3916;0,0116394
2659,3560;0,0116667
2660,3201;0,0116925
2661,2844;0,0117131
2662,2485;0,0117275
2663,2129;0,0117377
2664,1770;0,0117476
2665,1414;0,0117609
2666,1055;0,0117784
2667,0698;0,0117988
2668,0339;0,0118192
2668,9983;0,0118382
2669,9624;0,0118563
2670,9268;0,0118763
2671,8909;0,0119012
2672,8552;0,0119326
2673,8193;0,0119689
2674,7837;0,0120058
2675,7478;0,0120373
2676,7122;0,0120587
2677,6763;0,012069
2678,6406;0,0120727
2679,6047;0,0120781
2680,5691;0,0120935
2681,5332;0,0121233
2682,4976;0,0121653
2683,4617;0,0122126
2684,4260;0,0122574
2685,3901;0,0122956
2686,3545;0,0123275
2687,3186;0,0123565
2688,2830;0,0123852
2689,2471;0,0124144
2690,2114;0,0124428
2691,1755;0,0124696
2692,1399;0,0124956
2693,1040;0,0125227
2694,0684;0,0125518
2695,0325;0,012582
2695,9968;0,0126112
2696,9609;0,0126386
2697,9253;0,0126652
2698,8894;0,0126936
2699,8538;0,0127264
2700,8179;0,0127639
2701,7822;0,0128046
2702,7463;0,0128461
2703,7107;0,0128867
2704,6748;0,0129254
2705,6392;0,0129616
2706,6033;0,0129944
2707,5676;0,0130226
2708,5317;0,0130457
2709,4961;0,0130648
2710,4602;0,0130823
2711,4246;0,0131017
2712,3887;0,0131259
2713,3530;0,0131565
2714,3171;0,013193
2715,2815;0,0132328
2716,2456;0,0132722
2717,2100;0,0133078
2718,1741;0,0133379
2719,1384;0,0133629
2720,1025;0,0133853
2721,0669;0,0134072
2722,0310;0,0134292
2722,9954;0,0134502
2723,9595;0,0134689
2724,9238;0,0134862
2725,8879;0,013506
2726,8523;0,0135333
2727,8164;0,0135718
2728,7808;0,013621
2729,7449;0,013676
2730,7092;0,0137299
2731,6733;0,0137759
2732,6377;0,0138101
2733,6018;0,0138313
2734,5662;0,0138409
2735,5303;0,0138416
2736,4946;0,0138372
2737,4587;0,0138325
2738,4231;0,0138322
2739,3872;0,0138407
2740,3516;0,013861
2741,3157;0,0138932
2742,2800;0,0139343
2743,2441;0,0139783
2744,2085;0,0140176
2745,1726;0,0140451
2746,1370;0,0140574
2747,1011;0,0140563
2748,0654;0,014049
2749,0295;0,0140451
2749,9939;0,0140523
2750,9580;0,0140736
2751,9224;0,0141071
2752,8865;0,0141487
2753,8508;0,0141948
2754,8149;0,0142437
2755,7793;0,0142946
2756,7434;0,0143456
2757,7078;0,0143925
2758,6719;0,0144305
2759,6362;0,0144569
2760,6003;0,0144731
2761,5647;0,0144842
2762,5288;0,0144969
2763,4932;0,0145162
2764,4573;0,0145442
2765,4216;0,0145806
2766,3857;0,0146243
2767,3501;0,0146742
2768,3142;0,014729
2769,2786;0,0147856
2770,2427;0,0148395
2771,2070;0,0148859
2772,1711;0,0149219
2773,1355;0,0149487
2774,0996;0,014971
2775,0640;0,0149954
2776,0281;0,0150275
2776,9924;0,01507
2777,9565;0,0151224
2778,9209;0,0151817
2779,8850;0,015244
2780,8494;0,0153062
2781,8135;0,0153662
2782,7778;0,0154234
2783,7419;0,0154777
2784,7063;0,0155291
2785,6704;0,0155772
2786,6348;0,0156213
2787,5989;0,0156615
2788,5632;0,0157001
2789,5273;0,0157421
2790,4917;0,0157935
2791,4558;0,0158588
2792,4202;0,0159381
2793,3843;0,0160259
2794,3486;0,0161137
2795,3127;0,0161935
2796,2771;0,016262
2797,2412;0,0163225
2798,2056;0,0163825
2799,1697;0,0164506
2800,1340;0,0165322
2801,0981;0,0166282
2802,0625;0,016736
2803,0266;0,0168511
2803,9910;0,016969
2804,9551;0,0170854
2805,9194;0,0171959
2806,8835;0,0172971
2807,8479;0,0173878
2808,8120;0,017471
2809,7764;0,0175537
2810,7405;0,0176442
2811,7048;0,0177488
2812,6689;0,0178688
2813,6333;0,0180004
2814,5974;0,0181376
2815,5618;0,0182757
2816,5259;0,0184133
2817,4902;0,0185519
2818,4543;0,0186935
2819,4187;0,0188387
2820,3828;0,0189861
2821,3472;0,0191341
2822,3113;0,0192833
2823,2756;0,0194367
2824,2397;0,0195992
2825,2041;0,0197747
2826,1682;0,0199642
2827,1326;0,0201659
2828,0967;0,0203762
2829,0610;0,0205925
2830,0251;0,0208146
2830,9895;0,0210451
2831,9536;0,0212881
2832,9180;0,0215468
2833,8821;0,0218219
2834,8464;0,0221125
2835,8105;0,0224177
2836,7749;0,0227393
2837,7390;0,0230836
2838,7034;0,0234604
2839,6675;0,0238801
2840,6318;0,0243506
2841,5959;0,024875
2842,5603;0,0254521
2843,5244;0,0260762
2844,4888;0,0267372
2845,4529;0,0274172
2846,4172;0,0280892
2847,3813;0,0287171
2848,3457;0,0292619
2849,3098;0,0296905
2850,2742;0,0299853
2851,2383;0,0301485
2852,2026;0,0301989
2853,1667;0,0301645
2854,1311;0,0300734
2855,0952;0,0299474
2856,0596;0,0298019
2857,0237;0,0296489
2857,9880;0,0295007
2858,9521;0,0293719
2859,9165;0,0292774
2860,8806;0,0292276
2861,8450;0,0292255
2862,8091;0,0292659
2863,7734;0,0293389
2864,7375;0,029435
2865,7019;0,0295486
2866,6660;0,0296782
2867,6304;0,0298225
2868,5945;0,0299751
2869,5588;0,0301239
2870,5229;0,0302535
2871,4873;0,0303522
2872,4514;0,0304177
2873,4158;0,0304587
2874,3799;0,0304907
2875,3442;0,0305286
2876,3083;0,0305815
2877,2727;0,0306501
2878,2368;0,0307305
2879,2012;0,030818
2880,1653;0,030911
2881,1296;0,0310109
2882,0938;0,0311206
2883,0581;0,0312413
2884,0222;0,0313712
2884,9866;0,0315065
2885,9507;0,0316426
2886,9150;0,031777
2887,8792;0,0319095
2888,8435;0,0320422
2889,8076;0,0321775
2890,7720;0,0323163
2891,7361;0,0324574
2892,7004;0,0325976
2893,6646;0,0327345
2894,6289;0,0328679
2895,5930;0,0330005
2896,5574;0,0331362
2897,5215;0,0332775
2898,4858;0,0334232
2899,4500;0,0335685
2900,4143;0,0337072
2901,3784;0,0338359
2902,3428;0,0339559
2903,3069;0,0340737
2904,2712;0,0341989
2905,2354;0,034341
2906,1997;0,0345078
2907,1638;0,0347053
2908,1282;0,0349389
2909,0923;0,035214
2910,0566;0,0355344
2911,0208;0,0358987
2911,9851;0,0362973
2912,9492;0,0367112
2913,9136;0,0371147
2914,8777;0,0374807
2915,8420;0,0377864
2916,8062;0,0380171
2917,7705;0,038167
2918,7346;0,0382372
2919,6990;0,0382328
2920,6631;0,0381609
2921,6274;0,0380297
2922,5916;0,0378483
2923,5559;0,0376252
2924,5200;0,0373676
2925,4844;0,0370797
2926,4485;0,0367638
2927,4128;0,0364214
2928,3770;0,0360566
2929,3413;0,035677
2930,3054;0,035293
2931,2698;0,0349135
2932,2339;0,0345431
2933,1982;0,0341793
2934,1624;0,0338152
2935,1267;0,0334429
2936,0908;0,0330586
2937,0552;0,0326641
2938,0193;0,0322665
2938,9836;0,0318743
2939,9478;0,031494
2940,9121;0,0311284
2941,8762;0,0307766
2942,8406;0,0304367
2943,8047;0,0301079
2944,7690;0,029792
2945,7332;0,0294935
2946,6975;0,0292171
2947,6616;0,0289653
2948,6260;0,0287366
2949,5901;0,0285249
2950,5544;0,0283227
2951,5186;0,0281229
2952,4829;0,0279224
2953,4470;0,0277209
2954,4114;0,02752
2955,3755;0,02732
2956,3398;0,0271191
2957,3040;0,0269131
2958,2683;0,0266984
2959,2324;0,0264733
2960,1968;0,026239
2961,1609;0,0259985
2962,1252;0,0257549
2963,0894;0,0255099
2964,0537;0,0252627
2965,0178;0,0250111
2965,9822;0,0247525
2966,9463;0,0244847
2967,9106;0,024207
2968,8748;0,0239201
2969,8391;0,0236269
2970,8032;0,0233321
2971,7676;0,023042
2972,7317;0,0227635
2973,6960;0,0225022
2974,6602;0,0222608
2975,6245;0,0220381
2976,5886;0,0218304
2977,5530;0,0216344
2978,5171;0,0214495
2979,4814;0,0212782
2980,4456;0,0211238
2981,4099;0,0209867
2982,3740;0,0208629
2983,3384;0,0207457
2984,3025;0,0206295
2985,2668;0,0205136
2986,2310;0,0204017
2987,1953;0,0202992
2988,1594;0,0202086
2989,1238;0,0201286
2990,0879;0,0200563
2991,0522;0,01999
2992,0164;0,0199319
2992,9807;0,0198868
2993,9448;0,0198587
2994,9092;0,0198486
2995,8733;0,0198547
2996,8376;0,019873
2997,8018;0,0198987
2998,7661;0,019926
2999,7302;0,019948
3000,6946;0,0199592
3001,6587;0,019959
3002,6230;0,0199537
3003,5872;0,0199547
3004,5515;0,0199715
3005,5156;0,0200052
3006,4800;0,0200452
3007,4441;0,0200748
3008,4084;0,0200802
3009,3726;0,0200603
3010,3369;0,0200283
3011,3010;0,0200058
3012,2654;0,020013
3013,2295;0,0200589
3014,1938;0,0201387
3015,1580;0,0202385
3016,1223;0,0203426
3017,0864;0,0204397
3018,0508;0,0205246
3019,0149;0,020597
3019,9792;0,0206583
3020,9434;0,0207111
3021,9077;0,020759
3022,8718;0,0208074
3023,8362;0,0208619
3024,8003;0,020925
3025,7646;0,0209931
3026,7288;0,0210564
3027,6931;0,0211045
3028,6572;0,0211333
3029,6216;0,0211499
3030,5857;0,0211711
3031,5500;0,0212165
3032,5142;0,0212985
3033,4785;0,0214171
3034,4426;0,0215614
3035,4070;0,0217159
3036,3711;0,0218679
3037,3354;0,0220102
3038,2996;0,0221405
3039,2639;0,0222595
3040,2280;0,0223694
3041,1924;0,0224727
3042,1565;0,0225722
3043,1208;0,0226694
3044,0850;0,0227635
3045,0493;0,0228526
3046,0134;0,0229371
3046,9778;0,0230221
3047,9419;0,0231166
3048,9063;0,0232279
3049,8704;0,0233554
3050,8347;0,0234881
3051,7988;0,0236091
3052,7632;0,023706
3053,7273;0,0237796
3054,6917;0,0238458
3055,6558;0,0239284
3056,6201;0,0240459
3057,5842;0,0242011
3058,5486;0,0243781
3059,5127;0,0245503
3060,4771;0,0246923
3061,4412;0,0247911
3062,4055;0,0248505
3063,3696;0,0248897
3064,3340;0,024935
3065,2981;0,0250104
3066,2625;0,0251285
3067,2266;0,0252876
3068,1909;0,0254741
3069,1550;0,0256701
3070,1194;0,0258607
3071,0835;0,026037
3072,0479;0,0261953
3073,0120;0,0263331
3073,9763;0,0264466
3074,9404;0,0265324
3075,9048;0,0265915
3076,8689;0,026633
3077,8333;0,0266736
3078,7974;0,0267314
3079,7617;0,0268191
3080,7258;0,026939
3081,6902;0,0270837
3082,6543;0,0272412
3083,6187;0,0274008
3084,5828;0,027556
3085,5471;0,027705
3086,5112;0,0278488
3087,4756;0,0279877
3088,4397;0,0281198
3089,4041;0,0282397
3090,3682;0,0283405
3091,3325;0,0284183
3092,2966;0,0284762
3093,2610;0,0285256
3094,2251;0,028582
3095,1895;0,0286573
3096,1536;0,0287525
3097,1179;0,0288586
3098,0820;0,028964
3099,0464;0,0290652
3100,0105;0,0291713
3100,9749;0,0292991
3101,9390;0,029461
3102,9033;0,0296545
3103,8674;0,029861
3104,8318;0,0300564
3105,7959;0,0302245
3106,7603;0,0303651
3107,7244;0,0304914
3108,6887;0,0306193
3109,6528;0,0307551
3110,6172;0,0308907
3111,5813;0,0310105
3112,5457;0,0311029
3113,5098;0,0311697
3114,4741;0,0312266
3115,4382;0,0312949
3116,4026;0,0313898
3117,3667;0,0315138
3118,3311;0,0316584
3119,2952;0,0318114
3120,2595;0,0319652
3121,2236;0,0321182
3122,1880;0,0322739
3123,1521;0,0324371
3124,1165;0,0326115
3125,0806;0,0327987
3126,0449;0,0329969
3127,0090;0,0331987
3127,9734;0,0333909
3128,9375;0,0335594
3129,9019;0,0336968
3130,8660;0,0338099
3131,8303;0,0339194
3132,7944;0,0340508
3133,7588;0,0342203
3134,7229;0,0344257
3135,6873;0,034649
3136,6514;0,0348671
3137,6157;0,0350647
3138,5798;0,035239
3139,5442;0,0353975
3140,5083;0,0355496
3141,4727;0,0357017
3142,4368;0,0358558
3143,4011;0,0360129
3144,3652;0,0361744
3145,3296;0,0363418
3146,2937;0,0365139
3147,2581;0,0366861
3148,2222;0,0368522
3149,1865;0,0370085
3150,1506;0,0371561
3151,1150;0,0373013
3152,0791;0,0374519
3153,0435;0,0376139
3154,0076;0,0377888
3154,9719;0,0379741
3155,9360;0,0381646
3156,9004;0,038355
3157,8645;0,038541
3158,8289;0,0387207
3159,7930;0,0388935
3160,7573;0,03906
3161,7214;0,0392215
3162,6858;0,0393799
3163,6499;0,039538
3164,6143;0,0396981
3165,5784;0,039862
3166,5427;0,0400296
3167,5068;0,0402001
3168,4712;0,0403735
3169,4353;0,0407593
3170,3997;0,040944
3171,3638;0,0411352
3172,3281;0,04133
3173,2922;0,0415205
3174,2566;0,0416968
3175,2207;0,0418528
3176,1851;0,0419905
3177,1492;0,0421204
3178,1135;0,0422557
3179,0776;0,0424054
3180,0420;0,0425701
3181,0061;0,0427445
3181,9705;0,0429224
3182,9346;0,0431017
3183,8989;0,0432843
3184,8630;0,0434727
3185,8274;0,0436651
3186,7915;0,0438553
3187,7559;0,0440366
3188,7200;0,0442066
3189,6843;0,0443691
3190,6484;0,0445306
3191,6128;0,0446947
3192,5769;0,0448588
3193,5413;0,0450157
3194,5054;0,0451591
3195,4697;0,0452894
3196,4338;0,045414
3197,3982;0,0455446
3198,3623;0,0456909
3199,3267;0,0458569
3200,2908;0,0460408
3201,2551;0,0462365
3202,2192;0,0464357
3203,1836;0,0466282
3204,1477;0,0468042
3205,1121;0,0469568
3206,0762;0,0470855
3207,0405;0,0471983
3208,0046;0,0473079
3208,9690;0,0474262
3209,9331;0,0475588
3210,8975;0,0477033
3211,8616;0,0478528
3212,8259;0,0480007
3213,7900;0,0481437
3214,7544;0,0482817
3215,7185;0,0484157
3216,6829;0,0485474
3217,6470;0,0486803
3218,6113;0,0488204
3219,5754;0,0489748
3220,5398;0,0491468
3221,5039;0,0493326
3222,4683;0,0495213
3223,4324;0,0497008
3224,3967;0,0498634
3225,3608;0,0500094
3226,3252;0,0501449
3227,2893;0,0502765
3228,2537;0,0504077
3229,2178;0,0505388
3230,1821;0,0506693
3231,1462;0,0508009
3232,1106;0,0509366
3233,0747;0,0510776
3234,0391;0,051222
3235,0032;0,0513659
3235,9675;0,0515074
3236,9316;0,0516494
3237,8960;0,051797
3238,8601;0,051953
3239,8245;0,052113
3240,7886;0,0522667
3241,7529;0,0524045
3242,7170;0,0525248
3243,6814;0,0526388
3244,6455;0,0527658
3245,6099;0,0529236
3246,5740;0,053117
3247,5383;0,0533354
3248,5024;0,0535572
3249,4668;0,05376
3250,4309;0,0539313
3251,3953;0,0540735
3252,3594;0,0542019
3253,3237;0,0543372
3254,2878;0,0544952
3255,2522;0,0546802
3256,2163;0,0548846
3257,1807;0,0550945
3258,1448;0,0552965
3259,1091;0,055483
3260,0732;0,0556521
3261,0376;0,0558067
3262,0017;0,0559512
3262,9661;0,0560921
3263,9302;0,0562368
3264,8945;0,0563921
3265,8586;0,0565604
3266,8230;0,0567357
3267,7871;0,0569024
3268,7515;0,0570408
3269,7156;0,057136
3270,6799;0,0571871
3271,6440;0,0572096
3272,6084;0,0572301
3273,5725;0,0572746
3274,5369;0,0573574
3275,5010;0,0574755
3276,4653;0,0576129
3277,4294;0,0577499
3278,3938;0,0578722
3279,3579;0,0579745
3280,3223;0,0580582
3281,2864;0,0581256
3282,2507;0,0581772
3283,2148;0,058212
3284,1792;0,0582308
3285,1433;0,0582389
3286,1077;0,0582448
3287,0718;0,0582562
3288,0361;0,0582755
3289,0002;0,0582997
3289,9646;0,0583225
3290,9287;0,0583392
3291,8931;0,0583483
3292,8572;0,058352
3293,8215;0,0583527
3294,7856;0,0583532
3295,7500;0,0583568
3296,7141;0,0583668
3297,6785;0,0583862
3298,6426;0,0584148
3299,6069;0,0584485
3300,5710;0,0584796
3301,5354;0,0585003
3302,4995;0,0585055
3303,4639;0,0584934
3304,4280;0,0584657
3305,3923;0,058426
3306,3564;0,0583801
3307,3208;0,058336
3308,2849;0,0583028
3309,2493;0,0582877
3310,2134;0,0582927
3311,1777;0,0583149
3312,1418;0,0583484
3313,1062;0,0583893
3314,0703;0,0584372
3315,0347;0,0584946
3315,9988;0,0585638
3316,9631;0,058644
3317,9272;0,0587316
3318,8916;0,0588216
3319,8557;0,0589092
3320,8201;0,0589905
3321,7842;0,0590625
3322,7485;0,0591236
3323,7126;0,0591742
3324,6770;0,0592186
3325,6411;0,059264
3326,6055;0,0593181
3327,5696;0,0593864
3328,5339;0,059468
3329,4980;0,0595564
3330,4624;0,059641
3331,4265;0,0597096
3332,3909;0,0597523
3333,3550;0,0597646
3334,3193;0,059749
3335,2834;0,0597152
3336,2478;0,0596757
3337,2119;0,0596396
3338,1763;0,0596086
3339,1404;0,0595765
3340,1047;0,0595337
3341,0688;0,059473
3342,0332;0,0593926
3342,9973;0,0592961
3343,9617;0,0591882
3344,9258;0,0590719
3345,8901;0,0589472
3346,8542;0,0588137
3347,8186;0,0586727
3348,7827;0,0585271
3349,7471;0,0583796
3350,7112;0,0582307
3351,6755;0,0580785
3352,6396;0,057922
3353,6040;0,0577636
3354,5681;0,0576099
3355,5325;0,0574683
3356,4966;0,057342
3357,4609;0,0572277
3358,4250;0,0571171
3359,3894;0,0570008
3360,3535;0,0568738
3361,3179;0,0567367
3362,2820;0,0565947
3363,2463;0,0564544
3364,2104;0,0563203
3365,1748;0,0561947
3366,1389;0,0560776
3367,1033;0,0559679
3368,0674;0,055864
3369,0317;0,0557635
3369,9958;0,0556639
3370,9602;0,0555625
3371,9243;0,0554573
3372,8887;0,0553465
3373,8528;0,0552294
3374,8171;0,0551061
3375,7813;0,0549785
3376,7456;0,0548501
3377,7097;0,0547239
3378,6741;0,0546001
3379,6382;0,0544739
3380,6025;0,0543374
3381,5667;0,0541854
3382,5310;0,0540216
3383,4951;0,0538612
3384,4595;0,0537253
3385,4236;0,0536283
3386,3879;0,0535675
3387,3521;0,0535214
3388,3164;0,0534595
3389,2805;0,0533582
3390,2449;0,0532134
3391,2090;0,0530424
3392,1733;0,0528746
3393,1375;0,052735
3394,1018;0,0526328
3395,0659;0,05256
3396,0303;0,0524989
3396,9944;0,0524318
3397,9587;0,0523469
3398,9229;0,0522408
3399,8872;0,0521172
3400,8513;0,051984
3401,8157;0,0518507
3402,7798;0,0517241
3403,7441;0,0516059
3404,7083;0,0514924
3405,6726;0,0513768
3406,6367;0,0512533
3407,6011;0,0511189
3408,5652;0,0509736
3409,5295;0,0508174
3410,4937;0,0506502
3411,4580;0,0504732
3412,4221;0,0502906
3413,3865;0,0501095
3414,3506;0,0499341
3415,3149;0,0497605
3416,2791;0,0495737
3417,2434;0,049357
3418,2075;0,049104
3419,1719;0,0488289
3420,1360;0,0485635
3421,1003;0,0483427
3422,0645;0,0481847
3423,0288;0,0480817
3423,9929;0,0480055
3424,9573;0,047922
3425,9214;0,0478054
3426,8857;0,0476471
3427,8499;0,0474561
3428,8142;0,0472525
3429,7783;0,0470577
3430,7427;0,0468854
3431,7068;0,0467374
3432,6711;0,0466055
3433,6353;0,0464768
3434,5996;0,046338
3435,5637;0,0461785
3436,5281;0,0459923
3437,4922;0,0457788
3438,4565;0,0455447
3439,4207;0,0453031
3440,3850;0,0450677
3441,3491;0,0448442
3442,3135;0,0446235
3443,2776;0,0443857
3444,2419;0,0441138
3445,2061;0,0438119
3446,1704;0,0435121
3447,1345;0,0432598
3448,0989;0,0430853
3449,0630;0,0429835
3450,0273;0,0429187
3450,9915;0,0428465
3451,9558;0,0427362
3452,9199;0,0425813
3453,8843;0,0423955
3454,8484;0,0421978
3455,8127;0,0419971
3456,7769;0,0417877
3457,7412;0,0415573
3458,7053;0,0413005
3459,6697;0,0410277
3460,6338;0,0407611
3461,5981;0,0405229
3462,5623;0,0403214
3463,5266;0,040147
3464,4907;0,0399781
3465,4551;0,0397957
3466,4192;0,0395929
3467,3835;0,0393777
3468,3477;0,0391636
3469,3120;0,0389584
3470,2761;0,0387573
3471,2405;0,0385477
3472,2046;0,0383208
3473,1689;0,0380816
3474,1331;0,0378481
3475,0974;0,0376369
3476,0615;0,0374484
3477,0259;0,0372622
3477,9900;0,0370493
3478,9543;0,0367924
3479,9185;0,0365016
3480,8828;0,0362124
3481,8469;0,035962
3482,8113;0,0357632
3483,7754;0,0355961
3484,7397;0,035426
3485,7039;0,035228
3486,6682;0,0350039
3487,6323;0,0347801
3488,5967;0,0345882
3489,5608;0,0344409
3490,5251;0,0343207
3491,4893;0,0341891
3492,4536;0,0340087
3493,4177;0,0337652
3494,3821;0,0334789
3495,3462;0,033196
3496,3105;0,0329595
3497,2747;0,0327783
3498,2390;0,0326168
3499,2031;0,0324124
3500,1675;0,0321132
3501,1316;0,0317177
3502,0959;0,0312917
3503,0601;0,0309343
3504,0244;0,0307112
3504,9885;0,0306126
3505,9529;0,0305683
3506,9170;0,0304949
3507,8813;0,0303412
3508,8455;0,0301114
3509,8098;0,0298569
3510,7739;0,0296362
3511,7383;0,0294747
3512,7024;0,0293558
3513,6667;0,0292416
3514,6309;0,0291012
3515,5952;0,0289257
3516,5593;0,0287268
3517,5237;0,0285211
3518,4878;0,0283145
3519,4521;0,0280963
3520,4163;0,027848
3521,3806;0,0275573
3522,3447;0,0272281
3523,3091;0,0268768
3524,2732;0,0265215
3525,2375;0,0261755
3526,2017;0,0258528
3527,1660;0,0255771
3528,1301;0,0253793
3529,0945;0,0252801
3530,0586;0,0252692
3531,0229;0,0253057
3531,9871;0,0253333
3532,9514;0,0253018
3533,9155;0,0251851
3534,8799;0,024991
3535,8440;0,0247563
3536,8083;0,0245264
3537,7725;0,0243302
3538,7368;0,0241698
3539,7009;0,0240262
3540,6653;0,0238687
3541,6294;0,0236609
3542,5938;0,0233734
3543,5579;0,0230076
3544,5222;0,0226106
3545,4863;0,0222545
3546,4507;0,0219852
3547,4148;0,0217944
3548,3792;0,0216397
3549,3433;0,0214797
3550,3076;0,0212942
3551,2717;0,0210935
3552,2361;0,0209145
3553,2002;0,0207956
3554,1646;0,0207456
3555,1287;0,0207353
3556,0930;0,0207126
3557,0571;0,0206226
3558,0215;0,0204299
3558,9856;0,0201408
3559,9500;0,0198087
3560,9141;0,0195065
3561,8784;0,0192779
3562,8425;0,0190981
3563,8069;0,0188757
3564,7710;0,0185213
3565,7354;0,0180638
3566,6995;0,0176714
3567,6638;0,0174761
3568,6279;0,0174358
3569,5923;0,0174379
3570,5564;0,0174259
3571,5208;0,0173912
3572,4849;0,0173239
3573,4492;0,0172094
3574,4133;0,0170511
3575,3777;0,0168776
3576,3418;0,0167206
3577,3062;0,0165916
3578,2703;0,0164833
3579,2346;0,0163912
3580,1987;0,0163337
3581,1631;0,016347
3582,1272;0,0164535
3583,0916;0,0166202
3584,0557;0,0167396
3585,0200;0,0166763
3585,9841;0,0163892
3586,9485;0,0160154
3587,9126;0,0157529
3588,8770;0,0156708
3589,8411;0,0157133
3590,8054;0,0158028
3591,7695;0,0158629
3592,7339;0,0158114
3593,6980;0,0155976
3594,6624;0,0152485
3595,6265;0,0148496
3596,5908;0,0144774
3597,5549;0,0141591
3598,5193;0,0138894
3599,4834;0,0136665
3600,4478;0,0135097
3601,4119;0,0134436
3602,3762;0,0134699
3603,3403;0,0135516
3604,3047;0,0136102
3605,2688;0,0135392
3606,2332;0,0132519
3607,1973;0,0127392
3608,1616;0,0120708
3609,1257;0,0113295
3610,0901;0,0105644
3611,0542;0,00981882
3612,0186;0,0091756
3612,9827;0,00874952
3613,9470;0,00862339
3614,9111;0,00878397
3615,8755;0,00911386
3616,8396;0,00944953
3617,8040;0,00967627
3618,7681;0,00979507
3619,7324;0,00988666
3620,6965;0,0100163
3621,6609;0,0102234
3622,6250;0,0105725
3623,5894;0,0111311
3624,5535;0,0118673
3625,5178;0,0125649
3626,4819;0,0128603
3627,4463;0,0124894
3628,4104;0,0115833
3629,3748;0,0105466
3630,3389;0,00963445
3631,3032;0,00889737
3632,2673;0,00834235
3633,2317;0,00795504
3634,1958;0,00767398
3635,1602;0,00741658
3636,1243;0,00712701
3637,0886;0,00679558
3638,0527;0,00644013
3639,0171;0,00607923
3639,9812;0,00572756
3640,9456;0,00541406
3641,9097;0,00519555
3642,8740;0,0051365
3643,8381;0,00524749
3644,8025;0,00540207
3645,7666;0,00528986
3646,7310;0,00454026
3647,6951;0,00315568
3648,6594;0,00184973
3649,6235;0,0013424
3650,5879;0,00149893
3651,5520;0,00185124
3652,5164;0,00221128
3653,4805;0,00256225
3654,4448;0,00285018
3655,4089;0,00298018
3656,3733;0,00291829
3657,3374;0,0027337
3658,3018;0,00253916
3659,2659;0,0024157
3660,2302;0,00237955
3661,1943;0,00239417
3662,1587;0,00242108
3663,1228;0,00247197
3664,0872;0,00260623
3665,0513;0,00285229
3666,0156;0,00312128
3666,9797;0,0031955
3667,9441;0,00287823
3668,9082;0,00224277
3669,8726;0,00165923
3670,8367;0,00145545
3671,8010;0,00164582
3672,7651;0,00198342
3673,7295;0,00214069
3674,6936;0,00193826
3675,6580;0,00150895
3676,6221;0,00112697
3677,5864;0,000923616
3678,5505;0,000903701
3679,5149;0,00105277
3680,4790;0,00133881
3681,4434;0,00171123
3682,4075;0,00214054
3683,3718;0,00263821
3684,3359;0,00320962
3685,3003;0,00376661
3686,2644;0,00408644
3687,2288;0,0039256
3688,1929;0,0033013
3689,1572;0,00262845
3690,1213;0,00234748
3691,0857;0,00251041
3692,0498;0,002918
3693,0142;0,00340716
3693,9783;0,0039111
3694,9426;0,00441184
3695,9067;0,00490535
3696,8711;0,00538057
3697,8352;0,00579875
3698,7996;0,00608747
3699,7637;0,00617194
3700,7280;0,0060361
3701,6921;0,00575601
3702,6565;0,00545817
3703,6206;0,00524815
3704,5850;0,00517963
3705,5491;0,00524685
3706,5134;0,00536078
3707,4775;0,00533056
3708,4419;0,00491926
3709,4060;0,00402771
3710,3704;0,00289071
3711,3345;0,00195022
3712,2988;0,00143938
3713,2629;0,00128821
3714,2273;0,001384
3715,1914;0,00169755
3716,1558;0,00221905
3717,1199;0,00288945
3718,0842;0,00360183
3719,0483;0,00425186
3720,0127;0,00478758
3720,9768;0,00521852
3721,9412;0,00558324
3722,9053;0,00590948
3723,8696;0,0061987
3724,8337;0,00643459
3725,7981;0,00660258
3726,7622;0,00670992
3727,7266;0,00679089
3728,6907;0,00688007
3729,6550;0,00696676
3730,6191;0,00696676
3731,5835;0,00674274
3732,5476;0,00618524
3733,5120;0,0053231
3734,4761;0,00433884
3735,4404;0,00339973
3736,4045;0,0025344
3737,3689;0,00178572
3738,3330;0,00135026
3739,2974;0,00146927
3740,2615;0,00222015
3741,2258;0,00337206
3742,1899;0,0043797
3743,1543;0,00462541
3744,1184;0,00388397
3745,0828;0,00253732
3746,0469;0,00119662
3747,0112;0,0002346
3747,9753;-0,0003347
3748,9397;-0,000717057
3749,9038;-0,00106811
3750,8682;-0,00133636
3751,8323;-0,00146571
3752,7966;-0,00153599
3753,7607;-0,00157973
3754,7251;-0,00153615
3755,6892;-0,00138656
3756,6536;-0,00120267
3757,6177;-0,00106525
3758,5820;-0,000978339
3759,5461;-0,000888654
3760,5105;-0,000758949
3761,4746;-0,000588599
3762,4390;-0,000396618
3763,4031;-0,000214416
3764,3674;-7,91385E-05
3765,3315;-1,77405E-05
3766,2959;-3,59371E-05
3767,2600;-0,000120975
3768,2244;-0,00024671
3769,1885;-0,000373534
3770,1528;-0,000456846
3771,1169;-0,00046471
3772,0813;-0,000385433
3773,0454;-0,000220006
3774,0098;1,24627E-05
3774,9739;0,00025342
3775,9382;0,000403136
3776,9023;0,000372715
3777,8667;0,00016335
3778,8308;-0,000121954
3779,7952;-0,000369732
3780,7593;-0,00054203
3781,7236;-0,000663081
3782,6877;-0,000758967
3783,6521;-0,000823665
3784,6162;-0,000824925
3785,5806;-0,000737228
3786,5447;-0,000570334
3787,5090;-0,000365196
3788,4731;-0,000159453
3789,4375;3,81828E-05
3790,4016;0,000235943
3791,3660;0,000421493
3792,3301;0,000537461
3793,2944;0,000504105
3794,2585;0,0002861
3795,2229;-5,17549E-05
3796,1870;-0,000370994
3797,1514;-0,000567358
3798,1155;-0,000665124
3799,0798;-0,000797583
3800,0439;-0,00106435
3801,0083;-0,0013953
3801,9724;-0,00160049
3802,9368;-0,00154922
3803,9009;-0,00125181
3804,8652;-0,000825623
3805,8293;-0,000439116
3806,7937;-0,000230825
3807,7578;-0,000224661
3808,7222;-0,000311877
3809,6863;-0,000311878
3810,6506;-7,80536E-05
3811,6147;0,000390752
3812,5791;0,000900617
3813,5432;0,001145
3814,5076;0,000920296
3815,4717;0,000306798
3816,4360;-0,000410932
3817,4001;-0,00100125
3818,3645;-0,00141195
3819,3286;-0,0016902
3820,2930;-0,00185982
3821,2571;-0,00191272
3822,2214;-0,00188207
3823,1855;-0,00182225
3824,1499;-0,00173202
3825,1140;-0,0015665
3826,0784;-0,00130237
3827,0425;-0,0009692
3828,0068;-0,00063525
3828,9709;-0,000373912
3829,9353;-0,00023006
3830,8994;-0,000199065
3831,8638;-0,000230134
3832,8279;-0,000260807
3833,7922;-0,000270462
3834,7563;-0,000316393
3835,7207;-0,0005076
3836,6848;-0,00090549
3837,6492;-0,00142402
3838,6133;-0,00186051
3839,5776;-0,00205253
3840,5417;-0,00197847
3841,5061;-0,00171943
3842,4702;-0,00138963
3843,4346;-0,00109771
3844,3987;-0,000912393
3845,3630;-0,000819294
3846,3271;-0,000701685
3847,2915;-0,000380109
3848,2556;0,000290664
3849,2200;0,00129901
3850,1841;0,00237586
3851,1484;0,00302712
3852,1125;0,00287527
3853,0769;0,00209841
3854,0410;0,00115501
3855,0054;0,000226772
3855,9695;-0,000581523
3856,9338;-0,00106579
3857,8979;-0,00109858
3858,8623;-0,00075329
3859,8264;-0,000278163
3860,7908;2,91439E-05
3861,7549;1,51576E-06
3862,7192;-0,000271139
3863,6833;-0,000518794
3864,6477;-0,000528299
3865,6118;-0,000288004
3866,5762;5,38058E-05
3867,5403;0,00029608
3868,5046;0,000283392
3869,4688;-1,04874E-05
3870,4331;-0,000458408
3871,3972;-0,000860941
3872,3616;-0,00106706
3873,3257;-0,00102263
3874,2900;-0,000744308
3875,2542;-0,000291368
3876,2185;0,000233449
3877,1826;0,000684817
3878,1470;0,000914509
3879,1111;0,000857316
3880,0754;0,000597819
3881,0396;0,000326068
3882,0039;0,000199428
3882,9680;0,000245536
3883,9324;0,00038301
3884,8965;0,000510192
3885,8608;0,000577482
3886,8250;0,000597452
3887,7893;0,000600545
3888,7534;0,000578508
3889,7178;0,000473816
3890,6819;0,000247409
3891,6462;-4,01966E-05
3892,6104;-0,000251356
3893,5747;-0,000270181
3894,5388;-5,2661E-05
3895,5032;0,000367757
3896,4673;0,000874836
3897,4316;0,00129835
3898,3958;0,00149878
3899,3601;0,00144398
3900,3242;0,00119732
3901,2886;0,000839688
3902,2527;0,000435748
3903,2170;5,74976E-05
3904,1812;-0,000217904
3905,1455;-0,000347168
3906,1096;-0,000333203
3907,0740;-0,000204368
3908,0381;-1,15886E-06
3909,0024;0,000227813
3909,9666;0,000440048
3910,9309;0,000619006
3911,8950;0,000775998
3912,8594;0,00092548
3913,8235;0,00105421
3914,7878;0,00111632
3915,7520;0,00106705
3916,7163;0,00090876
3917,6804;0,000698124
3918,6448;0,000503535
3919,6089;0,00036145
3920,5732;0,000270756
3921,5374;0,000206631
3922,5017;0,000141587
3923,4658;6,93226E-05
3924,4302;1,28726E-05
3925,3943;4,49184E-06
3926,3586;5,91302E-05
3927,3228;0,000164434
3928,2871;0,000283701
3929,2512;0,000368837
3930,2156;0,000387657
3931,1797;0,000347604
3932,1440;0,000286564
3933,1082;0,000240527
3934,0725;0,000228926
3935,0366;0,000262471
3936,0010;0,000346928
3936,9651;0,000475059
3937,9294;0,000619721
3938,8936;0,00073876
3939,8579;0,00079369
3940,8220;0,000773728
3941,7864;0,000706637
3942,7505;0,000641229
3943,7148;0,000611277
3944,6790;0,000614635
3945,6433;0,000617786
3946,6074;0,00057858
3947,5718;0,000475475
3948,5359;0,000328438
3949,5002;0,000191623
3950,4644;0,00011831
3951,4287;0,000129706
3952,3928;0,000211491
3953,3572;0,000330305
3954,3213;0,000453044
3955,2856;0,000559493
3956,2498;0,00064423
3957,2141;0,000708625
3958,1782;0,000751306
3959,1426;0,000766167
3960,1067;0,000749456
3961,0710;0,000708266
3962,0352;0,000661245
3962,9995;0,000629492
3963,9636;0,000625432
3964,9280;0,00064634
3965,8921;0,000678552
3966,8564;0,00070552
3967,8206;0,000716354
3968,7849;0,000709876
3969,7490;0,000692613
3970,7134;0,000673201
3971,6775;0,000657697
3972,6418;0,000648288
3973,6060;0,000644885
3974,5703;0,000646991
3975,5344;0,000654291
3976,4988;0,000665881
3977,4629;0,000679584
3978,4272;0,000692166
3979,3914;0,000700857
3980,3557;0,000705427
3981,3198;0,000709448
3982,2842;0,000718932
3983,2483;0,00073869
3984,2126;0,000768718
3985,1768;0,000803342
3986,1411;0,00083361
3987,1052;0,000851547
3988,0696;0,000854014
3989,0337;0,000842547
3989,9980;0,000822194
3990,9622;0,00079784
3991,9265;0,000772524
3992,8906;0,000748455
3993,8550;0,000729077
3994,8191;0,000719493
3995,7834;0,000724169
3996,7476;0,000743612
3997,7119;0,000772991
3998,6760;0,000804252
3999,6404;0,000830287
4000,6045;0,000222763

##### Extended Information
[Comments]
Sample name
Comment
Username
Division
Organization;UNIVERSIDAD INDUSTRIAL DE SANTANDER

[Detailed Information]
Creation date;4/02/2025 9:28 a.m.

Data array type;Linear data array
Horizontal axis;Wavenumber [cm-1]
Vertical axis;Abs
Start;399,193 cm-1
End;4000,6 cm-1
Data interval;0,964233 cm-1
Data points;3736    

[Measurement Information]
Model name;FT/IR-4X1typeA
Serial No.;A035162111

Accessory;ATR PRO 4X
Accessory S/N;A021162126
Incident angle;45 deg

Measurement date;4/02/2025 9:28 a.m.

Light source;Standard
Detector;TGS
Accumulation;Auto (76)
Resolution;4 cm-1
Zero filling;On
Apodization;Cosine
Gain;Auto (8)
Aperture;Auto (7 mm)
Scan speed;Auto (2 mm/sec)
Filter;Auto (12800 Hz)

