TITLE;
DATA TYPE;INFRARED SPECTRUM
ORIGIN;JASCO
OWNER;
DATE;25/02/05
TIME;11:23:49
SPECTROMETER/DATA SYSTEM;
LOCALE;9226
RESOLUTION;
DELTAX;0,964233
XUNITS;1/CM
YUNITS;ABSORBANCE
FIRSTX;  399,1927
LASTX; 4000,6047
NPOINTS;    3736
FIRSTY;     0,15550
MAXY;     0,20203
MINY;    -0,00726
XYDATA
399,1927;0,155496
400,1569;0,155909
401,1211;0,155938
402,0854;0,155559
403,0496;0,154836
404,0138;0,153932
404,9781;0,15309
405,9423;0,152564
406,9065;0,152512
407,8708;0,152918
408,8350;0,153615
409,7992;0,154375
410,7635;0,155002
411,7277;0,155408
412,6919;0,155642
413,6562;0,155852
414,6204;0,156224
415,5846;0,156938
416,5489;0,158124
417,5131;0,159782
418,4773;0,161628
419,4416;0,163153
420,4058;0,16404
421,3700;0,164392
422,3343;0,164454
423,2985;0,164369
424,2627;0,164166
425,2270;0,163851
426,1912;0,163476
427,1554;0,16315
428,1197;0,162983
429,0839;0,163028
430,0481;0,163252
431,0124;0,163548
431,9766;0,163765
432,9408;0,163759
433,9051;0,163444
434,8693;0,162828
435,8335;0,162025
436,7978;0,161208
437,7620;0,160531
438,7262;0,160052
439,6905;0,159734
440,6547;0,159478
441,6189;0,159193
442,5832;0,158828
443,5474;0,158374
444,5116;0,157832
445,4759;0,157183
446,4401;0,156408
447,4043;0,155524
448,3686;0,154603
449,3328;0,153753
450,2970;0,153064
451,2613;0,152566
452,2255;0,152226
453,1897;0,151982
454,1540;0,151793
455,1182;0,15164
456,0824;0,151496
457,0467;0,151286
458,0109;0,150904
458,9751;0,150298
459,9394;0,149539
460,9036;0,148789
461,8678;0,148195
462,8321;0,147829
463,7963;0,147674
464,7605;0,147658
465,7248;0,147705
466,6890;0,147779
467,6532;0,14789
468,6175;0,148054
469,5817;0,148245
470,5459;0,148384
471,5102;0,148375
472,4744;0,148183
473,4386;0,147882
474,4029;0,147616
475,3671;0,147506
476,3313;0,147585
477,2956;0,147804
478,2598;0,148075
479,2240;0,148327
480,1883;0,148542
481,1525;0,148763
482,1167;0,149055
483,0810;0,149455
484,0452;0,149944
485,0094;0,15045
485,9737;0,150911
486,9379;0,151317
487,9021;0,151716
488,8664;0,152172
489,8306;0,152708
490,7948;0,153276
491,7591;0,153777
492,7233;0,154107
493,6875;0,154225
494,6518;0,154176
495,6160;0,154065
496,5802;0,154014
497,5445;0,154129
498,5087;0,154476
499,4729;0,15507
500,4372;0,155859
501,4014;0,156712
502,3656;0,15746
503,3299;0,157964
504,2941;0,158193
505,2583;0,158222
506,2226;0,158194
507,1868;0,158237
508,1510;0,158421
509,1153;0,158743
510,0795;0,159156
511,0437;0,159611
512,0080;0,160089
512,9722;0,160594
513,9365;0,16114
514,9007;0,161728
515,8649;0,162339
516,8292;0,162935
517,7934;0,163466
518,7576;0,163895
519,7219;0,164203
520,6861;0,164399
521,6503;0,164505
522,6146;0,164545
523,5788;0,164545
524,5430;0,16453
525,5073;0,164524
526,4715;0,164548
527,4357;0,164604
528,4000;0,16467
529,3642;0,164708
530,3284;0,164684
531,2927;0,164582
532,2569;0,16442
533,2211;0,16424
534,1854;0,164087
535,1496;0,163976
536,1138;0,163889
537,0781;0,163783
538,0423;0,163627
539,0065;0,163424
539,9708;0,163216
540,9350;0,163062
541,8992;0,163012
542,8635;0,163087
543,8277;0,163274
544,7919;0,163535
545,7562;0,163817
546,7204;0,164067
547,6846;0,164243
548,6489;0,164333
549,6131;0,164355
550,5773;0,164364
551,5416;0,164428
552,5058;0,164609
553,4700;0,164931
554,4343;0,165369
555,3985;0,165846
556,3627;0,166255
557,3270;0,166497
558,2912;0,166512
559,2554;0,166292
560,2197;0,165876
561,1839;0,165335
562,1481;0,164743
563,1124;0,164165
564,0766;0,163646
565,0408;0,163209
566,0051;0,162862
566,9693;0,162599
567,9335;0,162408
568,8978;0,162273
569,8620;0,162177
570,8262;0,162112
571,7905;0,162079
572,7547;0,162088
573,7189;0,162153
574,6832;0,162285
575,6474;0,162474
576,6116;0,162683
577,5759;0,162851
578,5401;0,162906
579,5043;0,162797
580,4686;0,162517
581,4328;0,162113
582,3970;0,161676
583,3613;0,161302
584,3255;0,161055
585,2897;0,160946
586,2540;0,16094
587,2182;0,160982
588,1824;0,161026
589,1467;0,161041
590,1109;0,161009
591,0751;0,160911
592,0394;0,160728
593,0036;0,160455
593,9678;0,160106
594,9321;0,159712
595,8963;0,159305
596,8605;0,158906
597,8248;0,158515
598,7890;0,158124
599,7532;0,157728
600,7175;0,157331
601,6817;0,156934
602,6459;0,156533
603,6102;0,156115
604,5744;0,15567
605,5386;0,155205
606,5029;0,154742
607,4671;0,154303
608,4313;0,153891
609,3956;0,153478
610,3598;0,153035
611,3240;0,152555
612,2883;0,152071
613,2525;0,151639
614,2167;0,151294
615,1810;0,151002
616,1452;0,150656
617,1094;0,150116
618,0737;0,149295
619,0379;0,148211
620,0021;0,146982
620,9664;0,145757
621,9306;0,144649
622,8948;0,143705
623,8591;0,142919
624,8233;0,142221
625,7875;0,141646
626,7518;0,141167
627,7160;0,140765
628,6802;0,140412
629,6445;0,14008
630,6087;0,139742
631,5729;0,139387
632,5372;0,139016
633,5014;0,138638
634,4656;0,138262
635,4299;0,137897
636,3941;0,137551
637,3583;0,137234
638,3226;0,136961
639,2868;0,136734
640,2510;0,136546
641,2153;0,136372
642,1795;0,136186
643,1437;0,135979
644,1080;0,135763
645,0722;0,13557
646,0364;0,13543
647,0007;0,135353
647,9649;0,135315
648,9291;0,13527
649,8934;0,135176
650,8576;0,135019
651,8218;0,13483
652,7861;0,134666
653,7503;0,134581
654,7145;0,134598
655,6788;0,134696
656,6430;0,134829
657,6072;0,134956
658,5715;0,135057
659,5357;0,135121
660,4999;0,135101
661,4642;0,134904
662,4284;0,134401
663,3926;0,133484
664,3569;0,132145
665,3211;0,130596
666,2853;0,129339
667,2496;0,128937
668,2138;0,129349
669,1780;0,129797
670,1423;0,129797
671,1065;0,129392
672,0707;0,128629
673,0350;0,127514
673,9992;0,126157
674,9634;0,124752
675,9277;0,123459
676,8919;0,122311
677,8561;0,121236
678,8204;0,12015
679,7846;0,119037
680,7488;0,117946
681,7131;0,116945
682,6773;0,116068
683,6415;0,115304
684,6058;0,114619
685,5700;0,113988
686,5342;0,1134
687,4985;0,112852
688,4627;0,112339
689,4269;0,111846
690,3912;0,111364
691,3554;0,110893
692,3196;0,11044
693,2839;0,110009
694,2481;0,109597
695,2123;0,109196
696,1766;0,108798
697,1408;0,108394
698,1050;0,107976
699,0693;0,107537
700,0335;0,10708
700,9977;0,106614
701,9620;0,106153
702,9262;0,105707
703,8904;0,105265
704,8547;0,104819
705,8189;0,10436
706,7831;0,103883
707,7474;0,1034
708,7116;0,102921
709,6758;0,102455
710,6401;0,101989
711,6043;0,101504
712,5685;0,100979
713,5328;0,100421
714,4970;0,0998681
715,4612;0,0986494
716,4255;0,0984052
717,3897;0,0983038
718,3539;0,0982282
719,3182;0,0980031
720,2824;0,0974796
721,2466;0,0966204
722,2109;0,0955214
723,1751;0,0943526
724,1393;0,0932689
725,1036;0,0923516
726,0678;0,0916005
727,0320;0,0909624
727,9963;0,0903715
728,9605;0,0897805
729,9247;0,0891735
730,8890;0,0885596
731,8532;0,0879587
732,8174;0,0873872
733,7817;0,0868501
734,7459;0,0863413
735,7101;0,0858519
736,6744;0,0853795
737,6386;0,0849328
738,6028;0,0845248
739,5671;0,0841592
740,5313;0,08382
741,4955;0,083473
742,4598;0,083082
743,4240;0,0826273
744,3882;0,082116
745,3525;0,0815758
746,3167;0,0810386
747,2809;0,0805248
748,2452;0,0800374
749,2094;0,079567
750,1736;0,0791013
751,1379;0,0786323
752,1021;0,0781593
753,0663;0,0776876
754,0306;0,0772264
754,9948;0,0767849
755,9590;0,0763679
756,9233;0,0759722
757,8875;0,0755864
758,8517;0,0751964
759,8160;0,0747931
760,7802;0,074378
761,7444;0,073964
762,7087;0,0735686
763,6729;0,0732067
764,6371;0,0728848
765,6014;0,0725995
766,5656;0,0723392
767,5298;0,0720871
768,4941;0,0718248
769,4583;0,0715376
770,4225;0,0712202
771,3868;0,0708801
772,3510;0,070535
773,3152;0,0702052
774,2795;0,0699045
775,2437;0,0696345
776,2079;0,0693862
777,1722;0,0691459
778,1364;0,0689011
779,1006;0,068643
780,0649;0,0683663
781,0291;0,0680676
781,9933;0,0677459
782,9576;0,067404
783,9218;0,0670492
784,8860;0,066691
785,8503;0,0663392
786,8145;0,0660012
787,7787;0,0656819
788,7430;0,0653851
789,7072;0,0651136
790,6714;0,0648701
791,6357;0,0646563
792,5999;0,0644732
793,5641;0,0643201
794,5284;0,0641934
795,4926;0,0640853
796,4568;0,0639834
797,4211;0,063875
798,3853;0,0637513
799,3495;0,0636119
800,3138;0,0634637
801,2780;0,0633167
802,2422;0,0631773
803,2065;0,0630453
804,1707;0,0629149
805,1349;0,0627781
806,0992;0,0626295
807,0634;0,0624671
808,0276;0,0622929
808,9919;0,0621114
809,9561;0,0619296
810,9203;0,0617561
811,8846;0,0615992
812,8488;0,0614641
813,8130;0,0613493
814,7773;0,0612461
815,7415;0,0611405
816,7057;0,061019
817,6700;0,0608757
818,6342;0,0607161
819,5984;0,0605564
820,5627;0,0604165
821,5269;0,0603111
822,4911;0,0602434
823,4554;0,0602049
824,4196;0,0601814
825,3839;0,0601611
826,3481;0,0601388
827,3123;0,0601144
828,2766;0,0600869
829,2408;0,0600503
830,2050;0,0599938
831,1693;0,0599072
832,1335;0,0597851
833,0977;0,0596285
834,0620;0,0594415
835,0262;0,0592277
835,9904;0,0589888
836,9547;0,0587277
837,9189;0,0584522
838,8831;0,0581757
839,8474;0,0579137
840,8116;0,0576775
841,7758;0,0574702
842,7401;0,0572875
843,7043;0,0571216
844,6685;0,056967
845,6328;0,0568222
846,5970;0,0566893
847,5612;0,0565715
848,5255;0,0564709
849,4897;0,0563877
850,4539;0,0563206
851,4182;0,0562661
852,3824;0,0562189
853,3466;0,0561722
854,3109;0,0561195
855,2751;0,0560572
856,2393;0,0559862
857,2036;0,0559104
858,1678;0,0558349
859,1320;0,0557632
860,0963;0,0556968
861,0605;0,0556372
862,0247;0,0555882
862,9890;0,0555563
863,9532;0,055549
864,9174;0,055571
865,8817;0,0556223
866,8459;0,0556986
867,8101;0,0557944
868,7744;0,0559058
869,7386;0,0560304
870,7028;0,0561647
871,6671;0,056301
872,6313;0,0564269
873,5955;0,0565292
874,5598;0,0565989
875,5240;0,056636
876,4882;0,0566492
877,4525;0,0566523
878,4167;0,0566602
879,3809;0,0566871
880,3452;0,0567487
881,3094;0,0568644
882,2736;0,0570567
883,2379;0,0573463
884,2021;0,0577455
885,1663;0,0582525
886,1306;0,0588532
887,0948;0,0595259
888,0590;0,0602495
889,0233;0,0610071
889,9875;0,0617857
890,9517;0,0625712
891,9160;0,0633451
892,8802;0,0640826
893,8444;0,0647551
894,8087;0,0653337
895,7729;0,0657922
896,7371;0,0661077
897,7014;0,0662625
898,6656;0,0662464
899,6298;0,0660607
900,5941;0,0657216
901,5583;0,0652601
902,5225;0,0647174
903,4868;0,0641368
904,4510;0,0635569
905,4152;0,0630075
906,3795;0,0625095
907,3437;0,0620781
908,3079;0,0617244
909,2722;0,0614563
910,2364;0,0612767
911,2007;0,0611829
912,1649;0,061168
913,1292;0,0612237
914,0934;0,0613424
915,0576;0,0615183
916,0219;0,0617453
916,9861;0,0620142
917,9503;0,0623116
918,9146;0,0626217
919,8788;0,0629296
920,8430;0,0632253
921,8073;0,0635041
922,7715;0,063764
923,7357;0,064002
924,7000;0,0642115
925,6642;0,064384
926,6284;0,0645127
927,5927;0,0645978
928,5569;0,0646486
929,5211;0,0646813
930,4854;0,0647139
931,4496;0,0647606
932,4138;0,0648295
933,3781;0,0649235
934,3423;0,0650441
935,3065;0,0651944
936,2708;0,0653792
937,2350;0,0656035
938,1992;0,0658694
939,1635;0,0661751
940,1277;0,0665174
941,0919;0,066895
942,0562;0,067313
943,0204;0,0677835
943,9846;0,0683233
944,9489;0,0689467
945,9131;0,069658
946,8773;0,0704484
947,8416;0,0712974
948,8058;0,0721826
949,7700;0,0730907
950,7343;0,0740251
951,6985;0,0750046
952,6627;0,0760529
953,6270;0,0771856
954,5912;0,078402
955,5554;0,0796862
956,5197;0,0810177
957,4839;0,0823836
958,4481;0,0837842
959,4124;0,0852284
960,3766;0,0867229
961,3408;0,0882628
962,3051;0,0898301
963,2693;0,0914016
964,2335;0,0929613
965,1978;0,094509
966,1620;0,0960614
967,1262;0,0976462
968,0905;0,0992929
969,0547;0,101027
970,0189;0,102868
970,9832;0,104833
971,9474;0,106939
972,9116;0,109207
973,8759;0,111653
974,8401;0,114292
975,8043;0,117128
976,7686;0,120152
977,7328;0,123339
978,6970;0,126649
979,6613;0,130021
980,6255;0,133383
981,5897;0,13665
982,5540;0,139741
983,5182;0,142582
984,4824;0,145126
985,4467;0,147358
986,4109;0,149292
987,3751;0,150967
988,3394;0,152428
989,3036;0,153712
990,2678;0,154841
991,2321;0,155823
992,1963;0,156662
993,1605;0,15737
994,1248;0,157975
995,0890;0,158516
996,0532;0,159034
997,0175;0,159556
997,9817;0,160087
998,9459;0,160617
999,9102;0,161128
1000,8744;0,161611
1001,8386;0,162079
1002,8029;0,162574
1003,7671;0,163154
1004,7313;0,163881
1005,6956;0,164808
1006,6598;0,165963
1007,6240;0,16735
1008,5883;0,168952
1009,5525;0,170741
1010,5167;0,172686
1011,4810;0,174752
1012,4452;0,176902
1013,4094;0,17909
1014,3737;0,181263
1015,3379;0,18337
1016,3021;0,185366
1017,2664;0,18722
1018,2306;0,188921
1019,1948;0,190469
1020,1591;0,191879
1021,1233;0,193171
1022,0875;0,194373
1023,0518;0,195511
1024,0160;0,196611
1024,9802;0,197683
1025,9445;0,198721
1026,9087;0,199699
1027,8729;0,200574
1028,8372;0,201293
1029,8014;0,201799
1030,7656;0,202034
1031,7299;0,201944
1032,6941;0,201485
1033,6583;0,200639
1034,6226;0,199424
1035,5868;0,197905
1036,5510;0,196187
1037,5153;0,194399
1038,4795;0,192673
1039,4437;0,191119
1040,4080;0,189806
1041,3722;0,188762
1042,3364;0,187967
1043,3007;0,187363
1044,2649;0,186869
1045,2291;0,186393
1046,1934;0,185859
1047,1576;0,185217
1048,1218;0,184441
1049,0861;0,183528
1050,0503;0,182473
1051,0145;0,181269
1051,9788;0,179905
1052,9430;0,178376
1053,9072;0,176686
1054,8715;0,174846
1055,8357;0,172863
1056,7999;0,170723
1057,7642;0,168394
1058,7284;0,165841
1059,6926;0,163051
1060,6569;0,160051
1061,6211;0,156915
1062,5853;0,153745
1063,5496;0,150646
1064,5138;0,147707
1065,4780;0,14498
1066,4423;0,142485
1067,4065;0,140216
1068,3707;0,138149
1069,3350;0,136252
1070,2992;0,134488
1071,2634;0,132811
1072,2277;0,131179
1073,1919;0,129546
1074,1561;0,127876
1075,1204;0,126147
1076,0846;0,124354
1077,0488;0,122516
1078,0131;0,120668
1078,9773;0,118863
1079,9415;0,117154
1080,9058;0,115584
1081,8700;0,114182
1082,8342;0,112954
1083,7985;0,111892
1084,7627;0,110977
1085,7269;0,110189
1086,6912;0,109509
1087,6554;0,108928
1088,6196;0,108444
1089,5839;0,108063
1090,5481;0,107795
1091,5123;0,107644
1092,4766;0,107608
1093,4408;0,107673
1094,4050;0,10782
1095,3693;0,108031
1096,3335;0,108294
1097,2977;0,108604
1098,2620;0,108957
1099,2262;0,109341
1100,1904;0,109733
1101,1547;0,1101
1102,1189;0,110405
1103,0831;0,110614
1104,0474;0,11071
1105,0116;0,110692
1105,9758;0,110574
1106,9401;0,110376
1107,9043;0,110113
1108,8685;0,109778
1109,8328;0,109347
1110,7970;0,108781
1111,7612;0,10805
1112,7255;0,107146
1113,6897;0,1061
1114,6539;0,104976
1115,6182;0,10385
1116,5824;0,102789
1117,5466;0,101829
1118,5109;0,100967
1119,4751;0,100167
1120,4393;0,0993709
1121,4036;0,0985172
1122,3678;0,0975503
1123,3320;0,09643
1124,2963;0,0951338
1125,2605;0,0936568
1126,2247;0,0920113
1127,1890;0,0902246
1128,1532;0,0883358
1129,1174;0,0863905
1130,0817;0,0844337
1131,0459;0,0825046
1132,0101;0,0806348
1132,9744;0,0788504
1133,9386;0,0771771
1134,9028;0,0756428
1135,8671;0,0742772
1136,8313;0,0731065
1137,7955;0,0721472
1138,7598;0,0714023
1139,7240;0,0708604
1140,6882;0,0704988
1141,6525;0,0702886
1142,6167;0,0701994
1143,5809;0,0702057
1144,5452;0,07029
1145,5094;0,0704452
1146,4736;0,0706726
1147,4379;0,070976
1148,4021;0,0713561
1149,3663;0,0718059
1150,3306;0,0723098
1151,2948;0,0728465
1152,2590;0,073392
1153,2233;0,0739207
1154,1875;0,0744043
1155,1517;0,0748098
1156,1160;0,0750972
1157,0802;0,0752197
1158,0444;0,0751241
1159,0087;0,0747534
1159,9729;0,0740528
1160,9371;0,0729779
1161,9014;0,071506
1162,8656;0,0696463
1163,8298;0,0674451
1164,7941;0,0649818
1165,7583;0,0623585
1166,7225;0,0596842
1167,6868;0,0570602
1168,6510;0,0545678
1169,6152;0,0522613
1170,5795;0,0501677
1171,5437;0,0482913
1172,5079;0,0466231
1173,4722;0,0451495
1174,4364;0,0438595
1175,4006;0,0427452
1176,3649;0,0417989
1177,3291;0,0410089
1178,2933;0,0403582
1179,2576;0,0398263
1180,2218;0,0393936
1181,1860;0,0390446
1182,1503;0,0387691
1183,1145;0,0385603
1184,0787;0,0384134
1185,0430;0,038325
1186,0072;0,0382943
1186,9714;0,038324
1187,9357;0,03842
1188,8999;0,0385894
1189,8641;0,0388382
1190,8284;0,0391689
1191,7926;0,0395809
1192,7568;0,04007
1193,7211;0,0406295
1194,6853;0,0412503
1195,6495;0,0419211
1196,6138;0,0426297
1197,5780;0,0433636
1198,5422;0,0441119
1199,5065;0,0447081
1200,4707;0,0454792
1201,4349;0,0462449
1202,3992;0,047001
1203,3634;0,0477448
1204,3276;0,0484747
1205,2919;0,0491898
1206,2561;0,0498905
1207,2203;0,0505798
1208,1846;0,0512662
1209,1488;0,0519649
1210,1130;0,0526961
1211,0773;0,0534795
1212,0415;0,0543277
1213,0057;0,0552416
1213,9700;0,0562101
1214,9342;0,0572149
1215,8984;0,0582366
1216,8627;0,0592581
1217,8269;0,0602653
1218,7911;0,0612478
1219,7554;0,0621959
1220,7196;0,0631
1221,6838;0,0639516
1222,6481;0,0647447
1223,6123;0,0654769
1224,5765;0,0661499
1225,5408;0,066769
1226,5050;0,0673413
1227,4692;0,0678731
1228,4335;0,0683681
1229,3977;0,0688257
1230,3619;0,0692417
1231,3262;0,0696099
1232,2904;0,0699252
1233,2546;0,070186
1234,2189;0,0703954
1235,1831;0,0705616
1236,1473;0,0706962
1237,1116;0,0708115
1238,0758;0,070917
1239,0400;0,0710166
1240,0043;0,0711066
1240,9685;0,0711767
1241,9327;0,0712137
1242,8970;0,0712053
1243,8612;0,0711435
1244,8254;0,0710256
1245,7897;0,0708533
1246,7539;0,0706317
1247,7181;0,0703687
1248,6824;0,0700742
1249,6466;0,0697596
1250,6108;0,0694354
1251,5751;0,0691096
1252,5393;0,0687867
1253,5035;0,0684677
1254,4678;0,0681521
1255,4320;0,0678377
1256,3962;0,0675202
1257,3605;0,0671928
1258,3247;0,0668462
1259,2889;0,0664716
1260,2532;0,0660632
1261,2174;0,0656193
1262,1816;0,0651414
1263,1459;0,0646305
1264,1101;0,0640858
1265,0743;0,0635039
1266,0386;0,0628805
1267,0028;0,062211
1267,9670;0,0614917
1268,9313;0,0607207
1269,8955;0,0598987
1270,8597;0,0590312
1271,8240;0,0581281
1272,7882;0,0572033
1273,7524;0,0562722
1274,7167;0,0553506
1275,6809;0,0544534
1276,6451;0,0535945
1277,6094;0,0527841
1278,5736;0,0520259
1279,5378;0,0513159
1280,5021;0,0506448
1281,4663;0,0500033
1282,4305;0,0493875
1283,3948;0,0488
1284,3590;0,0482474
1285,3232;0,0477357
1286,2875;0,0472676
1287,2517;0,0468431
1288,2159;0,0464621
1289,1802;0,046127
1290,1444;0,0458425
1291,1086;0,0456136
1292,0729;0,0454439
1293,0371;0,0453352
1294,0013;0,0452893
1294,9656;0,0453088
1295,9298;0,0453976
1296,8940;0,0455604
1297,8583;0,0458006
1298,8225;0,0461191
1299,7867;0,0465118
1300,7510;0,0469694
1301,7152;0,0474807
1302,6794;0,0480329
1303,6437;0,0486164
1304,6079;0,0492277
1305,5721;0,0498681
1306,5364;0,0505398
1307,5006;0,0512429
1308,4648;0,0519732
1309,4291;0,0527219
1310,3933;0,0534758
1311,3575;0,0542173
1312,3218;0,0549248
1313,2860;0,0555742
1314,2502;0,0561415
1315,2145;0,0566034
1316,1787;0,0569369
1317,1429;0,0571218
1318,1072;0,0571479
1319,0714;0,0570263
1320,0356;0,0567935
1320,9999;0,0565018
1321,9641;0,056201
1322,9283;0,0559232
1323,8926;0,0556804
1324,8568;0,0554707
1325,8210;0,0552877
1326,7853;0,0551255
1327,7495;0,0549795
1328,7137;0,0548432
1329,6780;0,0547052
1330,6422;0,0545507
1331,6064;0,0543669
1332,5707;0,0541479
1333,5349;0,0538977
1334,4991;0,0536233
1335,4634;0,0533246
1336,4276;0,052986
1337,3918;0,0525751
1338,3561;0,0520595
1339,3203;0,0514402
1340,2845;0,0507726
1341,2488;0,0501416
1342,2130;0,0496107
1343,1772;0,0491987
1344,1415;0,0488929
1345,1057;0,0486724
1346,0699;0,0485226
1347,0342;0,0484387
1347,9984;0,0484256
1348,9626;0,0484928
1349,9269;0,0486473
1350,8911;0,0488872
1351,8553;0,0492007
1352,8196;0,0495713
1353,7838;0,0499849
1354,7480;0,0504338
1355,7123;0,0509159
1356,6765;0,0514296
1357,6407;0,0519707
1358,6050;0,0525343
1359,5692;0,0531153
1360,5334;0,0537008
1361,4977;0,0542601
1362,4619;0,0547582
1363,4261;0,0551862
1364,3904;0,0555684
1365,3546;0,0559314
1366,3188;0,0562801
1367,2831;0,0565995
1368,2473;0,0568686
1369,2115;0,0570719
1370,1758;0,0572039
1371,1400;0,0572647
1372,1042;0,0572493
1373,0685;0,0571402
1374,0327;0,0569156
1374,9969;0,0565713
1375,9612;0,0561274
1376,9254;0,0556023
1377,8896;0,0549897
1378,8539;0,0542713
1379,8181;0,0534492
1380,7823;0,0525642
1381,7466;0,0516777
1382,7108;0,0508304
1383,6750;0,0500181
1384,6393;0,0492031
1385,6035;0,0483527
1386,5677;0,0474833
1387,5320;0,0466791
1388,4962;0,0460458
1389,4604;0,0456263
1390,4247;0,0453782
1391,3889;0,045228
1392,3531;0,0451299
1393,3174;0,0450768
1394,2816;0,0450746
1395,2458;0,0451121
1396,2101;0,0451605
1397,1743;0,0451979
1398,1385;0,0452315
1399,1028;0,045294
1400,0670;0,0454192
1401,0313;0,0456188
1401,9955;0,0458803
1402,9597;0,0461816
1403,9240;0,0465077
1404,8882;0,0468579
1405,8524;0,0472439
1406,8167;0,0476788
1407,7809;0,0481655
1408,7451;0,0486977
1409,7094;0,049271
1410,6736;0,0498883
1411,6378;0,0505499
1412,6021;0,0512387
1413,5663;0,0519181
1414,5305;0,0525468
1415,4948;0,0531
1416,4590;0,0535733
1417,4232;0,0539629
1418,3875;0,0542582
1419,3517;0,0544779
1420,3159;0,0546714
1421,2802;0,0548423
1422,2444;0,0549204
1423,2086;0,0548252
1424,1729;0,0545304
1425,1371;0,0540735
1426,1013;0,0535124
1427,0656;0,0528762
1428,0298;0,0521554
1428,9940;0,0513377
1429,9583;0,0504547
1430,9225;0,0495767
1431,8867;0,0487497
1432,8510;0,0479449
1433,8152;0,047081
1434,7794;0,0460914
1435,7437;0,0450015
1436,7079;0,0439797
1437,6721;0,0432637
1438,6364;0,0429634
1439,6006;0,0429856
1440,5648;0,0431603
1441,5291;0,0433738
1442,4933;0,0436015
1443,4575;0,0438722
1444,4218;0,0442177
1445,3860;0,0446424
1446,3502;0,045125
1447,3145;0,0456395
1448,2787;0,0461751
1449,2429;0,0467332
1450,2072;0,0473009
1451,1714;0,0478294
1452,1356;0,0482481
1453,0999;0,0485076
1454,0641;0,0486159
1455,0283;0,0486215
1455,9926;0,0485158
1456,9568;0,0482084
1457,9210;0,0478045
1458,8853;0,0476205
1459,8495;0,0477256
1460,8137;0,0479097
1461,7780;0,0479432
1462,7422;0,0476839
1463,7064;0,0470706
1464,6707;0,0461368
1465,6349;0,0450398
1466,5991;0,0439664
1467,5634;0,0429671
1468,5276;0,0419384
1469,4918;0,0407288
1470,4561;0,0392146
1471,4203;0,0373261
1472,3845;0,0351074
1473,3488;0,0328173
1474,3130;0,0308358
1475,2772;0,0293558
1476,2415;0,028301
1477,2057;0,0275025
1478,1699;0,0268352
1479,1342;0,0262386
1480,0984;0,0256957
1481,0626;0,0252173
1482,0269;0,0248322
1482,9911;0,0245718
1483,9553;0,0244494
1484,9196;0,0244532
1485,8838;0,0245567
1486,8480;0,0247244
1487,8123;0,0248983
1488,7765;0,0250118
1489,7407;0,0250821
1490,7050;0,0252364
1491,6692;0,0255685
1492,6334;0,026057
1493,5977;0,026641
1494,5619;0,0273024
1495,5261;0,028071
1496,4904;0,0289678
1497,4546;0,0299589
1498,4188;0,0309913
1499,3831;0,0320311
1500,3473;0,0330201
1501,3115;0,0338576
1502,2758;0,0344571
1503,2400;0,0348161
1504,2042;0,0350537
1505,1685;0,0353509
1506,1327;0,0356938
1507,0969;0,0357094
1508,0612;0,0352784
1509,0254;0,0348007
1509,9896;0,0344845
1510,9539;0,0342313
1511,9181;0,0339123
1512,8823;0,0334737
1513,8466;0,0329147
1514,8108;0,0322481
1515,7750;0,0314845
1516,7393;0,0306394
1517,7035;0,029738
1518,6677;0,0288048
1519,6320;0,0278632
1520,5962;0,0269538
1521,5604;0,0261521
1522,5247;0,0255357
1523,4889;0,0251192
1524,4531;0,0248454
1525,4174;0,0246477
1526,3816;0,0245061
1527,3458;0,0244402
1528,3101;0,0244636
1529,2743;0,0245597
1530,2385;0,0247081
1531,2028;0,0249182
1532,1670;0,0252239
1533,1312;0,0256396
1534,0955;0,0261285
1535,0597;0,0266142
1536,0239;0,0270232
1536,9882;0,0273415
1537,9524;0,0276545
1538,9166;0,0280835
1539,8809;0,0285398
1540,8451;0,0286307
1541,8093;0,0282631
1542,7736;0,0278402
1543,7378;0,0276078
1544,7020;0,0275378
1545,6663;0,02756
1546,6305;0,0276425
1547,5947;0,0277655
1548,5590;0,0279002
1549,5232;0,0280212
1550,4874;0,0281299
1551,4517;0,0282567
1552,4159;0,0284274
1553,3801;0,0286228
1554,3444;0,0287777
1555,3086;0,0288251
1556,2728;0,028732
1557,2371;0,0284542
1558,2013;0,0279129
1559,1655;0,0273506
1560,1298;0,0273687
1561,0940;0,0280855
1562,0582;0,0291212
1563,0225;0,0301214
1563,9867;0,0309229
1564,9509;0,0315063
1565,9152;0,0319311
1566,8794;0,0322916
1567,8436;0,0326812
1568,8079;0,0331599
1569,7721;0,0337371
1570,7363;0,0343753
1571,7006;0,0350107
1572,6648;0,0355951
1573,6290;0,0361404
1574,5933;0,0367131
1575,5575;0,0373604
1576,5217;0,0380494
1577,4860;0,0387343
1578,4502;0,0394184
1579,4144;0,040102
1580,3787;0,0407629
1581,3429;0,0413923
1582,3071;0,0420099
1583,2714;0,0426475
1584,2356;0,0433288
1585,1998;0,044061
1586,1641;0,0448336
1587,1283;0,0456204
1588,0925;0,046384
1589,0568;0,0470831
1590,0210;0,0476815
1590,9852;0,0481507
1591,9495;0,0484657
1592,9137;0,0486013
1593,8779;0,0485401
1594,8422;0,0482898
1595,8064;0,0478931
1596,7706;0,0474149
1597,7349;0,0469163
1598,6991;0,0464341
1599,6633;0,0459769
1600,6276;0,0455356
1601,5918;0,0450983
1602,5560;0,0446656
1603,5203;0,0442523
1604,4845;0,043876
1605,4487;0,0435397
1606,4130;0,0432268
1607,3772;0,0429142
1608,3414;0,042596
1609,3057;0,0422995
1610,2699;0,0420666
1611,2341;0,041911
1612,1984;0,0418008
1613,1626;0,0416861
1614,1268;0,0415374
1615,0911;0,0413579
1616,0553;0,0411841
1617,0195;0,0410963
1617,9838;0,0411765
1618,9480;0,0414104
1619,9122;0,0416916
1620,8765;0,0419167
1621,8407;0,0420422
1622,8049;0,0420825
1623,7692;0,0420838
1624,7334;0,0420962
1625,6976;0,0421442
1626,6619;0,0422222
1627,6261;0,0423179
1628,5903;0,0424291
1629,5546;0,0425504
1630,5188;0,0426531
1631,4830;0,0426957
1632,4473;0,0426624
1633,4115;0,0425871
1634,3757;0,042513
1635,3400;0,0424215
1636,3042;0,0422931
1637,2684;0,0422213
1638,2327;0,0422865
1639,1969;0,0424406
1640,1611;0,0425877
1641,1254;0,0426662
1642,0896;0,0426651
1643,0538;0,0426151
1644,0181;0,0425731
1644,9823;0,0425762
1645,9465;0,042585
1646,9108;0,0425248
1647,8750;0,0423849
1648,8392;0,0421637
1649,8035;0,0417965
1650,7677;0,0412074
1651,7319;0,0403475
1652,6962;0,0392049
1653,6604;0,0380362
1654,6246;0,0373904
1655,5889;0,0373904
1656,5531;0,0376562
1657,5173;0,0378192
1658,4816;0,037715
1659,4458;0,0373311
1660,4100;0,0367254
1661,3743;0,0359827
1662,3385;0,0352183
1663,3027;0,0345639
1664,2670;0,034086
1665,2312;0,0337408
1666,1954;0,0334219
1667,1597;0,0330226
1668,1239;0,0324653
1669,0881;0,0317313
1670,0524;0,030904
1671,0166;0,0301217
1671,9808;0,0294364
1672,9451;0,0287807
1673,9093;0,0280782
1674,8735;0,0273538
1675,8378;0,0267464
1676,8020;0,0263974
1677,7662;0,0263118
1678,7305;0,0263476
1679,6947;0,0263196
1680,6589;0,0260858
1681,6232;0,0255583
1682,5874;0,0246817
1683,5516;0,0235118
1684,5159;0,022378
1685,4801;0,0216764
1686,4443;0,0214477
1687,4086;0,0214447
1688,3728;0,0214281
1689,3370;0,0212893
1690,3013;0,0210315
1691,2655;0,0207124
1692,2297;0,0204006
1693,1940;0,0201544
1694,1582;0,0200084
1695,1224;0,0199501
1696,0867;0,0198982
1697,0509;0,0197263
1698,0151;0,0193612
1698,9794;0,0188933
1699,9436;0,0185637
1700,9078;0,0185854
1701,8721;0,0189789
1702,8363;0,0195929
1703,8005;0,0202387
1704,7648;0,0207915
1705,7290;0,0212221
1706,6932;0,0215817
1707,6575;0,0219549
1708,6217;0,0224002
1709,5859;0,0229204
1710,5502;0,0234791
1711,5144;0,0240338
1712,4786;0,0245554
1713,4429;0,0250322
1714,4071;0,0254571
1715,3713;0,0257995
1716,3356;0,0260035
1717,2998;0,0260915
1718,2640;0,0262419
1719,2283;0,0266162
1720,1925;0,0271981
1721,1567;0,0278637
1722,1210;0,0285
1723,0852;0,0290507
1724,0494;0,0295147
1725,0137;0,0299302
1725,9779;0,0303493
1726,9421;0,0308048
1727,9064;0,0312855
1728,8706;0,0317369
1729,8348;0,0320834
1730,7991;0,0322519
1731,7633;0,0321864
1732,7275;0,0318756
1733,6918;0,0314238
1734,6560;0,0310471
1735,6202;0,0308804
1736,5845;0,0308509
1737,5487;0,030782
1738,5129;0,0305385
1739,4772;0,0300848
1740,4414;0,0294771
1741,4056;0,0288155
1742,3699;0,0281749
1743,3341;0,0275652
1744,2983;0,0269479
1745,2626;0,0262744
1746,2268;0,0254959
1747,1910;0,0245423
1748,1553;0,0233188
1749,1195;0,0217844
1750,0837;0,0200719
1751,0480;0,01846
1752,0122;0,0171594
1752,9764;0,0161754
1753,9407;0,0153738
1754,9049;0,0146121
1755,8691;0,0138196
1756,8334;0,0130061
1757,7976;0,0122169
1758,7618;0,0114733
1759,7261;0,0107518
1760,6903;0,010018
1761,6545;0,00928037
1762,6188;0,0086021
1763,5830;0,00804989
1764,5472;0,00763803
1765,5115;0,00732646
1766,4757;0,00706141
1767,4399;0,0068102
1768,4042;0,00656462
1769,3684;0,00631754
1770,3326;0,00603774
1771,2969;0,00568198
1772,2611;0,00525877
1773,2253;0,00486628
1774,1896;0,00461634
1775,1538;0,00453231
1776,1180;0,00454837
1777,0823;0,00457701
1778,0465;0,00455976
1779,0107;0,00447832
1779,9750;0,00434223
1780,9392;0,00417106
1781,9034;0,00398218
1782,8677;0,00379134
1783,8319;0,0036226
1784,7961;0,00351031
1785,7604;0,00348212
1786,7246;0,00353598
1787,6888;0,00363663
1788,6531;0,00373613
1789,6173;0,00379666
1790,5815;0,00379646
1791,5458;0,00373038
1792,5100;0,00362782
1793,4742;0,00355481
1794,4385;0,00355651
1795,4027;0,00361179
1796,3669;0,00366146
1797,3312;0,00365817
1798,2954;0,00358726
1799,2596;0,00346073
1800,2239;0,00330528
1801,1881;0,00315433
1802,1523;0,00303917
1803,1166;0,00297774
1804,0808;0,00297016
1805,0450;0,00300365
1806,0093;0,00305961
1806,9735;0,00311735
1807,9377;0,00315572
1808,9020;0,00315611
1809,8662;0,00310974
1810,8304;0,00302524
1811,7947;0,00292593
1812,7589;0,00283423
1813,7231;0,00275843
1814,6874;0,00269474
1815,6516;0,00263934
1816,6158;0,00259675
1817,5801;0,00257839
1818,5443;0,00259344
1819,5085;0,00263897
1820,4728;0,00269844
1821,4370;0,00275091
1822,4012;0,0027839
1823,3655;0,00280033
1824,3297;0,00281526
1825,2939;0,00284288
1826,2582;0,00288034
1827,2224;0,00290104
1828,1866;0,0028665
1829,1509;0,00275506
1830,1151;0,00259153
1831,0793;0,00244316
1832,0436;0,00236899
1833,0078;0,00237526
1833,9720;0,00242432
1834,9363;0,00247408
1835,9005;0,00250582
1836,8647;0,00252749
1837,8290;0,00255706
1838,7932;0,00259931
1839,7574;0,00263632
1840,7217;0,00264128
1841,6859;0,00259981
1842,6501;0,00251848
1843,6144;0,00241968
1844,5786;0,00233476
1845,5428;0,00229127
1846,5071;0,00228996
1847,4713;0,00230023
1848,4355;0,00228756
1849,3998;0,00224138
1850,3640;0,00217876
1851,3282;0,00212766
1852,2925;0,00210619
1853,2567;0,00211446
1854,2209;0,00214124
1855,1852;0,00217565
1856,1494;0,00221186
1857,1136;0,00224585
1858,0779;0,0022697
1859,0421;0,00227326
1860,0063;0,0022539
1860,9706;0,00222534
1861,9348;0,00221511
1862,8990;0,00225037
1863,8633;0,0023432
1864,8275;0,00248488
1865,7917;0,00264536
1866,7560;0,00277216
1867,7202;0,00280073
1868,6844;0,00269608
1869,6487;0,00249428
1870,6129;0,00227742
1871,5771;0,00210598
1872,5414;0,00199259
1873,5056;0,0019242
1874,4698;0,00188813
1875,4341;0,0018791
1876,3983;0,00189478
1877,3625;0,00192964
1878,3268;0,00197452
1879,2910;0,00201899
1880,2552;0,00205476
1881,2195;0,00207769
1882,1837;0,00208832
1883,1479;0,00209156
1884,1122;0,00209534
1885,0764;0,0021082
1886,0406;0,00213597
1887,0049;0,00217774
1887,9691;0,00222285
1888,9333;0,00225398
1889,8976;0,0022586
1890,8618;0,00223892
1891,8260;0,00220896
1892,7903;0,00218261
1893,7545;0,00216479
1894,7188;0,00215038
1895,6830;0,00212964
1896,6472;0,00209694
1897,6115;0,0020567
1898,5757;0,00202105
1899,5399;0,00200164
1900,5042;0,00200212
1901,4684;0,00201607
1902,4326;0,00203122
1903,3969;0,00203821
1904,3611;0,002038
1905,3253;0,00204211
1906,2896;0,00206477
1907,2538;0,00211128
1908,2180;0,00216976
1909,1823;0,00221383
1910,1465;0,00221786
1911,1107;0,00217402
1912,0750;0,00209614
1913,0392;0,00200959
1914,0034;0,00193865
1914,9677;0,00189876
1915,9319;0,00189254
1916,8961;0,00191014
1917,8604;0,00193728
1918,8246;0,00196599
1919,7888;0,00199639
1920,7531;0,00202844
1921,7173;0,00205488
1922,6815;0,00206227
1923,6458;0,00203865
1924,6100;0,00198198
1925,5742;0,00190184
1926,5385;0,0018134
1927,5027;0,00173093
1928,4669;0,00166632
1929,4312;0,00162982
1930,3954;0,00162933
1931,3596;0,00166692
1932,3239;0,0017335
1933,2881;0,00180739
1934,2523;0,0018601
1935,2166;0,00186867
1936,1808;0,0018283
1937,1450;0,00175634
1938,1093;0,00168388
1939,0735;0,00164049
1940,0377;0,00164049
1941,0020;0,00167654
1941,9662;0,00172457
1942,9304;0,00175955
1943,8947;0,00176976
1944,8589;0,00175518
1945,8231;0,00171494
1946,7874;0,00164216
1947,7516;0,00153308
1948,7158;0,00140109
1949,6801;0,0012805
1950,6443;0,00121177
1951,6085;0,00121472
1952,5728;0,0012691
1953,5370;0,00132021
1954,5012;0,0013101
1955,4655;0,00121616
1956,4297;0,00107083
1957,3939;0,000947297
1958,3582;0,000918172
1959,3224;0,00101209
1960,2866;0,00119589
1961,2509;0,00139543
1962,2151;0,00154053
1963,1793;0,00160136
1964,1436;0,00159302
1965,1078;0,00155234
1966,0720;0,00150735
1967,0363;0,00146029
1968,0005;0,00139311
1968,9647;0,00128687
1969,9290;0,0011368
1970,8932;0,00095407
1971,8574;0,000760285
1972,8217;0,000584262
1973,7859;0,000462755
1974,7501;0,000436813
1975,7144;0,000537246
1976,6786;0,000758589
1977,6428;0,00104212
1978,6071;0,00129099
1979,5713;0,00141594
1980,5355;0,00138006
1981,4998;0,00121285
1982,4640;0,000990467
1983,4282;0,000798761
1984,3925;0,00069817
1985,3567;0,000706368
1986,3209;0,000806411
1987,2852;0,000972943
1988,2494;0,00119495
1989,2136;0,00147547
1990,1779;0,00180722
1991,1421;0,00214514
1992,1063;0,00240595
1993,0706;0,00250555
1994,0348;0,00240922
1994,9990;0,00215588
1995,9633;0,00184182
1996,9275;0,00157803
1997,8917;0,00144367
1998,8560;0,00145551
1999,8202;0,00156778
2000,7844;0,0017031
2001,7487;0,00179552
2002,7129;0,00182005
2003,6771;0,00179552
2004,6414;0,00176598
2005,6056;0,0017734
2006,5698;0,00183573
2007,5341;0,0019395
2008,4983;0,00205028
2009,4625;0,0021344
2010,4268;0,00217838
2011,3910;0,00219593
2012,3552;0,00221918
2013,3195;0,00227931
2014,2837;0,00238511
2015,2479;0,00251097
2016,2122;0,00260402
2017,1764;0,00261096
2018,1406;0,00250902
2019,1049;0,00231861
2020,0691;0,00208889
2021,0333;0,00186948
2021,9976;0,00168914
2022,9618;0,00155336
2023,9260;0,00145819
2024,8903;0,00140681
2025,8545;0,00141395
2026,8187;0,00149325
2027,7830;0,00163792
2028,7472;0,00181311
2029,7114;0,0019708
2030,6757;0,00207969
2031,6399;0,00214847
2032,6041;0,00222163
2033,5684;0,00234753
2034,5326;0,00254108
2035,4968;0,00277155
2036,4611;0,00298453
2037,4253;0,00313986
2038,3895;0,00323263
2039,3538;0,00328452
2040,3180;0,00331649
2041,2822;0,00332757
2042,2465;0,00329813
2043,2107;0,00321475
2044,1749;0,00309513
2045,1392;0,00299052
2046,1034;0,00296153
2047,0676;0,00304208
2048,0320;0,00321685
2048,9961;0,00342982
2049,9604;0,00361648
2050,9246;0,00373364
2051,8889;0,00376932
2052,8530;0,00373691
2053,8174;0,00366582
2054,7815;0,00359324
2055,7458;0,00355581
2056,7100;0,00357761
2057,6743;0,00365921
2058,6384;0,00377578
2059,6028;0,00388871
2060,5669;0,00396573
2061,5313;0,00399796
2062,4954;0,00400258
2063,4597;0,00400905
2064,4238;0,00403763
2065,3882;0,00408512
2066,3523;0,0041276
2067,3167;0,0041373
2068,2808;0,00410094
2069,2451;0,00402774
2070,2092;0,00394408
2071,1736;0,00387962
2072,1377;0,00385279
2073,1021;0,00386342
2074,0662;0,00389458
2075,0305;0,00392228
2075,9946;0,00392757
2076,9590;0,00390523
2077,9231;0,00386473
2078,8875;0,00382362
2079,8516;0,00379746
2080,8159;0,00379245
2081,7800;0,00380481
2082,7444;0,00382616
2083,7085;0,00385025
2084,6729;0,00387571
2085,6370;0,0039037
2086,6013;0,00393269
2087,5654;0,00395555
2088,5298;0,00396168
2089,4939;0,00394299
2090,4583;0,00389974
2091,4224;0,00384239
2092,3867;0,00378852
2093,3508;0,00375691
2094,3152;0,00376104
2095,2793;0,00380439
2096,2437;0,00387874
2097,2078;0,00396646
2098,1721;0,00404654
2099,1362;0,00410199
2100,1006;0,00412623
2101,0647;0,00412069
2102,0291;0,00409729
2102,9932;0,00406842
2103,9575;0,00404328
2104,9216;0,00402658
2105,8860;0,0040203
2106,8501;0,0040257
2107,8145;0,00404328
2108,7786;0,00407066
2109,7429;0,00410089
2110,7070;0,00412335
2111,6714;0,00412723
2112,6355;0,0041058
2113,5999;0,00405929
2114,5640;0,00399602
2115,5283;0,00393188
2116,4924;0,00388797
2117,4568;0,00388525
2118,4209;0,00393599
2119,3853;0,00403509
2120,3494;0,0041573
2121,3137;0,00426461
2122,2778;0,00432228
2123,2422;0,00431493
2124,2063;0,00425263
2125,1707;0,00416309
2126,1348;0,00407554
2127,0991;0,0040075
2128,0632;0,00396251
2129,0276;0,00393772
2129,9917;0,00393276
2130,9561;0,00395117
2131,9202;0,00399329
2132,8845;0,00404794
2133,8486;0,00409221
2134,8130;0,00410265
2135,7771;0,00407066
2136,7415;0,00400977
2137,7056;0,00394884
2138,6699;0,00391732
2139,6340;0,00393359
2140,5984;0,00400213
2141,5625;0,00411635
2142,5269;0,00426134
2143,4910;0,0044146
2144,4553;0,00454867
2145,4194;0,00463973
2146,3838;0,00468025
2147,3479;0,00468678
2148,3123;0,00469356
2149,2764;0,00473131
2150,2407;0,00480267
2151,2048;0,00487019
2152,1692;0,00486698
2153,1333;0,004728
2154,0977;0,00442878
2155,0618;0,00401565
2156,0261;0,00361227
2156,9902;0,00338623
2157,9546;0,00346804
2158,9187;0,00385748
2159,8831;0,00440081
2160,8472;0,00487943
2161,8115;0,0051355
2162,7756;0,0051346
2163,7400;0,00494762
2164,7041;0,00469157
2165,6685;0,00446859
2166,6326;0,0043278
2167,5969;0,00426277
2168,5610;0,00423976
2169,5254;0,0042342
2170,4895;0,00425061
2171,4539;0,00431513
2172,4180;0,0044481
2173,3823;0,00463717
2174,3464;0,0048316
2175,3108;0,00496558
2176,2749;0,00499601
2177,2393;0,00492645
2178,2034;0,00479824
2179,1677;0,00465615
2180,1318;0,00451558
2181,0962;0,00435719
2182,0603;0,00415404
2183,0247;0,00390946
2183,9888;0,00367233
2184,9531;0,00351373
2185,9172;0,00348261
2186,8816;0,00357502
2187,8457;0,00373886
2188,8101;0,00390844
2189,7742;0,00404266
2190,7385;0,00414021
2191,7026;0,0042246
2192,6670;0,00431425
2193,6311;0,00440166
2194,5955;0,00445554
2195,5596;0,00444171
2196,5239;0,00434605
2197,4880;0,00418444
2198,4524;0,00399524
2199,4165;0,00382156
2200,3809;0,00369489
2201,3450;0,00362792
2202,3093;0,00361793
2203,2734;0,00365564
2204,2378;0,00373295
2205,2019;0,00384426
2206,1663;0,00398073
2207,1304;0,00412225
2208,0947;0,00423444
2209,0588;0,00427627
2210,0232;0,0042174
2210,9873;0,0040566
2211,9517;0,00382986
2212,9158;0,00360071
2213,8801;0,00343485
2214,8442;0,00337091
2215,8086;0,0034027
2216,7727;0,0034834
2217,7371;0,00355046
2218,7012;0,00355865
2219,6655;0,00350376
2220,6296;0,00342407
2221,5940;0,00337832
2222,5581;0,00341189
2223,5225;0,00352973
2224,4866;0,00369118
2225,4509;0,00382961
2226,4150;0,0038857
2227,3794;0,00383531
2228,3435;0,00370017
2229,3079;0,00353332
2230,2720;0,00339244
2231,2363;0,00331576
2232,2004;0,00331196
2233,1648;0,00336586
2234,1289;0,00345214
2235,0933;0,00354748
2236,0574;0,00363521
2237,0217;0,00370376
2237,9858;0,0037445
2238,9502;0,00375289
2239,9143;0,00373247
2240,8787;0,00369683
2241,8428;0,00366529
2242,8071;0,00365321
2243,7712;0,00366288
2244,7356;0,00368221
2245,6997;0,00369323
2246,6641;0,00368509
2247,6282;0,00366232
2248,5925;0,00364218
2249,5566;0,00364288
2250,5210;0,0036713
2251,4851;0,00371898
2252,4495;0,00376847
2253,4136;0,00380497
2254,3779;0,00382433
2255,3420;0,00383225
2256,3064;0,0038361
2257,2705;0,00383663
2258,2349;0,00382589
2259,1990;0,00379291
2260,1633;0,00373292
2261,1274;0,00365417
2262,0918;0,00357791
2263,0559;0,0035308
2264,0203;0,00353335
2264,9844;0,00358991
2265,9487;0,00368569
2266,9128;0,0037926
2267,8772;0,0038811
2268,8413;0,0039316
2269,8057;0,00394005
2270,7698;0,00391588
2271,7341;0,0038752
2272,6982;0,0038338
2273,6626;0,00380286
2274,6267;0,00378757
2275,5911;0,00378685
2276,5552;0,00379356
2277,5195;0,00379621
2278,4836;0,00378381
2279,4480;0,00375277
2280,4121;0,00371219
2281,3765;0,00368256
2282,3406;0,00368718
2283,3049;0,00374015
2284,2690;0,00383815
2285,2334;0,00396137
2286,1975;0,00408383
2287,1619;0,00418751
2288,1260;0,00427222
2289,0903;0,0043546
2290,0544;0,00445665
2291,0188;0,00459072
2291,9829;0,0047505
2292,9473;0,00491391
2293,9114;0,00505559
2294,8757;0,00516067
2295,8398;0,00523052
2296,8042;0,00527728
2297,7683;0,005312
2298,7327;0,00533601
2299,6968;0,00534197
2300,6611;0,00532361
2301,6252;0,00528636
2302,5896;0,00524944
2303,5537;0,00523812
2304,5181;0,00526946
2305,4822;0,00534019
2306,4465;0,00542368
2307,4106;0,00547803
2308,3750;0,00546216
2309,3391;0,00535277
2310,3035;0,00515475
2311,2676;0,00490045
2312,2319;0,00463738
2313,1960;0,00440907
2314,1604;0,00423781
2315,1245;0,00411901
2316,0889;0,00403029
2317,0530;0,00394947
2318,0173;0,00387014
2318,9814;0,00380602
2319,9458;0,00378278
2320,9099;0,00382445
2321,8743;0,003943
2322,8384;0,0041326
2323,8027;0,0043653
2324,7668;0,00459147
2325,7312;0,00475269
2326,6953;0,00480457
2327,6597;0,00473709
2328,6238;0,00458212
2329,5881;0,00440599
2330,5522;0,00428793
2331,5166;0,00428693
2332,4807;0,00440998
2333,4451;0,0046057
2334,4092;0,00479484
2335,3735;0,00491974
2336,3376;0,00498022
2337,3020;0,00503336
2338,2661;0,00515519
2339,2305;0,00538221
2340,1946;0,00566362
2341,1589;0,00585348
2342,1230;0,00577056
2343,0874;0,00535416
2344,0515;0,00483558
2345,0159;0,00465047
2345,9800;0,00504784
2346,9443;0,00585778
2347,9084;0,00666185
2348,8728;0,00709574
2349,8369;0,00703044
2350,8013;0,00659805
2351,7654;0,00609546
2352,7297;0,00580068
2353,6938;0,00580068
2354,6582;0,00598748
2355,6223;0,0062205
2356,5867;0,00643649
2357,5508;0,00660692
2358,5151;0,00667624
2359,4792;0,00658846
2360,4436;0,00635046
2361,4077;0,00602898
2362,3721;0,00568101
2363,3362;0,00530553
2364,3005;0,0048624
2365,2646;0,00432299
2366,2290;0,00369888
2367,1931;0,00303427
2368,1575;0,0023841
2369,1216;0,00179876
2370,0859;0,00131694
2371,0500;0,000962338
2372,0144;0,000744712
2372,9785;0,000666372
2373,9429;0,000729182
2374,9070;0,00093519
2375,8713;0,00127911
2376,8354;0,00173836
2377,7998;0,0022687
2378,7639;0,00280964
2379,7283;0,0032979
2380,6924;0,00368289
2381,6567;0,00393789
2382,6208;0,00406335
2383,5852;0,00408216
2384,5493;0,00402975
2385,5137;0,00394282
2386,4778;0,00385072
2387,4421;0,00377128
2388,4063;0,00371146
2389,3706;0,00367083
2390,3347;0,0036456
2391,2991;0,00363175
2392,2632;0,00362686
2393,2275;0,00363065
2394,1917;0,00364439
2395,1560;0,00366923
2396,1201;0,00370432
2397,0845;0,00374578
2398,0486;0,00378886
2399,0129;0,00382746
2399,9771;0,00385748
2400,9414;0,00387877
2401,9055;0,00389334
2402,8699;0,0039047
2403,8340;0,00391602
2404,7983;0,00392957
2405,7625;0,00394672
2406,7268;0,00396743
2407,6909;0,00399084
2408,6553;0,00401527
2409,6194;0,00403799
2410,5837;0,00405724
2411,5479;0,004073
2412,5122;0,00408758
2413,4763;0,00410477
2414,4407;0,00412813
2415,4048;0,0041588
2416,3691;0,0041945
2417,3333;0,0042302
2418,2976;0,00426059
2419,2617;0,00428305
2420,2261;0,00429901
2421,1902;0,00431238
2422,1545;0,00432739
2423,1187;0,00434541
2424,0830;0,00436449
2425,0471;0,0043814
2426,0115;0,00439478
2426,9756;0,00440697
2427,9399;0,00442286
2428,9041;0,0044468
2429,8684;0,00447968
2430,8325;0,00451845
2431,7969;0,00455817
2432,7610;0,00459478
2433,7253;0,00462647
2434,6895;0,00465303
2435,6538;0,00467426
2436,6179;0,0046894
2437,5823;0,00469821
2438,5464;0,00470283
2439,5107;0,00470849
2440,4749;0,004722
2441,4392;0,00474853
2442,4033;0,00478861
2443,3677;0,00483724
2444,3318;0,00488559
2445,2961;0,0049246
2446,2603;0,00494857
2447,2246;0,00495732
2448,1887;0,004956
2449,1531;0,00495274
2450,1172;0,00495537
2451,0815;0,00496833
2452,0457;0,00499122
2453,0100;0,00501942
2453,9741;0,00504641
2454,9385;0,00506671
2455,9026;0,00507813
2456,8669;0,00508255
2457,8311;0,00508493
2458,7954;0,00509114
2459,7595;0,00510532
2460,7239;0,00512793
2461,6880;0,00515527
2462,6523;0,00518099
2463,6165;0,00519911
2464,5808;0,00520713
2465,5449;0,00520766
2466,5093;0,0052076
2467,4734;0,00521538
2468,4377;0,00523745
2469,4019;0,00527584
2470,3662;0,00532734
2471,3303;0,00538432
2472,2947;0,0054368
2473,2588;0,00547538
2474,2231;0,00549468
2475,1873;0,00549605
2476,1516;0,00548788
2477,1157;0,00548224
2478,0801;0,00548907
2479,0442;0,00551081
2480,0085;0,00554124
2480,9727;0,00556963
2481,9370;0,00558768
2482,9011;0,00559446
2483,8655;0,00559607
2484,8296;0,00560059
2485,7939;0,00561255
2486,7581;0,00563113
2487,7224;0,00565312
2488,6865;0,00567751
2489,6509;0,00570725
2490,6150;0,00574635
2491,5793;0,0057947
2492,5435;0,00584515
2493,5078;0,00588607
2494,4719;0,005908
2495,4363;0,00590996
2496,4004;0,00590061
2497,3647;0,00589325
2498,3289;0,00589794
2499,2932;0,00591616
2500,2573;0,00594143
2501,2217;0,00596524
2502,1858;0,00598375
2503,1501;0,00600038
2504,1143;0,00602245
2505,0786;0,00605445
2506,0427;0,00609296
2507,0071;0,00612745
2507,9712;0,00614663
2508,9355;0,00614623
2509,8997;0,00613268
2510,8640;0,00612003
2511,8281;0,00612202
2512,7925;0,00614435
2513,7566;0,00618208
2514,7209;0,0062234
2515,6851;0,00625674
2516,6494;0,00627656
2517,6135;0,00628463
2518,5779;0,00628679
2519,5420;0,00628824
2520,5063;0,00629066
2521,4705;0,00629268
2522,4348;0,00629262
2523,3989;0,00629109
2524,3633;0,00629136
2525,3274;0,00629736
2526,2917;0,00631092
2527,2559;0,00633049
2528,2202;0,00635219
2529,1843;0,00637245
2530,1487;0,00639005
2531,1128;0,00640628
2532,0771;0,006423
2533,0413;0,00644058
2534,0056;0,00645756
2534,9697;0,00647229
2535,9341;0,00648488
2536,8982;0,00649757
2537,8625;0,00651257
2538,8267;0,00652918
2539,7910;0,00654296
2540,7551;0,00654808
2541,7195;0,00654181
2542,6836;0,00652752
2543,6479;0,00651365
2544,6121;0,00650888
2545,5764;0,00651665
2546,5405;0,00653321
2547,5049;0,00655051
2548,4690;0,00656208
2549,4333;0,00656737
2550,3975;0,00657162
2551,3618;0,00658122
2552,3259;0,00659827
2553,2903;0,00661851
2554,2544;0,00663435
2555,2188;0,00664074
2556,1829;0,00663968
2557,1472;0,00663962
2558,1113;0,00665001
2559,0757;0,0066746
2560,0398;0,00670816
2561,0042;0,00673888
2561,9683;0,00675514
2562,9326;0,00675211
2563,8967;0,00673435
2564,8611;0,00671322
2565,8252;0,00670089
2566,7896;0,00670454
2567,7537;0,00672362
2568,7180;0,00675082
2569,6821;0,00677601
2570,6465;0,00679101
2571,6106;0,00679332
2572,5750;0,00678725
2573,5391;0,00678188
2574,5034;0,00678644
2575,4675;0,00680545
2576,4319;0,00683605
2577,3960;0,00686946
2578,3604;0,00689586
2579,3245;0,00690993
2580,2888;0,00691385
2581,2529;0,00691597
2582,2173;0,00692605
2583,1814;0,00694994
2584,1458;0,0069865
2585,1099;0,00702815
2586,0742;0,00706443
2587,0383;0,00708669
2588,0027;0,00709192
2588,9668;0,0070842
2589,9312;0,00707328
2590,8953;0,00707076
2591,8596;0,00708521
2592,8237;0,0071185
2593,7881;0,00716495
2594,7522;0,00721382
2595,7166;0,00725412
2596,6807;0,00727917
2597,6450;0,00728893
2598,6091;0,00728919
2599,5735;0,00728855
2600,5376;0,00729472
2601,5020;0,00731171
2602,4661;0,00733885
2603,4304;0,00737158
2604,3945;0,00740371
2605,3589;0,0074303
2606,3230;0,00745006
2607,2874;0,00746616
2608,2515;0,00748475
2609,2158;0,00751167
2610,1799;0,00754914
2611,1443;0,00759424
2612,1084;0,0076403
2613,0728;0,00768044
2614,0369;0,00771113
2615,0012;0,00773365
2615,9653;0,00775266
2616,9297;0,00777299
2617,8938;0,00779669
2618,8582;0,00782216
2619,8223;0,00784569
2620,7866;0,00786416
2621,7507;0,00787722
2622,7151;0,00788781
2623,6792;0,00790071
2624,6436;0,00792033
2625,6077;0,0079486
2626,5720;0,00798433
2627,5361;0,00802391
2628,5005;0,00806323
2629,4646;0,00809966
2630,4290;0,00813305
2631,3931;0,00816515
2632,3574;0,00819783
2633,3215;0,00823121
2634,2859;0,00826309
2635,2500;0,00829034
2636,2144;0,00831123
2637,1785;0,00832712
2638,1428;0,00834208
2639,1069;0,00836059
2640,0713;0,008385
2641,0354;0,00841461
2641,9998;0,00844715
2642,9639;0,00848113
2643,9282;0,00851711
2644,8923;0,00855658
2645,8567;0,00859938
2646,8208;0,0086419
2647,7852;0,00867803
2648,7493;0,00870263
2649,7136;0,00871508
2650,6777;0,00872052
2651,6421;0,00872746
2652,6062;0,00874338
2653,5706;0,00877113
2654,5347;0,00880815
2655,4990;0,00884885
2656,4631;0,00888801
2657,4275;0,0089232
2658,3916;0,00895468
2659,3560;0,00898367
2660,3201;0,00901046
2661,2844;0,00903391
2662,2485;0,00905262
2663,2129;0,00906675
2664,1770;0,00907889
2665,1414;0,0090934
2666,1055;0,0091143
2667,0698;0,0091431
2668,0339;0,00917798
2668,9983;0,00921488
2669,9624;0,00924979
2670,9268;0,0092808
2671,8909;0,00930866
2672,8552;0,00933562
2673,8193;0,00936348
2674,7837;0,00939222
2675,7478;0,00942017
2676,7122;0,00944549
2677,6763;0,00946792
2678,6406;0,00948968
2679,6047;0,00951488
2680,5691;0,00954764
2681,5332;0,00959002
2682,4976;0,00964068
2683,4617;0,0096951
2684,4260;0,00974723
2685,3901;0,00979179
2686,3545;0,0098262
2687,3186;0,00985118
2688,2830;0,00987002
2689,2471;0,00988703
2690,2114;0,00990609
2691,1755;0,00992992
2692,1399;0,0099599
2693,1040;0,00999609
2694,0684;0,0100372
2695,0325;0,0100808
2695,9968;0,0101235
2696,9609;0,0101627
2697,9253;0,0101978
2698,8894;0,0102306
2699,8538;0,0102643
2700,8179;0,0103016
2701,7822;0,0103427
2702,7463;0,0103851
2703,7107;0,0104248
2704,6748;0,0104587
2705,6392;0,0104865
2706,6033;0,0105107
2707,5676;0,0105356
2708,5317;0,0105651
2709,4961;0,0106011
2710,4602;0,0106428
2711,4246;0,0106882
2712,3887;0,0107353
2713,3530;0,0107826
2714,3171;0,0108295
2715,2815;0,0108753
2716,2456;0,010919
2717,2100;0,0109591
2718,1741;0,0109946
2719,1384;0,0110257
2720,1025;0,0110535
2721,0669;0,0110792
2722,0310;0,0111032
2722,9954;0,0111253
2723,9595;0,0111459
2724,9238;0,0111675
2725,8879;0,0111943
2726,8523;0,0112305
2727,8164;0,0112777
2728,7808;0,0113335
2729,7449;0,0113916
2730,7092;0,0114448
2731,6733;0,0114876
2732,6377;0,0115178
2733,6018;0,0115364
2734,5662;0,0115463
2735,5303;0,0115516
2736,4946;0,0115566
2737,4587;0,0115659
2738,4231;0,0115836
2739,3872;0,0116122
2740,3516;0,0116509
2741,3157;0,0116956
2742,2800;0,0117395
2743,2441;0,0117754
2744,2085;0,0117984
2745,1726;0,0118076
2746,1370;0,0118073
2747,1011;0,0118048
2748,0654;0,0118083
2749,0295;0,0118231
2749,9939;0,0118504
2750,9580;0,0118874
2751,9224;0,0119292
2752,8865;0,0119716
2753,8508;0,0120125
2754,8149;0,0120519
2755,7793;0,0120904
2756,7434;0,0121283
2757,7078;0,0121653
2758,6719;0,0122011
2759,6362;0,0122361
2760,6003;0,0122711
2761,5647;0,0123063
2762,5288;0,0123415
2763,4932;0,0123763
2764,4573;0,0124116
2765,4216;0,01245
2766,3857;0,0124949
2767,3501;0,0125482
2768,3142;0,0126084
2769,2786;0,01267
2770,2427;0,0127263
2771,2070;0,0127721
2772,1711;0,0128073
2773,1355;0,012837
2774,0996;0,0128693
2775,0640;0,0129114
2776,0281;0,0129668
2776,9924;0,0130342
2777,9565;0,0131087
2778,9209;0,0131844
2779,8850;0,0132574
2780,8494;0,0133266
2781,8135;0,0133928
2782,7778;0,0134573
2783,7419;0,01352
2784,7063;0,0135797
2785,6704;0,0136351
2786,6348;0,0136871
2787,5989;0,0137394
2788,5632;0,013798
2789,5273;0,0138684
2790,4917;0,0139531
2791,4558;0,0140499
2792,4202;0,0141528
2793,3843;0,0142543
2794,3486;0,0143488
2795,3127;0,0144346
2796,2771;0,0145145
2797,2412;0,0145938
2798,2056;0,0146788
2799,1697;0,0147744
2800,1340;0,0148831
2801,0981;0,0150044
2802,0625;0,0151347
2803,0266;0,0152684
2803,9910;0,0153989
2804,9551;0,0155211
2805,9194;0,0156327
2806,8835;0,0157355
2807,8479;0,0158348
2808,8120;0,0159374
2809,7764;0,0160498
2810,7405;0,0161758
2811,7048;0,0163163
2812,6689;0,01647
2813,6333;0,0166345
2814,5974;0,0168072
2815,5618;0,0169862
2816,5259;0,0171698
2817,4902;0,0173568
2818,4543;0,0175464
2819,4187;0,017739
2820,3828;0,017936
2821,3472;0,0181392
2822,3113;0,0183505
2823,2756;0,0185708
2824,2397;0,0187999
2825,2041;0,0190377
2826,1682;0,0192852
2827,1326;0,0195455
2828,0967;0,0198236
2829,0610;0,0201248
2830,0251;0,0204526
2830,9895;0,0208075
2831,9536;0,0211866
2832,9180;0,0215851
2833,8821;0,0219991
2834,8464;0,0224278
2835,8105;0,0228754
2836,7749;0,023351
2837,7390;0,0238676
2838,7034;0,0244401
2839,6675;0,025084
2840,6318;0,025814
2841,5959;0,0266422
2842,5603;0,0275749
2843,5244;0,028607
2844,4888;0,0297153
2845,4529;0,0308552
2846,4172;0,0319621
2847,3813;0,0329624
2848,3457;0,0337889
2849,3098;0,0343961
2850,2742;0,0347688
2851,2383;0,0349202
2852,2026;0,0348824
2853,1667;0,0346936
2854,1311;0,0343901
2855,0952;0,0340032
2856,0596;0,0335607
2857,0237;0,0330902
2857,9880;0,0326191
2858,9521;0,0321738
2859,9165;0,0317771
2860,8806;0,0314452
2861,8450;0,031187
2862,8091;0,0310046
2863,7734;0,0308952
2864,7375;0,0308531
2865,7019;0,0308705
2866,6660;0,0309374
2867,6304;0,0310404
2868,5945;0,0311615
2869,5588;0,0312799
2870,5229;0,0313757
2871,4873;0,0314357
2872,4514;0,0314574
2873,4158;0,0314491
2874,3799;0,0314266
2875,3442;0,0314062
2876,3083;0,0313999
2877,2727;0,0314129
2878,2368;0,0314462
2879,2012;0,0314994
2880,1653;0,0315733
2881,1296;0,0316699
2882,0938;0,0317911
2883,0581;0,0319365
2884,0222;0,0321034
2884,9866;0,0322881
2885,9507;0,0324874
2886,9150;0,0326996
2887,8792;0,0329234
2888,8435;0,0331573
2889,8076;0,033398
2890,7720;0,0336412
2891,7361;0,033883
2892,7004;0,0341215
2893,6646;0,0343577
2894,6289;0,0345947
2895,5930;0,0348366
2896,5574;0,0350864
2897,5215;0,0353451
2898,4858;0,0356109
2899,4500;0,0358792
2900,4143;0,0361447
2901,3784;0,0364039
2902,3428;0,0366585
2903,3069;0,0369175
2904,2712;0,0371963
2905,2354;0,0375141
2906,1997;0,0378889
2907,1638;0,0383345
2908,1282;0,0388596
2909,0923;0,0394681
2910,0566;0,0401588
2911,0208;0,0409228
2911,9851;0,0417402
2912,9492;0,0425781
2913,9136;0,0433927
2914,8777;0,0441371
2915,8420;0,04477
2916,8062;0,0452635
2917,7705;0,0456058
2918,7346;0,0457994
2919,6990;0,0458559
2920,6631;0,0457906
2921,6274;0,0456186
2922,5916;0,0453519
2923,5559;0,0449985
2924,5200;0,0445634
2925,4844;0,0440505
2926,4485;0,0434657
2927,4128;0,0428191
2928,3770;0,0421258
2929,3413;0,0414037
2930,3054;0,0406697
2931,2698;0,0399369
2932,2339;0,0392126
2933,1982;0,0384987
2934,1624;0,0377944
2935,1267;0,0370982
2936,0908;0,0364102
2937,0552;0,035733
2938,0193;0,0350714
2938,9836;0,034431
2939,9478;0,0338167
2940,9121;0,0332316
2941,8762;0,0326769
2942,8406;0,032154
2943,8047;0,0316657
2944,7690;0,0312172
2945,7332;0,0308151
2946,6975;0,0304642
2947,6616;0,0301651
2948,6260;0,0299124
2949,5901;0,0296955
2950,5544;0,0295014
2951,5186;0,0293169
2952,4829;0,0291304
2953,4470;0,0289323
2954,4114;0,0287151
2955,3755;0,0284733
2956,3398;0,0282045
2957,3040;0,0279094
2958,2683;0,027592
2959,2324;0,0272583
2960,1968;0,026914
2961,1609;0,0265621
2962,1252;0,0262015
2963,0894;0,0258281
2964,0537;0,0254369
2965,0178;0,0250262
2965,9822;0,0246003
2966,9463;0,0241687
2967,9106;0,0237425
2968,8748;0,0233303
2969,8391;0,0229352
2970,8032;0,0225558
2971,7676;0,0221905
2972,7317;0,0218406
2973,6960;0,0215111
2974,6602;0,0212073
2975,6245;0,0209305
2976,5886;0,020676
2977,5530;0,0204355
2978,5171;0,0202021
2979,4814;0,0199742
2980,4456;0,0197564
2981,4099;0,0195554
2982,3740;0,0193759
2983,3384;0,0192181
2984,3025;0,019078
2985,2668;0,0189509
2986,2310;0,018834
2987,1953;0,0187279
2988,1594;0,0186353
2989,1238;0,0185587
2990,0879;0,0184983
2991,0522;0,0184514
2992,0164;0,018413
2992,9807;0,0183775
2993,9448;0,0183424
2994,9092;0,0183094
2995,8733;0,0182855
2996,8376;0,0182795
2997,8018;0,0182981
2998,7661;0,0183413
2999,7302;0,0184019
3000,6946;0,0184675
3001,6587;0,018526
3002,6230;0,0185707
3003,5872;0,0186028
3004,5515;0,0186289
3005,5156;0,0186569
3006,4800;0,018691
3007,4441;0,0187297
3008,4084;0,0187675
3009,3726;0,0187986
3010,3369;0,0188205
3011,3010;0,0188349
3012,2654;0,018846
3013,2295;0,0188582
3014,1938;0,0188742
3015,1580;0,0188953
3016,1223;0,0189226
3017,0864;0,0189582
3018,0508;0,0190038
3019,0149;0,0190599
3019,9792;0,0191241
3020,9434;0,0191926
3021,9077;0,0192621
3022,8718;0,0193327
3023,8362;0,0194078
3024,8003;0,0194925
3025,7646;0,0195902
3026,7288;0,0196998
3027,6931;0,0198155
3028,6572;0,0199283
3029,6216;0,0200294
3030,5857;0,0201134
3031,5500;0,0201809
3032,5142;0,0202381
3033,4785;0,020295
3034,4426;0,0203613
3035,4070;0,0204434
3036,3711;0,0205421
3037,3354;0,0206534
3038,2996;0,0207708
3039,2639;0,0208883
3040,2280;0,0210032
3041,1924;0,021117
3042,1565;0,0212335
3043,1208;0,021357
3044,0850;0,0214889
3045,0493;0,0216271
3046,0134;0,021767
3046,9778;0,0219039
3047,9419;0,0220364
3048,9063;0,0221666
3049,8704;0,0222996
3050,8347;0,0224393
3051,7988;0,0225867
3052,7632;0,022738
3053,7273;0,0228876
3054,6917;0,0230306
3055,6558;0,023166
3056,6201;0,0232963
3057,5842;0,0234262
3058,5486;0,0235599
3059,5127;0,0236995
3060,4771;0,023845
3061,4412;0,0239947
3062,4055;0,0241462
3063,3696;0,024296
3064,3340;0,02444
3065,2981;0,0245749
3066,2625;0,0247
3067,2266;0,024818
3068,1909;0,0249346
3069,1550;0,0250564
3070,1194;0,0251876
3071,0835;0,025329
3072,0479;0,0254785
3073,0120;0,025632
3073,9763;0,0257863
3074,9404;0,025939
3075,9048;0,0260886
3076,8689;0,0262336
3077,8333;0,0263723
3078,7974;0,0265028
3079,7617;0,0266244
3080,7258;0,0267386
3081,6902;0,0268497
3082,6543;0,0269637
3083,6187;0,0270866
3084,5828;0,0272217
3085,5471;0,0273681
3086,5112;0,0275212
3087,4756;0,0276749
3088,4397;0,0278245
3089,4041;0,0279696
3090,3682;0,0281126
3091,3325;0,0282574
3092,2966;0,0284059
3093,2610;0,0285579
3094,2251;0,028712
3095,1895;0,0288674
3096,1536;0,0290247
3097,1179;0,0291843
3098,0820;0,0293443
3099,0464;0,0295002
3100,0105;0,0296472
3100,9749;0,0297838
3101,9390;0,0299138
3102,9033;0,0300448
3103,8674;0,0301838
3104,8318;0,0303335
3105,7959;0,0304916
3106,7603;0,0306537
3107,7244;0,0308172
3108,6887;0,0309831
3109,6528;0,0311555
3110,6172;0,0313377
3111,5813;0,0315303
3112,5457;0,0317291
3113,5098;0,0319277
3114,4741;0,0321189
3115,4382;0,032298
3116,4026;0,0324634
3117,3667;0,032617
3118,3311;0,0327635
3119,2952;0,0329089
3120,2595;0,0330586
3121,2236;0,0332164
3122,1880;0,0333829
3123,1521;0,0335557
3124,1165;0,0337301
3125,0806;0,0339017
3126,0449;0,0340686
3127,0090;0,0342331
3127,9734;0,0344016
3128,9375;0,0345817
3129,9019;0,0347776
3130,8660;0,034987
3131,8303;0,0352007
3132,7944;0,035407
3133,7588;0,0355973
3134,7229;0,0357706
3135,6873;0,0359334
3136,6514;0,0360959
3137,6157;0,036266
3138,5798;0,0364469
3139,5442;0,0366371
3140,5083;0,0368337
3141,4727;0,0370345
3142,4368;0,0372389
3143,4011;0,0374466
3144,3652;0,0376553
3145,3296;0,0378612
3146,2937;0,0380599
3147,2581;0,0382492
3148,2222;0,0384303
3149,1865;0,0386074
3150,1506;0,0387863
3151,1150;0,0389724
3152,0791;0,039169
3153,0435;0,0393765
3154,0076;0,0395924
3154,9719;0,0398117
3155,9360;0,0400288
3156,9004;0,0402392
3157,8645;0,0404414
3158,8289;0,0406371
3159,7930;0,0408309
3160,7573;0,0410279
3161,7214;0,0412318
3162,6858;0,0414424
3163,6499;0,0416561
3164,6143;0,041868
3165,5784;0,042074
3166,5427;0,0422733
3167,5068;0,0424686
3168,4712;0,0426648
3169,4353;0,0427885
3170,3997;0,0429975
3171,3638;0,043214
3172,3281;0,0434354
3173,2922;0,0436582
3174,2566;0,0438788
3175,2207;0,0440932
3176,1851;0,0442973
3177,1492;0,0444883
3178,1135;0,0446675
3179,0776;0,0448412
3180,0420;0,0450192
3181,0061;0,0452108
3181,9705;0,0454196
3182,9346;0,0456419
3183,8989;0,0458679
3184,8630;0,0460864
3185,8274;0,0462895
3186,7915;0,0464758
3187,7559;0,046649
3188,7200;0,0468157
3189,6843;0,0469827
3190,6484;0,0471554
3191,6128;0,0473368
3192,5769;0,0475273
3193,5413;0,0477243
3194,5054;0,0479231
3195,4697;0,0481189
3196,4338;0,0483094
3197,3982;0,0484965
3198,3623;0,0486844
3199,3267;0,0488771
3200,2908;0,0490754
3201,2551;0,0492762
3202,2192;0,0494743
3203,1836;0,0496655
3204,1477;0,0498483
3205,1121;0,050024
3206,0762;0,0501957
3207,0405;0,0503666
3208,0046;0,0505403
3208,9690;0,0507189
3209,9331;0,0509025
3210,8975;0,0510884
3211,8616;0,0512717
3212,8259;0,0514478
3213,7900;0,0516157
3214,7544;0,0517796
3215,7185;0,0519462
3216,6829;0,0521206
3217,6470;0,0523023
3218,6113;0,052485
3219,5754;0,0526609
3220,5398;0,0528261
3221,5039;0,052983
3222,4683;0,0531396
3223,4324;0,0533038
3224,3967;0,0534792
3225,3608;0,053664
3226,3252;0,053852
3227,2893;0,0540364
3228,2537;0,054212
3229,2178;0,0543766
3230,1821;0,0545314
3231,1462;0,0546808
3232,1106;0,0548312
3233,0747;0,0549895
3234,0391;0,0551601
3235,0032;0,0553421
3235,9675;0,0555299
3236,9316;0,055716
3237,8960;0,0558953
3238,8601;0,0560676
3239,8245;0,056237
3240,7886;0,0564081
3241,7529;0,0565824
3242,7170;0,056757
3243,6814;0,0569263
3244,6455;0,0570864
3245,6099;0,0572382
3246,5740;0,0573883
3247,5383;0,0575449
3248,5024;0,0577142
3249,4668;0,0578971
3250,4309;0,0580896
3251,3953;0,058285
3252,3594;0,058478
3253,3237;0,0586671
3254,2878;0,0588542
3255,2522;0,0590425
3256,2163;0,0592332
3257,1807;0,0594246
3258,1448;0,0596137
3259,1091;0,059799
3260,0732;0,0599823
3261,0376;0,0601672
3262,0017;0,0603562
3262,9661;0,0605484
3263,9302;0,0607392
3264,8945;0,0609232
3265,8586;0,0610976
3266,8230;0,061263
3267,7871;0,061423
3268,7515;0,0615805
3269,7156;0,0617357
3270,6799;0,0618855
3271,6440;0,0620252
3272,6084;0,0621502
3273,5725;0,0622582
3274,5369;0,0623497
3275,5010;0,0624283
3276,4653;0,0624997
3277,4294;0,0625697
3278,3938;0,0626418
3279,3579;0,0627163
3280,3223;0,0627907
3281,2864;0,0628618
3282,2507;0,0629281
3283,2148;0,062991
3284,1792;0,0630537
3285,1433;0,0631185
3286,1077;0,0631848
3287,0718;0,0632485
3288,0361;0,0633036
3289,0002;0,0633448
3289,9646;0,0633698
3290,9287;0,0633797
3291,8931;0,0633791
3292,8572;0,0633735
3293,8215;0,0633676
3294,7856;0,0633644
3295,7500;0,0633643
3296,7141;0,0633667
3297,6785;0,0633707
3298,6426;0,0633755
3299,6069;0,0633798
3300,5710;0,063382
3301,5354;0,063381
3302,4995;0,0633774
3303,4639;0,0633742
3304,4280;0,0633755
3305,3923;0,0633838
3306,3564;0,063397
3307,3208;0,0634087
3308,2849;0,0634118
3309,2493;0,0634029
3310,2134;0,0633856
3311,1777;0,0633692
3312,1418;0,063364
3313,1062;0,0633762
3314,0703;0,0634061
3315,0347;0,0634497
3315,9988;0,0635024
3316,9631;0,0635618
3317,9272;0,0636273
3318,8916;0,063699
3319,8557;0,063776
3320,8201;0,0638559
3321,7842;0,0639366
3322,7485;0,064017
3323,7126;0,0640971
3324,6770;0,0641766
3325,6411;0,0642542
3326,6055;0,0643271
3327,5696;0,0643931
3328,5339;0,0644518
3329,4980;0,0645049
3330,4624;0,0645551
3331,4265;0,0646032
3332,3909;0,0646464
3333,3550;0,0646789
3334,3193;0,064694
3335,2834;0,0646873
3336,2478;0,064658
3337,2119;0,0646095
3338,1763;0,0645464
3339,1404;0,064472
3340,1047;0,0643873
3341,0688;0,0642916
3342,0332;0,0641839
3342,9973;0,0640642
3343,9617;0,0639343
3344,9258;0,0637972
3345,8901;0,0636564
3346,8542;0,0635152
3347,8186;0,0633757
3348,7827;0,0632377
3349,7471;0,0630979
3350,7112;0,0629513
3351,6755;0,0627937
3352,6396;0,0626248
3353,6040;0,0624503
3354,5681;0,0622805
3355,5325;0,0621253
3356,4966;0,061989
3357,4609;0,0618671
3358,4250;0,0617484
3359,3894;0,0616209
3360,3535;0,0614781
3361,3179;0,0613215
3362,2820;0,0611588
3363,2463;0,0609972
3364,2104;0,0608391
3365,1748;0,06068
3366,1389;0,0605126
3367,1033;0,0603318
3368,0674;0,0601382
3369,0317;0,0599376
3369,9958;0,0597376
3370,9602;0,0595435
3371,9243;0,0593572
3372,8887;0,0591774
3373,8528;0,0590023
3374,8171;0,0588304
3375,7813;0,0586607
3376,7456;0,0584922
3377,7097;0,058324
3378,6741;0,0581557
3379,6382;0,0579883
3380,6025;0,0578235
3381,5667;0,0576625
3382,5310;0,0575045
3383,4951;0,0573474
3384,4595;0,0571897
3385,4236;0,0570322
3386,3879;0,0568782
3387,3521;0,0567301
3388,3164;0,0565862
3389,2805;0,0564399
3390,2449;0,0562831
3391,2090;0,0561116
3392,1733;0,0559294
3393,1375;0,0557477
3394,1018;0,0555783
3395,0659;0,0554258
3396,0303;0,0552837
3396,9944;0,055138
3397,9587;0,0549744
3398,9229;0,0547858
3399,8872;0,0545751
3400,8513;0,0543527
3401,8157;0,0541305
3402,7798;0,0539173
3403,7441;0,0537156
3404,7083;0,0535228
3405,6726;0,0533328
3406,6367;0,0531398
3407,6011;0,0529401
3408,5652;0,0527333
3409,5295;0,0525208
3410,4937;0,0523046
3411,4580;0,052086
3412,4221;0,051866
3413,3865;0,0516467
3414,3506;0,0514313
3415,3149;0,0512227
3416,2791;0,0510207
3417,2434;0,0508194
3418,2075;0,0506081
3419,1719;0,0503753
3420,1360;0,0501154
3421,1003;0,0498331
3422,0645;0,0495417
3423,0288;0,0492575
3423,9929;0,0489918
3424,9573;0,0487475
3425,9214;0,0485204
3426,8857;0,0483019
3427,8499;0,0480836
3428,8142;0,0478598
3429,7783;0,0476284
3430,7427;0,0473892
3431,7068;0,0471425
3432,6711;0,0468878
3433,6353;0,0466259
3434,5996;0,0463602
3435,5637;0,0460972
3436,5281;0,0458441
3437,4922;0,0456047
3438,4565;0,0453775
3439,4207;0,0451576
3440,3850;0,0449405
3441,3491;0,0447247
3442,3135;0,0445101
3443,2776;0,0442934
3444,2419;0,0440644
3445,2061;0,0438083
3446,1704;0,0435149
3447,1345;0,0431882
3448,0989;0,0428485
3449,0630;0,0425221
3450,0273;0,0422266
3450,9915;0,0419637
3451,9558;0,0417218
3452,9199;0,0414857
3453,8843;0,0412445
3454,8484;0,0409958
3455,8127;0,0407438
3456,7769;0,0404946
3457,7412;0,0402515
3458,7053;0,0400139
3459,6697;0,0397786
3460,6338;0,0395408
3461,5981;0,0392964
3462,5623;0,0390417
3463,5266;0,0387746
3464,4907;0,0384951
3465,4551;0,0382065
3466,4192;0,0379155
3467,3835;0,037631
3468,3477;0,0373612
3469,3120;0,0371094
3470,2761;0,0368717
3471,2405;0,0366374
3472,2046;0,0363942
3473,1689;0,0361364
3474,1331;0,0358699
3475,0974;0,035611
3476,0615;0,0353768
3477,0259;0,0351735
3477,9900;0,0349899
3478,9543;0,0348014
3479,9185;0,0345828
3480,8828;0,0343233
3481,8469;0,0340337
3482,8113;0,0337401
3483,7754;0,0334655
3484,7397;0,0332152
3485,7039;0,0329756
3486,6682;0,0327254
3487,6323;0,0324506
3488,5967;0,0321549
3489,5608;0,0318576
3490,5251;0,0315814
3491,4893;0,0313383
3492,4536;0,0311236
3493,4177;0,0309206
3494,3821;0,0307121
3495,3462;0,0304929
3496,3105;0,0302739
3497,2747;0,0300743
3498,2390;0,0299051
3499,2031;0,0297571
3500,1675;0,0296004
3501,1316;0,0293972
3502,0959;0,0291243
3503,0601;0,0287934
3504,0244;0,0284489
3504,9885;0,0281393
3505,9529;0,027886
3506,9170;0,0276749
3507,8813;0,0274693
3508,8455;0,0272332
3509,8098;0,0269521
3510,7739;0,0266407
3511,7383;0,0263306
3512,7024;0,026048
3513,6667;0,0258009
3514,6309;0,0255827
3515,5952;0,0253828
3516,5593;0,0251963
3517,5237;0,0250249
3518,4878;0,0248711
3519,4521;0,0247307
3520,4163;0,0245912
3521,3806;0,0244358
3522,3447;0,0242522
3523,3091;0,0240384
3524,2732;0,0238008
3525,2375;0,0235464
3526,2017;0,0232757
3527,1660;0,0229846
3528,1301;0,0226732
3529,0945;0,0223535
3530,0586;0,0220469
3531,0229;0,0217713
3531,9871;0,0215305
3532,9514;0,021314
3533,9155;0,0211036
3534,8799;0,0208834
3535,8440;0,020649
3536,8083;0,0204117
3537,7725;0,0201945
3538,7368;0,0200204
3539,7009;0,0199003
3540,6653;0,0198265
3541,6294;0,0197721
3542,5938;0,0196948
3543,5579;0,0195456
3544,5222;0,0192923
3545,4863;0,0189463
3546,4507;0,0185651
3547,4148;0,0182164
3548,3792;0,017934
3549,3433;0,0177047
3550,3076;0,017488
3551,2717;0,0172458
3552,2361;0,0169665
3553,2002;0,016673
3554,1646;0,0164045
3555,1287;0,0161878
3556,0930;0,0160219
3557,0571;0,0158881
3558,0215;0,0157691
3558,9856;0,0156636
3559,9500;0,015586
3560,9141;0,0155512
3561,8784;0,0155549
3562,8425;0,0155626
3563,8069;0,0155097
3564,7710;0,015308
3565,7354;0,014881
3566,6995;0,0142461
3567,6638;0,0135624
3568,6279;0,0130239
3569,5923;0,0127065
3570,5564;0,0125563
3571,5208;0,0124747
3572,4849;0,012386
3573,4492;0,0122566
3574,4133;0,0120869
3575,3777;0,0118943
3576,3418;0,0116992
3577,3062;0,0115172
3578,2703;0,0113608
3579,2346;0,011243
3580,1987;0,0111743
3581,1631;0,0111544
3582,1272;0,0111638
3583,0916;0,0111661
3584,0557;0,0111141
3585,0200;0,0109571
3585,9841;0,0106586
3586,9485;0,0102459
3587,9126;0,00984352
3588,8770;0,00959731
3589,8411;0,00955315
3590,8054;0,00964176
3591,7695;0,00975014
3592,7339;0,00978478
3593,6980;0,00970206
3594,6624;0,00951914
3595,6265;0,0092979
3596,5908;0,00909575
3597,5549;0,00892159
3598,5193;0,00873881
3599,4834;0,00850773
3600,4478;0,00822783
3601,4119;0,00794275
3602,3762;0,00770195
3603,3403;0,0075181
3604,3047;0,00735838
3605,2688;0,00716533
3606,2332;0,0068862
3607,1973;0,00650434
3608,1616;0,00606183
3609,1257;0,00564549
3610,0901;0,00533522
3611,0542;0,0051619
3612,0186;0,00510595
3612,9827;0,00512018
3613,9470;0,00515138
3614,9111;0,00515178
3615,8755;0,00508351
3616,8396;0,00492334
3617,8040;0,00467509
3618,7681;0,0043905
3619,7324;0,00417245
3620,6965;0,00412097
3621,6609;0,00425371
3622,6250;0,00448978
3623,5894;0,00470498
3624,5535;0,00479128
3625,5178;0,00468023
3626,4819;0,0043358
3627,4463;0,0037564
3628,4104;0,00303705
3629,3748;0,00240356
3630,3389;0,0020423
3631,3032;0,00192603
3632,2673;0,00188976
3633,2317;0,00179018
3634,1958;0,00157669
3635,1602;0,00128001
3636,1243;0,000964368
3637,0886;0,00067954
3638,0527;0,000441376
3639,0171;0,000245626
3639,9812;9,21658E-05
3640,9456;-7,1717E-06
3641,9097;-4,26011E-05
3642,8740;-2,43424E-05
3643,8381;1,63421E-05
3644,8025;4,25415E-05
3645,7666;1,84491E-05
3646,7310;-0,000121257
3647,6951;-0,000506373
3648,6594;-0,00120724
3649,6235;-0,00199613
3650,5879;-0,00252112
3651,5520;-0,00270403
3652,5164;-0,00271465
3653,4805;-0,00274087
3654,4448;-0,00287457
3655,4089;-0,00310321
3656,3733;-0,0033453
3657,3374;-0,0035132
3658,3018;-0,00357761
3659,2659;-0,00357915
3660,2302;-0,00357797
3661,1943;-0,0035987
3662,1587;-0,0036184
3663,1228;-0,00359834
3664,0872;-0,00352671
3665,0513;-0,00342987
3666,0156;-0,00334974
3666,9797;-0,0033145
3667,9441;-0,00333263
3668,9082;-0,00339942
3669,8726;-0,00349011
3670,8367;-0,00356891
3671,8010;-0,0036327
3672,7651;-0,00372101
3673,7295;-0,00387906
3674,6936;-0,00412082
3675,6580;-0,00439443
3676,6221;-0,00458308
3677,5864;-0,00460567
3678,5505;-0,004495
3679,5149;-0,00433911
3680,4790;-0,00419399
3681,4434;-0,00406355
3682,4075;-0,00393218
3683,3718;-0,0038011
3684,3359;-0,0036944
3685,3003;-0,00363487
3686,2644;-0,00361833
3687,2288;-0,00361832
3688,1929;-0,00361982
3689,1572;-0,00362678
3690,1213;-0,00362074
3691,0857;-0,00356371
3692,0498;-0,00345173
3693,0142;-0,00331701
3693,9783;-0,00319089
3694,9426;-0,00308701
3695,9067;-0,00300933
3696,8711;-0,00296329
3697,8352;-0,00295647
3698,7996;-0,00299035
3699,7637;-0,00305224
3700,7280;-0,00311374
3701,6921;-0,0031372
3702,6565;-0,0030914
3703,6206;-0,00297203
3704,5850;-0,00280888
3705,5491;-0,00265005
3706,5134;-0,0025399
3707,4775;-0,00251433
3708,4419;-0,0026199
3709,4060;-0,00292959
3710,3704;-0,00348679
3711,3345;-0,00418039
3712,2988;-0,00475563
3713,2629;-0,00502436
3714,2273;-0,00498402
3715,1914;-0,00474123
3716,1558;-0,00440421
3717,1199;-0,0040377
3718,0842;-0,00366758
3719,0483;-0,00330354
3720,0127;-0,00295752
3720,9768;-0,00264888
3721,9412;-0,00239933
3722,9053;-0,00222496
3723,8696;-0,00212894
3724,8337;-0,00209597
3725,7981;-0,00209614
3726,7622;-0,00210267
3727,7266;-0,00210936
3728,6907;-0,00212845
3729,6550;-0,00217265
3730,6191;-0,00224269
3731,5835;-0,00233662
3732,5476;-0,00247851
3733,5120;-0,00273169
3734,4761;-0,00313465
3735,4404;-0,00359243
3736,4045;-0,00391278
3737,3689;-0,00399878
3738,3330;-0,00393356
3739,2974;-0,00389127
3740,2615;-0,00402048
3741,2258;-0,00437844
3742,1899;-0,00490621
3743,1543;-0,0054372
3744,1184;-0,00576199
3745,0828;-0,0057591
3746,0469;-0,00549381
3747,0112;-0,00516289
3747,9753;-0,0049589
3748,9397;-0,00499556
3749,9038;-0,00528552
3750,8682;-0,0056986
3751,8323;-0,00598991
3752,7966;-0,00600707
3753,7607;-0,00581375
3754,7251;-0,00557539
3755,6892;-0,00542011
3756,6536;-0,00539598
3757,6177;-0,0054843
3758,5820;-0,00562213
3759,5461;-0,00573074
3760,5105;-0,00575812
3761,4746;-0,00570611
3762,4390;-0,00561591
3763,4031;-0,00553457
3764,3674;-0,00549401
3765,3315;-0,00550714
3766,2959;-0,00557205
3767,2600;-0,00567749
3768,2244;-0,00580675
3769,1885;-0,00593731
3770,1528;-0,00603876
3771,1169;-0,00608022
3772,0813;-0,00604898
3773,0454;-0,00596299
3774,0098;-0,00586124
3774,9739;-0,00578158
3775,9382;-0,00574453
3776,9023;-0,00575166
3777,8667;-0,00579072
3778,8308;-0,00583652
3779,7952;-0,00585557
3780,7593;-0,00582584
3781,7236;-0,00575508
3782,6877;-0,00567701
3783,6521;-0,0056324
3784,6162;-0,00564938
3785,5806;-0,00572931
3786,5447;-0,00584494
3787,5090;-0,00595402
3788,4731;-0,00602111
3789,4375;-0,00603237
3790,4016;-0,00599447
3791,3660;-0,00592108
3792,3301;-0,00581832
3793,2944;-0,00568076
3794,2585;-0,00550252
3795,2229;-0,00529489
3796,1870;-0,00509353
3797,1514;-0,00494681
3798,1155;-0,00489464
3799,0798;-0,00495338
3800,0439;-0,00511048
3801,0083;-0,00532223
3801,9724;-0,00552691
3802,9368;-0,00568903
3803,9009;-0,0058295
3804,8652;-0,00599328
3805,8293;-0,00618785
3806,7937;-0,00635383
3807,7578;-0,00639814
3808,7222;-0,00627486
3809,6863;-0,00603612
3810,6506;-0,00579445
3811,6147;-0,00564107
3812,5791;-0,00559328
3813,5432;-0,00559533
3814,5076;-0,00556381
3815,4717;-0,00544912
3816,4360;-0,00527119
3817,4001;-0,00510801
3818,3645;-0,00505291
3819,3286;-0,00516563
3820,2930;-0,00542575
3821,2571;-0,00571617
3822,2214;-0,00589221
3823,1855;-0,00589595
3824,1499;-0,00578261
3825,1140;-0,00564985
3826,0784;-0,00556658
3827,0425;-0,00554793
3828,0068;-0,00556627
3828,9709;-0,00557839
3829,9353;-0,00555236
3830,8994;-0,00548177
3831,8638;-0,005384
3832,8279;-0,00528766
3833,7922;-0,00521806
3834,7563;-0,00518843
3835,7207;-0,00520151
3836,6848;-0,00525797
3837,6492;-0,00535799
3838,6133;-0,00548955
3839,5776;-0,00562637
3840,5417;-0,00574876
3841,5061;-0,00585569
3842,4702;-0,00594605
3843,4346;-0,00599537
3844,3987;-0,00596003
3845,3630;-0,00581084
3846,3271;-0,00556719
3847,2915;-0,00530092
3848,2556;-0,00510831
3849,2200;-0,00507315
3850,1841;-0,00524433
3851,1484;-0,00563816
3852,1125;-0,00623451
3853,0769;-0,00688394
3854,0410;-0,00726188
3855,0054;-0,00716834
3855,9695;-0,00673863
3856,9338;-0,00623653
3857,8979;-0,00584078
3858,8623;-0,00560384
3859,8264;-0,00549178
3860,7908;-0,00543982
3861,7549;-0,00540254
3862,7192;-0,00537671
3863,6833;-0,00538027
3864,6477;-0,00541768
3865,6118;-0,00547521
3866,5762;-0,0055365
3867,5403;-0,00559076
3868,5046;-0,00563554
3869,4688;-0,00568035
3870,4331;-0,00574132
3871,3972;-0,00582343
3872,3616;-0,00591085
3873,3257;-0,00597958
3874,2900;-0,00601586
3875,2542;-0,00602048
3876,2185;-0,00599918
3877,1826;-0,00595292
3878,1470;-0,0058787
3879,1111;-0,00578272
3880,0754;-0,00569188
3881,0396;-0,005647
3882,0039;-0,00568097
3882,9680;-0,00579938
3883,9324;-0,00597217
3884,8965;-0,00613977
3885,8608;-0,00624051
3886,8250;-0,00624881
3887,7893;-0,00619042
3888,7534;-0,00611811
3889,7178;-0,00607277
3890,6819;-0,00606037
3891,6462;-0,00605104
3892,6104;-0,00600051
3893,5747;-0,00588985
3894,5388;-0,00574653
3895,5032;-0,00561925
3896,4673;-0,00553878
3897,4316;-0,0055053
3898,3958;-0,00550531
3899,3601;-0,00553366
3900,3242;-0,005599
3901,2886;-0,00571291
3902,2527;-0,00587696
3903,2170;-0,00607153
3904,1812;-0,0062537
3905,1455;-0,00637797
3906,1096;-0,00642686
3907,0740;-0,00641782
3908,0381;-0,0063822
3909,0024;-0,00634185
3909,9666;-0,00630131
3910,9309;-0,00625436
3911,8950;-0,00619535
3912,8594;-0,00612681
3913,8235;-0,00606036
3914,7878;-0,0060126
3915,7520;-0,0059978
3916,7163;-0,00601685
3917,6804;-0,00604823
3918,6448;-0,00605663
3919,6089;-0,00601975
3920,5732;-0,00594782
3921,5374;-0,00587631
3922,5017;-0,00584229
3923,4658;-0,00586102
3924,4302;-0,0059142
3925,3943;-0,00596048
3926,3586;-0,00596557
3927,3228;-0,00592682
3928,2871;-0,00587269
3929,2512;-0,00584448
3930,2156;-0,00587491
3931,1797;-0,00596962
3932,1440;-0,00609924
3933,1082;-0,00621488
3934,0725;-0,00627922
3935,0366;-0,0062845
3936,0010;-0,00624593
3936,9651;-0,00618508
3937,9294;-0,00611926
3938,8936;-0,00606004
3939,8579;-0,00601601
3940,8220;-0,00599388
3941,7864;-0,00599485
3942,7505;-0,00601031
3943,7148;-0,00602465
3944,6790;-0,0060265
3945,6433;-0,00601722
3946,6074;-0,00600962
3947,5718;-0,00601944
3948,5359;-0,00605517
3949,5002;-0,00611155
3950,4644;-0,0061722
3951,4287;-0,0062213
3952,3928;-0,00625337
3953,3572;-0,00627312
3954,3213;-0,00628798
3955,2856;-0,00630164
3956,2498;-0,00631263
3957,2141;-0,00631764
3958,1782;-0,00631616
3959,1426;-0,00631264
3960,1067;-0,00631441
3961,0710;-0,00632658
3962,0352;-0,00634775
3962,9995;-0,00636994
3963,9636;-0,00638355
3964,9280;-0,00638285
3965,8921;-0,0063693
3966,8564;-0,00634996
3967,8206;-0,0063334
3968,7849;-0,00632544
3969,7490;-0,00632701
3970,7134;-0,00633506
3971,6775;-0,0063454
3972,6418;-0,00635541
3973,6060;-0,00636477
3974,5703;-0,00637454
3975,5344;-0,00638553
3976,4988;-0,00639761
3977,4629;-0,00641002
3978,4272;-0,00642238
3979,3914;-0,00643528
3980,3557;-0,00645016
3981,3198;-0,00646834
3982,2842;-0,00648945
3983,2483;-0,0065105
3984,2126;-0,0065262
3985,1768;-0,00653105
3986,1411;-0,00652206
3987,1052;-0,00650064
3988,0696;-0,00647269
3989,0337;-0,0064463
3989,9980;-0,00642907
3990,9622;-0,00642557
3991,9265;-0,00643646
3992,8906;-0,00645913
3993,8550;-0,0064887
3994,8191;-0,00651899
3995,7834;-0,00654383
3996,7476;-0,00655886
3997,7119;-0,0065634
3998,6760;-0,00656064
3999,6404;-0,00655568
4000,6045;-0,0063586

##### Extended Information
[Comments]
Sample name
Comment
Username
Division
Organization;UNIVERSIDAD INDUSTRIAL DE SANTANDER

[Detailed Information]
Creation date;5/02/2025 11:23 a.m.

Data array type;Linear data array
Horizontal axis;Wavenumber [cm-1]
Vertical axis;Abs
Start;399,193 cm-1
End;4000,6 cm-1
Data interval;0,964233 cm-1
Data points;3736    

[Measurement Information]
Model name;FT/IR-4X1typeA
Serial No.;A035162111

Accessory;ATR PRO 4X
Accessory S/N;A021162126
Incident angle;45 deg

Measurement date;5/02/2025 11:23 a.m.

Light source;Standard
Detector;TGS
Accumulation;Auto (77)
Resolution;4 cm-1
Zero filling;On
Apodization;Cosine
Gain;Auto (8)
Aperture;Auto (7 mm)
Scan speed;Auto (2 mm/sec)
Filter;Auto (12800 Hz)

