TITLE;
DATA TYPE;INFRARED SPECTRUM
ORIGIN;JASCO
OWNER;
DATE;25/02/04
TIME;12:30:02
SPECTROMETER/DATA SYSTEM;
LOCALE;9226
RESOLUTION;
DELTAX;0,964233
XUNITS;1/CM
YUNITS;ABSORBANCE
FIRSTX;  399,1927
LASTX; 4000,6047
NPOINTS;    3736
FIRSTY;     0,17400
MAXY;     0,26432
MINY;     0,01247
XYDATA
399,1927;0,173997
400,1569;0,175487
401,1211;0,176889
402,0854;0,17804
403,0496;0,178939
404,0138;0,179614
404,9781;0,18007
405,9423;0,180293
406,9065;0,180283
407,8708;0,180095
408,8350;0,179844
409,7992;0,179687
410,7635;0,179764
411,7277;0,180132
412,6919;0,180724
413,6562;0,181397
414,6204;0,182014
415,5846;0,182509
416,5489;0,182894
417,5131;0,183249
418,4773;0,183669
419,4416;0,184184
420,4058;0,184744
421,3700;0,185313
422,3343;0,185926
423,2985;0,186635
424,2627;0,187442
425,2270;0,188256
426,1912;0,188921
427,1554;0,18931
428,1197;0,189412
429,0839;0,18936
430,0481;0,189377
431,0124;0,189664
431,9766;0,190301
432,9408;0,191188
433,9051;0,192091
434,8693;0,192753
435,8335;0,193021
436,7978;0,19291
437,7620;0,192563
438,7262;0,192142
439,6905;0,191749
440,6547;0,191412
441,6189;0,191126
442,5832;0,190906
443,5474;0,1908
444,5116;0,190854
445,4759;0,191056
446,4401;0,19131
447,4043;0,19146
448,3686;0,191362
449,3328;0,190943
450,2970;0,190263
451,2613;0,189495
452,2255;0,188856
453,1897;0,188487
454,1540;0,18839
455,1182;0,188433
456,0824;0,188447
457,0467;0,18834
458,0109;0,188187
458,9751;0,188175
459,9394;0,188441
460,9036;0,188952
461,8678;0,189545
462,8321;0,190031
463,7963;0,190281
464,7605;0,190267
465,7248;0,190044
466,6890;0,189699
467,6532;0,18929
468,6175;0,188839
469,5817;0,188361
470,5459;0,187903
471,5102;0,18756
472,4744;0,187432
473,4386;0,18755
474,4029;0,187858
475,3671;0,18825
476,3313;0,188626
477,2956;0,188924
478,2598;0,189113
479,2240;0,18918
480,1883;0,189126
481,1525;0,188983
482,1167;0,188818
483,0810;0,188724
484,0452;0,188795
485,0094;0,18907
485,9737;0,189509
486,9379;0,190015
487,9021;0,190483
488,8664;0,190846
489,8306;0,191098
490,7948;0,191279
491,7591;0,191441
492,7233;0,191618
493,6875;0,191806
494,6518;0,191979
495,6160;0,192113
496,5802;0,192211
497,5445;0,192295
498,5087;0,192388
499,4729;0,192498
500,4372;0,192619
501,4014;0,19274
502,3656;0,192865
503,3299;0,193008
504,2941;0,193183
505,2583;0,193384
506,2226;0,193583
507,1868;0,193752
508,1510;0,193885
509,1153;0,194019
510,0795;0,194226
511,0437;0,194579
512,0080;0,195114
512,9722;0,195808
513,9365;0,196578
514,9007;0,197312
515,8649;0,197901
516,8292;0,19829
517,7934;0,198504
518,7576;0,198626
519,7219;0,198742
520,6861;0,198882
521,6503;0,199015
522,6146;0,199086
523,5788;0,199059
524,5430;0,198947
525,5073;0,198815
526,4715;0,198736
527,4357;0,19874
528,4000;0,198796
529,3642;0,198833
530,3284;0,198791
531,2927;0,19865
532,2569;0,198433
533,2211;0,198182
534,1854;0,197934
535,1496;0,1977
536,1138;0,197475
537,0781;0,197253
538,0423;0,197049
539,0065;0,196891
539,9708;0,196803
540,9350;0,196785
541,8992;0,196811
542,8635;0,196838
543,8277;0,196836
544,7919;0,196805
545,7562;0,196784
546,7204;0,196831
547,6846;0,197002
548,6489;0,197319
549,6131;0,197766
550,5773;0,198292
551,5416;0,198837
552,5058;0,199345
553,4700;0,199778
554,4343;0,200114
555,3985;0,200332
556,3627;0,200407
557,3270;0,200301
558,2912;0,199973
559,2554;0,199396
560,2197;0,198575
561,1839;0,197554
562,1481;0,196415
563,1124;0,195252
564,0766;0,194141
565,0408;0,193122
566,0051;0,192204
566,9693;0,191381
567,9335;0,190652
568,8978;0,190032
569,8620;0,189532
570,8262;0,189153
571,7905;0,188873
572,7547;0,188655
573,7189;0,188465
574,6832;0,188276
575,6474;0,188079
576,6116;0,187877
577,5759;0,18768
578,5401;0,187498
579,5043;0,187343
580,4686;0,187217
581,4328;0,187113
582,3970;0,187011
583,3613;0,18689
584,3255;0,18674
585,2897;0,186575
586,2540;0,186435
587,2182;0,186362
588,1824;0,186382
589,1467;0,186484
590,1109;0,186617
591,0751;0,186714
592,0394;0,186714
593,0036;0,186587
593,9678;0,186346
594,9321;0,186023
595,8963;0,185651
596,8605;0,185252
597,8248;0,18483
598,7890;0,184386
599,7532;0,183926
600,7175;0,183464
601,6817;0,183023
602,6459;0,182619
603,6102;0,182258
604,5744;0,181928
605,5386;0,181595
606,5029;0,181216
607,4671;0,180748
608,4313;0,180163
609,3956;0,179465
610,3598;0,178689
611,3240;0,177895
612,2883;0,177142
613,2525;0,176462
614,2167;0,175846
615,1810;0,17524
616,1452;0,174565
617,1094;0,173753
618,0737;0,172781
619,0379;0,171687
620,0021;0,170544
620,9664;0,169423
621,9306;0,168368
622,8948;0,167392
623,8591;0,166489
624,8233;0,165653
625,7875;0,164861
626,7518;0,164104
627,7160;0,163375
628,6802;0,162665
629,6445;0,16197
630,6087;0,161291
631,5729;0,160632
632,5372;0,159997
633,5014;0,159387
634,4656;0,158796
635,4299;0,158218
636,3941;0,157648
637,3583;0,157092
638,3226;0,156556
639,2868;0,156045
640,2510;0,155555
641,2153;0,155074
642,1795;0,15459
643,1437;0,1541
644,1080;0,153609
645,0722;0,153128
646,0364;0,152671
647,0007;0,152248
647,9649;0,151866
648,9291;0,151533
649,8934;0,151257
650,8576;0,151042
651,8218;0,150885
652,7861;0,150775
653,7503;0,15071
654,7145;0,150705
655,6788;0,15079
656,6430;0,150992
657,6072;0,151304
658,5715;0,151663
659,5357;0,151959
660,4999;0,152088
661,4642;0,15202
662,4284;0,151833
663,3926;0,151653
664,3569;0,151575
665,3211;0,151575
666,2853;0,151462
667,2496;0,150899
668,2138;0,149656
669,1780;0,147964
670,1423;0,146279
671,1065;0,144788
672,0707;0,143416
673,0350;0,142035
673,9992;0,140551
674,9634;0,138946
675,9277;0,137294
676,8919;0,135702
677,8561;0,134243
678,8204;0,132925
679,7846;0,131732
680,7488;0,130658
681,7131;0,129718
682,6773;0,128924
683,6415;0,128262
684,6058;0,127699
685,5700;0,127203
686,5342;0,126752
687,4985;0,126333
688,4627;0,125933
689,4269;0,12554
690,3912;0,125146
691,3554;0,124747
692,3196;0,124347
693,2839;0,123951
694,2481;0,123567
695,2123;0,123206
696,1766;0,122871
697,1408;0,12256
698,1050;0,122257
699,0693;0,121938
700,0335;0,121577
700,9977;0,121162
701,9620;0,120697
702,9262;0,120198
703,8904;0,119691
704,8547;0,11919
705,8189;0,118698
706,7831;0,118208
707,7474;0,11771
708,7116;0,11719
709,6758;0,116638
710,6401;0,116044
711,6043;0,115407
712,5685;0,114743
713,5328;0,114082
714,4970;0,113464
715,4612;0,11306
716,4255;0,112533
717,3897;0,112002
718,3539;0,111404
719,3182;0,110698
720,2824;0,109887
721,2466;0,10902
722,2109;0,108158
723,1751;0,107341
724,1393;0,106567
725,1036;0,105808
726,0678;0,105035
727,0320;0,104235
727,9963;0,103418
728,9605;0,102603
729,9247;0,101809
730,8890;0,101047
731,8532;0,100328
732,8174;0,0996607
733,7817;0,0990505
734,7459;0,0984972
735,7101;0,0979916
736,6744;0,0975196
737,6386;0,0970694
738,6028;0,0966353
739,5671;0,0962152
740,5313;0,0958052
741,4955;0,0953964
742,4598;0,0949767
743,4240;0,094537
744,3882;0,0940759
745,3525;0,0936008
746,3167;0,0931231
747,2809;0,092652
748,2452;0,0921894
749,2094;0,09173
750,1736;0,0912642
751,1379;0,0907841
752,1021;0,0902865
753,0663;0,0897748
754,0306;0,0892574
754,9948;0,0887459
755,9590;0,0882525
756,9233;0,0877883
757,8875;0,0873587
758,8517;0,0869598
759,8160;0,0865761
760,7802;0,0861855
761,7444;0,0857693
762,7087;0,0853246
763,6729;0,084869
764,6371;0,0844353
765,6014;0,0840546
766,5656;0,0837401
767,5298;0,0834787
768,4941;0,0832373
769,4583;0,0829794
770,4225;0,0826825
771,3868;0,0823466
772,3510;0,0819892
773,3152;0,0816327
774,2795;0,0812911
775,2437;0,0809641
776,2079;0,0806416
777,1722;0,0803127
778,1364;0,0799749
779,1006;0,0796363
780,0649;0,0793111
781,0291;0,0790107
781,9933;0,0787358
782,9576;0,0784749
783,9218;0,0782091
784,8860;0,077922
785,8503;0,0776087
786,8145;0,0772802
787,7787;0,0769605
788,7430;0,0766769
789,7072;0,0764488
790,6714;0,0762791
791,6357;0,0761529
792,5999;0,0760431
793,5641;0,0759215
794,5284;0,0757699
795,4926;0,0755858
796,4568;0,0753829
797,4211;0,0751843
798,3853;0,0750128
799,3495;0,074882
800,3138;0,0747902
801,2780;0,074721
802,2422;0,0746496
803,2065;0,0745527
804,1707;0,0744177
805,1349;0,0742482
806,0992;0,0740628
807,0634;0,0738871
808,0276;0,0737433
808,9919;0,0736411
809,9561;0,0735745
810,9203;0,0735265
811,8846;0,0734791
812,8488;0,0734229
813,8130;0,0733612
814,7773;0,0733058
815,7415;0,0732681
816,7057;0,0732506
817,6700;0,0732448
818,6342;0,0732367
819,5984;0,0732166
820,5627;0,0731855
821,5269;0,0731549
822,4911;0,0731398
823,4554;0,0731497
824,4196;0,0731822
825,3839;0,0732243
826,3481;0,0732574
827,3123;0,0732666
828,2766;0,0732458
829,2408;0,0731995
830,2050;0,0731383
831,1693;0,0730722
832,1335;0,0730043
833,0977;0,0729287
834,0620;0,0728332
835,0262;0,0727051
835,9904;0,0725371
836,9547;0,0723299
837,9189;0,0720916
838,8831;0,0718358
839,8474;0,0715788
840,8116;0,071338
841,7758;0,0711289
842,7401;0,0709612
843,7043;0,0708346
844,6685;0,0707381
845,6328;0,0706551
846,5970;0,0705709
847,5612;0,0704809
848,5255;0,0703921
849,4897;0,0703182
850,4539;0,0702695
851,4182;0,070246
852,3824;0,0702363
853,3466;0,0702236
854,3109;0,0701945
855,2751;0,0701448
856,2393;0,0700792
857,2036;0,0700074
858,1678;0,0699393
859,1320;0,0698828
860,0963;0,0698443
861,0605;0,0698297
862,0247;0,0698427
862,9890;0,0698838
863,9532;0,0699493
864,9174;0,0700345
865,8817;0,0701385
866,8459;0,0702659
867,8101;0,0704247
868,7744;0,0706198
869,7386;0,0708482
870,7028;0,0710989
871,6671;0,071358
872,6313;0,0716156
873,5955;0,0718679
874,5598;0,0721153
875,5240;0,0723579
876,4882;0,0725953
877,4525;0,0728302
878,4167;0,0730741
879,3809;0,0733485
880,3452;0,0736806
881,3094;0,0740938
882,2736;0,0746007
883,2379;0,0752012
884,2021;0,0758866
885,1663;0,0766464
886,1306;0,0774725
887,0948;0,07836
888,0590;0,0793044
889,0233;0,0802978
889,9875;0,0813251
890,9517;0,0823612
891,9160;0,0833714
892,8802;0,0843141
893,8444;0,0851469
894,8087;0,0858338
895,7729;0,0863507
896,7371;0,0866861
897,7014;0,0868389
898,6656;0,0868144
899,6298;0,0866223
900,5941;0,0862771
901,5583;0,0858006
902,5225;0,0852231
903,4868;0,0845826
904,4510;0,0839221
905,4152;0,0832842
906,3795;0,0827067
907,3437;0,0822176
908,3079;0,0818324
909,2722;0,0815524
910,2364;0,0813685
911,2007;0,0812669
912,1649;0,0812367
913,1292;0,0812745
914,0934;0,0813839
915,0576;0,0815699
916,0219;0,0818307
916,9861;0,0821527
917,9503;0,0825126
918,9146;0,0828855
919,8788;0,0832552
920,8430;0,0836194
921,8073;0,0839856
922,7715;0,0843612
923,7357;0,0847437
924,7000;0,0851178
925,6642;0,0854624
926,6284;0,0857619
927,5927;0,0860141
928,5569;0,0862307
929,5211;0,0864304
930,4854;0,0866304
931,4496;0,0868425
932,4138;0,0870739
933,3781;0,087331
934,3423;0,087622
935,3065;0,0879565
936,2708;0,0883451
937,2350;0,0887982
938,1992;0,0893266
939,1635;0,0899404
940,1277;0,0906459
941,0919;0,0914424
942,0562;0,0923215
943,0204;0,0932698
943,9846;0,0942766
944,9489;0,0953384
945,9131;0,0964614
946,8773;0,0976574
947,8416;0,0989382
948,8058;0,100311
949,7700;0,101777
950,7343;0,103332
951,6985;0,104969
952,6627;0,106682
953,6270;0,108467
954,5912;0,110325
955,5554;0,112256
956,5197;0,114258
957,4839;0,116324
958,4481;0,11844
959,4124;0,120587
960,3766;0,122753
961,3408;0,124927
962,3051;0,127105
963,2693;0,129286
964,2335;0,131469
965,1978;0,133653
966,1620;0,135844
967,1262;0,138055
968,0905;0,140311
969,0547;0,142647
970,0189;0,145099
970,9832;0,147705
971,9474;0,150495
972,9116;0,153491
973,8759;0,156708
974,8401;0,160153
975,8043;0,163827
976,7686;0,167717
977,7328;0,171799
978,6970;0,176025
979,6613;0,180321
980,6255;0,184588
981,5897;0,18871
982,5540;0,192574
983,5182;0,196084
984,4824;0,199188
985,4467;0,201879
986,4109;0,204193
987,3751;0,20619
988,3394;0,207936
989,3036;0,209485
990,2678;0,210871
991,2321;0,212111
992,1963;0,213213
993,1605;0,214189
994,1248;0,215056
995,0890;0,215838
996,0532;0,21656
997,0175;0,217248
997,9817;0,217925
998,9459;0,218615
999,9102;0,219343
1000,8744;0,220135
1001,8386;0,221023
1002,8029;0,222037
1003,7671;0,223209
1004,7313;0,224568
1005,6956;0,226139
1006,6598;0,227938
1007,6240;0,229968
1008,5883;0,232212
1009,5525;0,234638
1010,5167;0,237196
1011,4810;0,239825
1012,4452;0,242463
1013,4094;0,245046
1014,3737;0,247516
1015,3379;0,249821
1016,3021;0,251918
1017,2664;0,253778
1018,2306;0,255392
1019,1948;0,256771
1020,1591;0,257944
1021,1233;0,25895
1022,0875;0,259833
1023,0518;0,26063
1024,0160;0,261366
1024,9802;0,262057
1025,9445;0,262702
1026,9087;0,263289
1027,8729;0,26379
1028,8372;0,264157
1029,8014;0,264324
1030,7656;0,264206
1031,7299;0,263717
1032,6941;0,262792
1033,6583;0,26141
1034,6226;0,259612
1035,5868;0,257501
1036,5510;0,255223
1037,5153;0,252943
1038,4795;0,250816
1039,4437;0,24896
1040,4080;0,247447
1041,3722;0,246297
1042,3364;0,245475
1043,3007;0,244904
1044,2649;0,244481
1045,2291;0,244103
1046,1934;0,243685
1047,1576;0,243174
1048,1218;0,24254
1049,0861;0,241763
1050,0503;0,240815
1051,0145;0,239665
1051,9788;0,238284
1052,9430;0,236661
1053,9072;0,234814
1054,8715;0,232766
1055,8357;0,230535
1056,7999;0,228105
1057,7642;0,225434
1058,7284;0,222474
1059,6926;0,219205
1060,6569;0,215662
1061,6211;0,211935
1062,5853;0,208155
1063,5496;0,204453
1064,5138;0,200937
1065,4780;0,197669
1066,4423;0,194674
1067,4065;0,191945
1068,3707;0,189454
1069,3350;0,187161
1070,2992;0,18501
1071,2634;0,182942
1072,2277;0,180893
1073,1919;0,178813
1074,1561;0,176671
1075,1204;0,174458
1076,0846;0,172188
1077,0488;0,169894
1078,0131;0,167616
1078,9773;0,165403
1079,9415;0,163303
1080,9058;0,161359
1081,8700;0,159608
1082,8342;0,15807
1083,7985;0,156748
1084,7627;0,155627
1085,7269;0,154679
1086,6912;0,153872
1087,6554;0,153179
1088,6196;0,152585
1089,5839;0,152087
1090,5481;0,151692
1091,5123;0,15141
1092,4766;0,151243
1093,4408;0,151185
1094,4050;0,151223
1095,3693;0,151342
1096,3335;0,15153
1097,2977;0,151775
1098,2620;0,152061
1099,2262;0,152368
1100,1904;0,15267
1101,1547;0,152935
1102,1189;0,153133
1103,0831;0,153238
1104,0474;0,153233
1105,0116;0,153112
1105,9758;0,152879
1106,9401;0,152546
1107,9043;0,152121
1108,8685;0,1516
1109,8328;0,150958
1110,7970;0,150153
1111,7612;0,14914
1112,7255;0,1479
1113,6897;0,146455
1114,6539;0,144879
1115,6182;0,143273
1116,5824;0,141738
1117,5466;0,140337
1118,5109;0,139079
1119,4751;0,137917
1120,4393;0,136767
1121,4036;0,135536
1122,3678;0,134142
1123,3320;0,132529
1124,2963;0,130671
1125,2605;0,128574
1126,2247;0,126272
1127,1890;0,12381
1128,1532;0,121243
1129,1174;0,11862
1130,0817;0,11598
1131,0459;0,113357
1132,0101;0,11078
1132,9744;0,108287
1133,9386;0,105922
1134,9028;0,103739
1135,8671;0,101791
1136,8313;0,100122
1137,7955;0,0987613
1138,7598;0,0977162
1139,7240;0,0969763
1140,6882;0,0965154
1141,6525;0,0962968
1142,6167;0,0962789
1143,5809;0,0964204
1144,5452;0,0966861
1145,5094;0,097051
1146,4736;0,0975025
1147,4379;0,0980381
1148,4021;0,0986586
1149,3663;0,0993588
1150,3306;0,100119
1151,2948;0,100905
1152,2590;0,101667
1153,2233;0,102354
1154,1875;0,102917
1155,1517;0,103312
1156,1160;0,1035
1157,0802;0,103437
1158,0444;0,103073
1159,0087;0,102355
1159,9729;0,101233
1160,9371;0,0996702
1161,9014;0,0976547
1162,8656;0,0952066
1163,8298;0,0923814
1164,7941;0,0892679
1165,7583;0,0859794
1166,7225;0,0826408
1167,6868;0,0793716
1168,6510;0,0762703
1169,6152;0,0734044
1170,5795;0,070809
1171,5437;0,0684921
1172,5079;0,0664449
1173,4722;0,0646502
1174,4364;0,0630879
1175,4006;0,0617371
1176,3649;0,0605766
1177,3291;0,0595869
1178,2933;0,058751
1179,2576;0,0580546
1180,2218;0,0574843
1181,1860;0,0570246
1182,1503;0,0566583
1183,1145;0,0563693
1184,0787;0,0561469
1185,0430;0,0559902
1186,0072;0,0559076
1186,9714;0,055912
1187,9357;0,0560147
1188,8999;0,0562198
1189,8641;0,0565239
1190,8284;0,0569193
1191,7926;0,0573983
1192,7568;0,0579567
1193,7211;0,0585932
1194,6853;0,0593061
1195,6495;0,060089
1196,6138;0,0609285
1197,5780;0,0618053
1198,5422;0,0626975
1199,5065;0,0635456
1200,4707;0,0644235
1201,4349;0,0652816
1202,3992;0,066122
1203,3634;0,0669485
1204,3276;0,0677637
1205,2919;0,0685657
1206,2561;0,0693506
1207,2203;0,0701168
1208,1846;0,0708721
1209,1488;0,0716363
1210,1130;0,0724396
1211,0773;0,0733142
1212,0415;0,0742831
1213,0057;0,0753518
1213,9700;0,0765072
1214,9342;0,0777229
1215,8984;0,0789682
1216,8627;0,0802147
1217,8269;0,0814395
1218,7911;0,0826255
1219,7554;0,0837607
1220,7196;0,0848378
1221,6838;0,0858537
1222,6481;0,0868085
1223,6123;0,0877023
1224,5765;0,0885336
1225,5408;0,0892979
1226,5050;0,0899907
1227,4692;0,0906105
1228,4335;0,0911609
1229,3977;0,0916491
1230,3619;0,0920813
1231,3262;0,0924587
1232,2904;0,0927754
1233,2546;0,0930212
1234,2189;0,0931879
1235,1831;0,0932753
1236,1473;0,0932943
1237,1116;0,0932651
1238,0758;0,0932094
1239,0400;0,0931424
1240,0043;0,0930666
1240,9685;0,0929713
1241,9327;0,0928375
1242,8970;0,0926464
1243,8612;0,0923862
1244,8254;0,092056
1245,7897;0,0916644
1246,7539;0,0912262
1247,7181;0,0907568
1248,6824;0,0902696
1249,6466;0,0897746
1250,6108;0,0892793
1251,5751;0,0887903
1252,5393;0,088314
1253,5035;0,0878559
1254,4678;0,087418
1255,4320;0,0869961
1256,3962;0,0865797
1257,3605;0,0861544
1258,3247;0,0857065
1259,2889;0,0852264
1260,2532;0,0847094
1261,2174;0,0841539
1262,1816;0,0835582
1263,1459;0,0829197
1264,1101;0,0822361
1265,0743;0,0815077
1266,0386;0,0807374
1267,0028;0,0799291
1267,9670;0,0790853
1268,9313;0,0782068
1269,8955;0,0772946
1270,8597;0,0763531
1271,8240;0,0753907
1272,7882;0,074419
1273,7524;0,0734501
1274,7167;0,0724951
1275,6809;0,0715635
1276,6451;0,0706628
1277,6094;0,0697962
1278,5736;0,068961
1279,5378;0,0681493
1280,5021;0,0673521
1281,4663;0,0665654
1282,4305;0,0657932
1283,3948;0,0650471
1284,3590;0,0643414
1285,3232;0,0636892
1286,2875;0,0631004
1287,2517;0,0625824
1288,2159;0,0621413
1289,1802;0,0617813
1290,1444;0,0615027
1291,1086;0,0613021
1292,0729;0,0611745
1293,0371;0,0611167
1294,0013;0,0611297
1294,9656;0,0612174
1295,9298;0,0613841
1296,8940;0,0616317
1297,8583;0,061959
1298,8225;0,0623628
1299,7867;0,0628382
1300,7510;0,0633788
1301,7152;0,0639762
1302,6794;0,0646208
1303,6437;0,0653051
1304,6079;0,0660256
1305,5721;0,0667824
1306,5364;0,0675746
1307,5006;0,0683967
1308,4648;0,0692365
1309,4291;0,070078
1310,3933;0,0709047
1311,3575;0,0717008
1312,3218;0,0724512
1313,2860;0,0731383
1314,2502;0,0737417
1315,2145;0,0742383
1316,1787;0,074606
1317,1429;0,0748297
1318,1072;0,0749097
1319,0714;0,0748671
1320,0356;0,0747409
1320,9999;0,0745747
1321,9641;0,0744016
1322,9283;0,0742378
1323,8926;0,0740847
1324,8568;0,0739385
1325,8210;0,0737963
1326,7853;0,0736594
1327,7495;0,073529
1328,7137;0,073402
1329,6780;0,0732674
1330,6422;0,0731082
1331,6064;0,0729081
1332,5707;0,072656
1333,5349;0,0723472
1334,4991;0,0719773
1335,4634;0,0715355
1336,4276;0,0710037
1337,3918;0,0703686
1338,3561;0,0696433
1339,3203;0,0688816
1340,2845;0,0681624
1341,2488;0,0675465
1342,2130;0,0670491
1343,1772;0,0666488
1344,1415;0,0663162
1345,1057;0,0660356
1346,0699;0,0658113
1347,0342;0,065662
1347,9984;0,0656086
1348,9626;0,065662
1349,9269;0,065818
1350,8911;0,0660587
1351,8553;0,0663611
1352,8196;0,0667072
1353,7838;0,0670914
1354,7480;0,0675212
1355,7123;0,0680072
1356,6765;0,0685518
1357,6407;0,0691429
1358,6050;0,0697584
1359,5692;0,0703745
1360,5334;0,0709705
1361,4977;0,0715307
1362,4619;0,0720474
1363,4261;0,0725242
1364,3904;0,07297
1365,3546;0,0733885
1366,3188;0,0737737
1367,2831;0,0741122
1368,2473;0,0743879
1369,2115;0,0745838
1370,1758;0,0746817
1371,1400;0,0746594
1372,1042;0,0744937
1373,0685;0,0741716
1374,0327;0,0737089
1374,9969;0,0731518
1375,9612;0,0725468
1376,9254;0,0719005
1377,8896;0,0711758
1378,8539;0,070328
1379,8181;0,0693524
1380,7823;0,0683025
1381,7466;0,0672628
1382,7108;0,0662915
1383,6750;0,0653838
1384,6393;0,0644847
1385,6035;0,0635411
1386,5677;0,0625659
1387,5320;0,0616576
1388,4962;0,0609357
1389,4604;0,060447
1390,4247;0,0601481
1391,3889;0,0599577
1392,3531;0,0598088
1393,3174;0,0596699
1394,2816;0,0595425
1395,2458;0,0594482
1396,2101;0,0594118
1397,1743;0,0594495
1398,1385;0,0595681
1399,1028;0,0597665
1400,0670;0,0600348
1401,0313;0,0603545
1401,9955;0,0607039
1402,9597;0,0610687
1403,9240;0,0614497
1404,8882;0,0618616
1405,8524;0,0623223
1406,8167;0,0628395
1407,7809;0,0634074
1408,7451;0,0640173
1409,7094;0,0646687
1410,6736;0,0653696
1411,6378;0,0661238
1412,6021;0,0669177
1413,5663;0,0677205
1414,5305;0,0684959
1415,4948;0,0692128
1416,4590;0,0698456
1417,4232;0,0703716
1418,3875;0,0707795
1419,3517;0,0710849
1420,3159;0,0713124
1421,2802;0,0714535
1422,2444;0,0714639
1423,2086;0,0713028
1424,1729;0,0709677
1425,1371;0,0704927
1426,1013;0,0699109
1427,0656;0,069218
1428,0298;0,0683786
1428,9940;0,0673816
1429,9583;0,0662951
1430,9225;0,0652461
1431,8867;0,0643254
1432,8510;0,0635159
1433,8152;0,0627083
1434,7794;0,0617814
1435,7437;0,0607138
1436,7079;0,0596632
1437,6721;0,058877
1438,6364;0,0584769
1439,6006;0,0583975
1440,5648;0,0585065
1441,5291;0,0587112
1442,4933;0,0589801
1443,4575;0,0593179
1444,4218;0,0597336
1445,3860;0,0602214
1446,3502;0,0607596
1447,3145;0,0613226
1448,2787;0,0618915
1449,2429;0,0624578
1450,2072;0,0630158
1451,1714;0,0635515
1452,1356;0,0640379
1453,0999;0,0644368
1454,0641;0,0646935
1455,0283;0,0647249
1455,9926;0,0644409
1456,9568;0,0638901
1457,9210;0,063381
1458,8853;0,0631903
1459,8495;0,0632793
1460,8137;0,0634405
1461,7780;0,0634704
1462,7422;0,0632017
1463,7064;0,0625209
1464,6707;0,0614472
1465,6349;0,0601804
1466,5991;0,0589614
1467,5634;0,0578729
1468,5276;0,0568157
1469,4918;0,0556004
1470,4561;0,0540257
1471,4203;0,051962
1472,3845;0,049502
1473,3488;0,0470407
1474,3130;0,0450112
1475,2772;0,0435343
1476,2415;0,0424618
1477,2057;0,0416125
1478,1699;0,0408788
1479,1342;0,0402184
1480,0984;0,0396228
1481,0626;0,0391012
1482,0269;0,0386746
1482,9911;0,0383649
1483,9553;0,0381791
1484,9196;0,0381018
1485,8838;0,0381018
1486,8480;0,0381499
1487,8123;0,0382387
1488,7765;0,0383969
1489,7407;0,0386772
1490,7050;0,0391084
1491,6692;0,0396681
1492,6334;0,0403122
1493,5977;0,0410143
1494,5619;0,0417789
1495,5261;0,0426318
1496,4904;0,0435926
1497,4546;0,0446452
1498,4188;0,0457373
1499,3831;0,046811
1500,3473;0,0478205
1501,3115;0,0487275
1502,2758;0,0494994
1503,2400;0,0501098
1504,2042;0,0505293
1505,1685;0,0506927
1506,1327;0,0504809
1507,0969;0,0498766
1508,0612;0,0491708
1509,0254;0,0486573
1509,9896;0,0483313
1510,9539;0,0480581
1511,9181;0,0477295
1512,8823;0,0472809
1513,8466;0,0466755
1514,8108;0,0459046
1515,7750;0,0450005
1516,7393;0,0440298
1517,7035;0,0430538
1518,6677;0,042091
1519,6320;0,0411279
1520,5962;0,0401745
1521,5604;0,0393022
1522,5247;0,0386046
1523,4889;0,0381182
1524,4531;0,0378055
1525,4174;0,0376067
1526,3816;0,0374888
1527,3458;0,0374498
1528,3101;0,0374912
1529,2743;0,0375978
1530,2385;0,0377427
1531,2028;0,0379056
1532,1670;0,0380864
1533,1312;0,0383029
1534,0955;0,0385717
1535,0597;0,0388842
1536,0239;0,039206
1536,9882;0,039499
1537,9524;0,0397355
1538,9166;0,0398891
1539,8809;0,0399178
1540,8451;0,0398175
1541,8093;0,0397036
1542,7736;0,0396894
1543,7378;0,0397657
1544,7020;0,0398776
1545,6663;0,0399964
1546,6305;0,0401183
1547,5947;0,0402398
1548,5590;0,0403469
1549,5232;0,0404221
1550,4874;0,0404629
1551,4517;0,0404916
1552,4159;0,0405423
1553,3801;0,0406309
1554,3444;0,040737
1555,3086;0,0408081
1556,2728;0,0407685
1557,2371;0,040536
1558,2013;0,0401264
1559,1655;0,0398145
1560,1298;0,0398945
1561,0940;0,0403261
1562,0582;0,0409127
1563,0225;0,0415166
1563,9867;0,0420757
1564,9509;0,0425674
1565,9152;0,04299
1566,8794;0,0433648
1567,8436;0,0437435
1568,8079;0,0441945
1569,7721;0,0447557
1570,7363;0,0454004
1571,7006;0,0460641
1572,6648;0,0466995
1573,6290;0,0473059
1574,5933;0,0479258
1575,5575;0,0486131
1576,5217;0,0493829
1577,4860;0,0502002
1578,4502;0,0510241
1579,4144;0,0518411
1580,3787;0,0526589
1581,3429;0,0534921
1582,3071;0,0543514
1583,2714;0,0552384
1584,2356;0,0561486
1585,1998;0,0570764
1586,1641;0,0580141
1587,1283;0,0589433
1588,0925;0,0598317
1589,0568;0,0606381
1590,0210;0,0613236
1590,9852;0,0618561
1591,9495;0,0622081
1592,9137;0,0623558
1593,8779;0,0622898
1594,8422;0,062029
1595,8064;0,0616223
1596,7706;0,06113
1597,7349;0,0605994
1598,6991;0,0600551
1599,6633;0,0595061
1600,6276;0,0589596
1601,5918;0,0584307
1602,5560;0,0579415
1603,5203;0,0575102
1604,4845;0,0571394
1605,4487;0,0568118
1606,4130;0,056499
1607,3772;0,0561811
1608,3414;0,0558677
1609,3057;0,0556014
1610,2699;0,0554297
1611,2341;0,0553654
1612,1984;0,0553741
1613,1626;0,0553931
1614,1268;0,0553612
1615,0911;0,0552526
1616,0553;0,0551138
1617,0195;0,0550564
1617,9838;0,0551617
1618,9480;0,0554068
1619,9122;0,0557073
1620,8765;0,0559888
1621,8407;0,0562184
1622,8049;0,0564035
1623,7692;0,0565757
1624,7334;0,0567633
1625,6976;0,056972
1626,6619;0,0571932
1627,6261;0,057425
1628,5903;0,0576791
1629,5546;0,0579658
1630,5188;0,0582749
1631,4830;0,0585734
1632,4473;0,0588149
1633,4115;0,0589485
1634,3757;0,0589328
1635,3400;0,0587863
1636,3042;0,0586379
1637,2684;0,0586356
1638,2327;0,0588019
1639,1969;0,0590617
1640,1611;0,0593393
1641,1254;0,0595914
1642,0896;0,059795
1643,0538;0,0599254
1644,0181;0,0599443
1644,9823;0,0598145
1645,9465;0,0595602
1646,9108;0,0593161
1647,8750;0,0592268
1648,8392;0,0592945
1649,8035;0,0593868
1650,7677;0,0593115
1651,7319;0,0588497
1652,6962;0,057894
1653,6604;0,0567789
1654,6246;0,0560756
1655,5889;0,0558773
1656,5531;0,0559038
1657,5173;0,0559082
1658,4816;0,0557608
1659,4458;0,0553988
1660,4100;0,054798
1661,3743;0,0539967
1662,3385;0,053128
1663,3027;0,0523636
1664,2670;0,0517897
1665,2312;0,0513596
1666,1954;0,0509437
1667,1597;0,0503928
1668,1239;0,0496014
1669,0881;0,0485918
1670,0524;0,0475446
1671,0166;0,046657
1671,9808;0,0459627
1672,9451;0,0453415
1673,9093;0,0446564
1674,8735;0,043868
1675,8378;0,0430678
1676,8020;0,0424008
1677,7662;0,041938
1678,7305;0,0416338
1679,6947;0,0413748
1680,6589;0,0410253
1681,6232;0,0404395
1682,5874;0,0395024
1683,5516;0,0382809
1684,5159;0,0371164
1685,4801;0,0363207
1686,4443;0,0358826
1687,4086;0,0356146
1688,3728;0,0353677
1689,3370;0,035089
1690,3013;0,0347921
1691,2655;0,0345098
1692,2297;0,034259
1693,1940;0,0340298
1694,1582;0,0337945
1695,1224;0,0335248
1696,0867;0,0332066
1697,0509;0,0328458
1698,0151;0,0324698
1698,9794;0,0321303
1699,9436;0,0318988
1700,9078;0,0318332
1701,8721;0,0319389
1702,8363;0,032171
1703,8005;0,0324713
1704,7648;0,0327988
1705,7290;0,0331404
1706,6932;0,0335064
1707,6575;0,0339154
1708,6217;0,0343793
1709,5859;0,0348959
1710,5502;0,0354514
1711,5144;0,036024
1712,4786;0,0365861
1713,4429;0,0371078
1714,4071;0,0375654
1715,3713;0,0379562
1716,3356;0,0383167
1717,2998;0,0387208
1718,2640;0,0392296
1719,2283;0,0398425
1720,1925;0,0405153
1721,1567;0,0412019
1722,1210;0,04187
1723,0852;0,0425
1724,0494;0,0430827
1725,0137;0,0436227
1725,9779;0,044138
1726,9421;0,044648
1727,9064;0,0451575
1728,8706;0,0456448
1729,8348;0,0460613
1730,7991;0,0463372
1731,7633;0,0463988
1732,7275;0,0462208
1733,6918;0,0458967
1734,6560;0,0456037
1735,6202;0,0454394
1736,5845;0,0453513
1737,5487;0,0452172
1738,5129;0,0449331
1739,4772;0,0444562
1740,4414;0,0438163
1741,4056;0,0430919
1742,3699;0,0423516
1743,3341;0,0416129
1744,2983;0,0408522
1745,2626;0,0400373
1746,2268;0,039136
1747,1910;0,0381026
1748,1553;0,0368811
1749,1195;0,0354652
1750,0837;0,0339703
1751,0480;0,0325934
1752,0122;0,0314635
1752,9764;0,0305626
1753,9407;0,0297786
1754,9049;0,0289974
1755,8691;0,0281645
1756,8334;0,0272975
1757,7976;0,0264501
1758,7618;0,0256539
1759,7261;0,0248921
1760,6903;0,0241293
1761,6545;0,023366
1762,6188;0,022654
1763,5830;0,0220538
1764,5472;0,0215825
1765,5115;0,0212066
1766,4757;0,0208726
1767,4399;0,0205383
1768,4042;0,0201846
1769,3684;0,0198071
1770,3326;0,0194044
1771,2969;0,0189813
1772,2611;0,0185705
1773,2253;0,0182324
1774,1896;0,0180124
1775,1538;0,017905
1776,1180;0,0178646
1777,0823;0,0178382
1778,0465;0,0177884
1779,0107;0,0177027
1779,9750;0,0175894
1780,9392;0,0174655
1781,9034;0,0173426
1782,8677;0,017224
1783,8319;0,017115
1784,7961;0,0170302
1785,7604;0,0169887
1786,7246;0,0169992
1787,6888;0,0170498
1788,6531;0,0171111
1789,6173;0,0171449
1790,5815;0,0171158
1791,5458;0,0170118
1792,5100;0,0168648
1793,4742;0,0167375
1794,4385;0,0166722
1795,4027;0,0166657
1796,3669;0,0166873
1797,3312;0,0167051
1798,2954;0,016698
1799,2596;0,0166585
1800,2239;0,0165921
1801,1881;0,0165148
1802,1523;0,0164452
1803,1166;0,0163979
1804,0808;0,0163789
1805,0450;0,0163865
1806,0093;0,0164117
1806,9735;0,0164388
1807,9377;0,0164481
1808,9020;0,0164231
1809,8662;0,0163603
1810,8304;0,0162745
1811,7947;0,0161919
1812,7589;0,0161334
1813,7231;0,0161036
1814,6874;0,016093
1815,6516;0,0160882
1816,6158;0,0160825
1817,5801;0,0160798
1818,5443;0,0160902
1819,5085;0,0161206
1820,4728;0,0161669
1821,4370;0,0162156
1822,4012;0,0162514
1823,3655;0,016266
1824,3297;0,016261
1825,2939;0,0162443
1826,2582;0,0162191
1827,2224;0,0161789
1828,1866;0,0161132
1829,1509;0,0160227
1830,1151;0,0159299
1831,0793;0,015869
1832,0436;0,0158608
1833,0078;0,015898
1833,9720;0,0159538
1834,9363;0,016
1835,9005;0,0160196
1836,8647;0,0160132
1837,8290;0,0159951
1838,7932;0,0159805
1839,7574;0,0159748
1840,7217;0,015972
1841,6859;0,015962
1842,6501;0,0159372
1843,6144;0,0158992
1844,5786;0,0158607
1845,5428;0,0158382
1846,5071;0,015838
1847,4713;0,0158528
1848,4355;0,0158688
1849,3998;0,0158761
1850,3640;0,0158705
1851,3282;0,0158529
1852,2925;0,015826
1853,2567;0,0157937
1854,2209;0,0157627
1855,1852;0,0157428
1856,1494;0,0157441
1857,1136;0,0157713
1858,0779;0,0158185
1859,0421;0,0158694
1860,0063;0,015906
1860,9706;0,0159184
1861,9348;0,015911
1862,8990;0,0158987
1863,8633;0,0158969
1864,8275;0,0159133
1865,7917;0,0159429
1866,7560;0,0159687
1867,7202;0,0159687
1868,6844;0,0159315
1869,6487;0,0158688
1870,6129;0,0158063
1871,5771;0,0157629
1872,5414;0,0157415
1873,5056;0,015734
1874,4698;0,0157293
1875,4341;0,0157194
1876,3983;0,0157034
1877,3625;0,0156884
1878,3268;0,0156857
1879,2910;0,0157042
1880,2552;0,0157444
1881,2195;0,0157975
1882,1837;0,0158491
1883,1479;0,015886
1884,1122;0,0159021
1885,0764;0,0158985
1886,0406;0,0158806
1887,0049;0,0158539
1887,9691;0,0158227
1888,9333;0,0157917
1889,8976;0,0157659
1890,8618;0,0157498
1891,8260;0,0157439
1892,7903;0,0157447
1893,7545;0,0157476
1894,7188;0,0157516
1895,6830;0,0157598
1896,6472;0,0157763
1897,6115;0,0158002
1898,5757;0,0158241
1899,5399;0,015837
1900,5042;0,0158321
1901,4684;0,0158122
1902,4326;0,0157892
1903,3969;0,0157766
1904,3611;0,015781
1905,3253;0,0157972
1906,2896;0,0158122
1907,2538;0,0158133
1908,2180;0,0157965
1909,1823;0,0157691
1910,1465;0,0157457
1911,1107;0,0157383
1912,0750;0,0157502
1913,0392;0,0157759
1914,0034;0,0158069
1914,9677;0,0158374
1915,9319;0,0158657
1916,8961;0,0158903
1917,8604;0,0159056
1918,8246;0,0159003
1919,7888;0,0158638
1920,7531;0,0157957
1921,7173;0,0157121
1922,6815;0,015642
1923,6458;0,0156125
1924,6100;0,0156303
1925,5742;0,0156748
1926,5385;0,015712
1927,5027;0,015717
1928,4669;0,0156905
1929,4312;0,0156562
1930,3954;0,015644
1931,3596;0,0156679
1932,3239;0,0157157
1933,2881;0,0157582
1934,2523;0,0157694
1935,2166;0,0157413
1936,1808;0,0156848
1937,1450;0,0156184
1938,1093;0,0155558
1939,0735;0,0155041
1940,0377;0,0154683
1941,0020;0,0154556
1941,9662;0,0154715
1942,9304;0,0155098
1943,8947;0,015547
1944,8589;0,0155524
1945,8231;0,0155054
1946,7874;0,0154086
1947,7516;0,0152882
1948,7158;0,0151833
1949,6801;0,0151277
1950,6443;0,0151339
1951,6085;0,0151855
1952,5728;0,0152429
1953,5370;0,0152599
1954,5012;0,0152037
1955,4655;0,0150707
1956,4297;0,0148946
1957,3939;0,0147373
1958,3582;0,0146667
1959,3224;0,0147236
1960,2866;0,0148953
1961,2509;0,0151125
1962,2151;0,0152777
1963,1793;0,0153116
1964,1436;0,0151888
1965,1078;0,0149487
1966,0720;0,0146732
1967,0363;0,0144435
1968,0005;0,0142952
1968,9647;0,0142046
1969,9290;0,0141174
1970,8932;0,0139987
1971,8574;0,0138667
1972,8217;0,0137908
1973,7859;0,0138561
1974,7501;0,0141082
1975,7144;0,0145137
1976,6786;0,0149632
1977,6428;0,0153265
1978,6071;0,0155213
1979,5713;0,0155465
1980,5355;0,0154605
1981,4998;0,0153348
1982,4640;0,0152207
1983,4282;0,0151432
1984,3925;0,0151128
1985,3567;0,0151367
1986,3209;0,0152211
1987,2852;0,0153639
1988,2494;0,0155495
1989,2136;0,0157502
1990,1779;0,0159376
1991,1421;0,0160935
1992,1063;0,0162133
1993,0706;0,0162973
1994,0348;0,0163391
1994,9990;0,0163213
1995,9633;0,0162252
1996,9275;0,0160453
1997,8917;0,0158014
1998,8560;0,0155377
1999,8202;0,015308
2000,7844;0,0151564
2001,7487;0,0151031
2002,7129;0,0151449
2003,6771;0,0152639
2004,6414;0,0154359
2005,6056;0,0156331
2006,5698;0,015823
2007,5341;0,0159686
2008,4983;0,0160354
2009,4625;0,0160026
2010,4268;0,0158731
2011,3910;0,0156764
2012,3552;0,0154623
2013,3195;0,015289
2014,2837;0,0152068
2015,2479;0,0152436
2016,2122;0,0153958
2017,1764;0,0156289
2018,1406;0,0158885
2019,1049;0,0161152
2020,0691;0,0162561
2021,0333;0,0162712
2021,9976;0,016141
2022,9618;0,0158783
2023,9260;0,0155389
2024,8903;0,0152166
2025,8545;0,0150164
2026,8187;0,0150101
2027,7830;0,0152011
2028,7472;0,0155192
2029,7114;0,0158535
2030,6757;0,0161076
2031,6399;0,0162467
2032,6041;0,0163079
2033,5684;0,016367
2034,5326;0,016485
2035,4968;0,0166707
2036,4611;0,016883
2037,4253;0,0170655
2038,3895;0,0171817
2039,3538;0,0172292
2040,3180;0,0172283
2041,2822;0,0172003
2042,2465;0,017154
2043,2107;0,0170892
2044,1749;0,017011
2045,1392;0,0169407
2046,1034;0,0169118
2047,0676;0,0169515
2048,0320;0,0170618
2048,9961;0,0172153
2049,9604;0,0173698
2050,9246;0,0174887
2051,8889;0,0175526
2052,8530;0,0175595
2053,8174;0,017519
2054,7815;0,017448
2055,7458;0,0173676
2056,7100;0,0173006
2057,6743;0,017267
2058,6384;0,017278
2059,6028;0,0173318
2060,5669;0,0174138
2061,5313;0,0175026
2062,4954;0,0175791
2063,4597;0,0176345
2064,4238;0,0176726
2065,3882;0,0177039
2066,3523;0,017736
2067,3167;0,0177663
2068,2808;0,0177833
2069,2451;0,0177753
2070,2092;0,017741
2071,1736;0,0176933
2072,1377;0,0176544
2073,1021;0,0176421
2074,0662;0,0176573
2075,0305;0,0176827
2075,9946;0,0176936
2076,9590;0,0176747
2077,9231;0,0176322
2078,8875;0,017591
2079,8516;0,0175798
2080,8159;0,0176133
2081,7800;0,0176839
2082,7444;0,0177666
2083,7085;0,017834
2084,6729;0,0178692
2085,6370;0,017871
2086,6013;0,0178476
2087,5654;0,0178085
2088,5298;0,0177598
2089,4939;0,0177061
2090,4583;0,0176569
2091,4224;0,0176287
2092,3867;0,0176399
2093,3508;0,0176995
2094,3152;0,017797
2095,2793;0,0179018
2096,2437;0,0179756
2097,2078;0,0179916
2098,1721;0,0179503
2099,1362;0,017879
2100,1006;0,0178179
2101,0647;0,0177989
2102,0291;0,0178302
2102,9932;0,017894
2103,9575;0,0179582
2104,9216;0,0179945
2105,8860;0,0179928
2106,8501;0,0179641
2107,8145;0,0179316
2108,7786;0,0179167
2109,7429;0,0179295
2110,7070;0,0179674
2111,6714;0,0180202
2112,6355;0,0180766
2113,5999;0,0181273
2114,5640;0,018165
2115,5283;0,0181839
2116,4924;0,0181798
2117,4568;0,0181533
2118,4209;0,01811
2119,3853;0,0180594
2120,3494;0,018011
2121,3137;0,0179702
2122,2778;0,0179379
2123,2422;0,0179121
2124,2063;0,0178912
2125,1707;0,0178755
2126,1348;0,0178662
2127,0991;0,0178643
2128,0632;0,0178698
2129,0276;0,017884
2129,9917;0,0179115
2130,9561;0,0179613
2131,9202;0,0180428
2132,8845;0,0181584
2133,8486;0,0182955
2134,8130;0,0184237
2135,7771;0,018503
2136,7415;0,0185006
2137,7056;0,0184077
2138,6699;0,0182474
2139,6340;0,0180674
2140,5984;0,0179237
2141,5625;0,0178607
2142,5269;0,0178993
2143,4910;0,0180339
2144,4553;0,0182389
2145,4194;0,0184789
2146,3838;0,0187167
2147,3479;0,0189201
2148,3123;0,0190663
2149,2764;0,0191457
2150,2407;0,0191613
2151,2048;0,0191253
2152,1692;0,0190522
2153,1333;0,0189541
2154,0977;0,0188429
2155,0618;0,0187383
2156,0261;0,0186746
2156,9902;0,0186939
2157,9546;0,0188201
2158,9187;0,0190267
2159,8831;0,0192355
2160,8472;0,019358
2161,8115;0,0193471
2162,7756;0,0192191
2163,7400;0,0190391
2164,7041;0,0188875
2165,6685;0,0188224
2166,6326;0,0188558
2167,5969;0,0189512
2168,5610;0,0190458
2169,5254;0,0190811
2170,4895;0,0190271
2171,4539;0,0188898
2172,4180;0,0187033
2173,3823;0,0185133
2174,3464;0,0183598
2175,3108;0,0182672
2176,2749;0,0182426
2177,2393;0,0182785
2178,2034;0,0183563
2179,1677;0,0184474
2180,1318;0,0185184
2181,0962;0,0185409
2182,0603;0,0185065
2183,0247;0,0184349
2183,9888;0,0183675
2184,9531;0,0183474
2185,9172;0,0183973
2186,8816;0,0185107
2187,8457;0,0186584
2188,8101;0,0188043
2189,7742;0,0189176
2190,7385;0,0189767
2191,7026;0,0189675
2192,6670;0,0188822
2193,6311;0,0187258
2194,5955;0,018522
2195,5596;0,018312
2196,5239;0,0181408
2197,4880;0,0180372
2198,4524;0,0180022
2199,4165;0,0180134
2200,3809;0,0180431
2201,3450;0,0180777
2202,3093;0,0181231
2203,2734;0,018196
2204,2378;0,0183068
2205,2019;0,0184475
2206,1663;0,0185928
2207,1304;0,0187097
2208,0947;0,018771
2209,0588;0,018764
2210,0232;0,0186937
2210,9873;0,0185809
2211,9517;0,0184565
2212,9158;0,0183532
2213,8801;0,0182963
2214,8442;0,0182959
2215,8086;0,0183446
2216,7727;0,0184221
2217,7371;0,0185035
2218,7012;0,0185678
2219,6655;0,0186028
2220,6296;0,0186068
2221,5940;0,0185872
2222,5581;0,0185574
2223,5225;0,0185319
2224,4866;0,0185204
2225,4509;0,0185241
2226,4150;0,0185355
2227,3794;0,0185435
2228,3435;0,0185404
2229,3079;0,0185262
2230,2720;0,0185083
2231,2363;0,0184957
2232,2004;0,0184937
2233,1648;0,0185006
2234,1289;0,0185096
2235,0933;0,0185137
2236,0574;0,0185109
2237,0217;0,0185061
2237,9858;0,0185101
2238,9502;0,0185329
2239,9143;0,0185774
2240,8787;0,0186348
2241,8428;0,0186861
2242,8071;0,0187092
2243,7712;0,0186881
2244,7356;0,0186206
2245,6997;0,01852
2246,6641;0,0184112
2247,6282;0,0183239
2248,5925;0,0182829
2249,5566;0,0183
2250,5210;0,0183685
2251,4851;0,0184636
2252,4495;0,0185504
2253,4136;0,0185989
2254,3779;0,0185976
2255,3420;0,0185575
2256,3064;0,0185022
2257,2705;0,0184513
2258,2349;0,0184078
2259,1990;0,0183596
2260,1633;0,0182945
2261,1274;0,018215
2262,0918;0,018144
2263,0559;0,0181141
2264,0203;0,018148
2264,9844;0,0182434
2265,9487;0,0183707
2266,9128;0,0184864
2267,8772;0,0185529
2268,8413;0,018554
2269,8057;0,0184997
2270,7698;0,0184191
2271,7341;0,0183469
2272,6982;0,0183088
2273,6626;0,0183119
2274,6267;0,018344
2275,5911;0,018381
2276,5552;0,0184
2277,5195;0,0183898
2278,4836;0,0183564
2279,4480;0,0183186
2280,4121;0,0182988
2281,3765;0,018312
2282,3406;0,0183597
2283,3049;0,0184294
2284,2690;0,0184997
2285,2334;0,0185491
2286,1975;0,0185659
2287,1619;0,0185529
2288,1260;0,0185272
2289,0903;0,018512
2290,0544;0,0185257
2291,0188;0,018573
2291,9829;0,0186434
2292,9473;0,0187179
2293,9114;0,0187796
2294,8757;0,018822
2295,8398;0,0188495
2296,8042;0,0188726
2297,7683;0,0188993
2298,7327;0,018931
2299,6968;0,0189632
2300,6611;0,0189912
2301,6252;0,0190154
2302,5896;0,0190431
2303,5537;0,0190852
2304,5181;0,0191504
2305,4822;0,0192395
2306,4465;0,019343
2307,4106;0,0194429
2308,3750;0,0195189
2309,3391;0,0195569
2310,3035;0,0195546
2311,2676;0,0195239
2312,2319;0,0194861
2313,1960;0,0194631
2314,1604;0,0194695
2315,1245;0,0195094
2316,0889;0,0195781
2317,0530;0,0196659
2318,0173;0,0197608
2318,9814;0,0198486
2319,9458;0,0199123
2320,9099;0,0199336
2321,8743;0,019899
2322,8384;0,0198056
2323,8027;0,0196636
2324,7668;0,0194918
2325,7312;0,0193122
2326,6953;0,0191464
2327,6597;0,0190142
2328,6238;0,0189316
2329,5881;0,0189055
2330,5522;0,0189275
2331,5166;0,0189738
2332,4807;0,0190129
2333,4451;0,0190182
2334,4092;0,0189763
2335,3735;0,0188897
2336,3376;0,0187744
2337,3020;0,018655
2338,2661;0,0185566
2339,2305;0,018496
2340,1946;0,0184748
2341,1589;0,0184819
2342,1230;0,0185027
2343,0874;0,0185315
2344,0515;0,0185764
2345,0159;0,0186497
2345,9800;0,018754
2346,9443;0,0188788
2347,9084;0,0190081
2348,8728;0,019126
2349,8369;0,0192203
2350,8013;0,0192837
2351,7654;0,0193177
2352,7297;0,0193353
2353,6938;0,0193568
2354,6582;0,0193928
2355,6223;0,0194277
2356,5867;0,0194226
2357,5508;0,0193417
2358,5151;0,0191802
2359,4792;0,0189722
2360,4436;0,0187712
2361,4077;0,0186177
2362,3721;0,0185233
2363,3362;0,0184798
2364,3005;0,0184789
2365,2646;0,0185226
2366,2290;0,0186166
2367,1931;0,0187545
2368,1575;0,0189096
2369,1216;0,0190413
2370,0859;0,0191143
2371,0500;0,0191156
2372,0144;0,0190598
2372,9785;0,0189794
2373,9429;0,0189084
2374,9070;0,0188694
2375,8713;0,0188694
2376,8354;0,0189023
2377,7998;0,018955
2378,7639;0,0190119
2379,7283;0,0190593
2380,6924;0,0190877
2381,6567;0,0190937
2382,6208;0,0190812
2383,5852;0,0190599
2384,5493;0,0190409
2385,5137;0,0190329
2386,4778;0,0190395
2387,4421;0,0190582
2388,4063;0,0190837
2389,3706;0,01911
2390,3347;0,0191328
2391,2991;0,0191497
2392,2632;0,0191599
2393,2275;0,0191644
2394,1917;0,0191656
2395,1560;0,0191672
2396,1201;0,0191732
2397,0845;0,0191854
2398,0486;0,0192034
2399,0129;0,0192251
2399,9771;0,0192487
2400,9414;0,0192736
2401,9055;0,0193006
2402,8699;0,0193302
2403,8340;0,0193617
2404,7983;0,0193941
2405,7625;0,0194258
2406,7268;0,0194557
2407,6909;0,0194824
2408,6553;0,0195042
2409,6194;0,0195196
2410,5837;0,0195292
2411,5479;0,019537
2412,5122;0,0195494
2413,4763;0,0195722
2414,4407;0,0196073
2415,4048;0,019651
2416,3691;0,0196963
2417,3333;0,0197359
2418,2976;0,0197658
2419,2617;0,0197855
2420,2261;0,0197965
2421,1902;0,0198006
2422,1545;0,0197985
2423,1187;0,0197914
2424,0830;0,019782
2425,0471;0,0197756
2426,0115;0,0197789
2426,9756;0,0197981
2427,9399;0,0198363
2428,9041;0,0198923
2429,8684;0,0199599
2430,8325;0,0200291
2431,7969;0,0200881
2432,7610;0,0201265
2433,7253;0,0201393
2434,6895;0,0201303
2435,6538;0,0201117
2436,6179;0,0201003
2437,5823;0,0201101
2438,5464;0,0201457
2439,5107;0,0201994
2440,4749;0,0202546
2441,4392;0,0202943
2442,4033;0,0203093
2443,3677;0,0203027
2444,3318;0,0202873
2445,2961;0,0202787
2446,2603;0,0202874
2447,2246;0,0203146
2448,1887;0,0203532
2449,1531;0,0203925
2450,1172;0,0204241
2451,0815;0,020445
2452,0457;0,020458
2453,0100;0,020469
2453,9741;0,0204828
2454,9385;0,0205013
2455,9026;0,0205216
2456,8669;0,0205386
2457,8311;0,0205473
2458,7954;0,020546
2459,7595;0,0205379
2460,7239;0,0205302
2461,6880;0,0205312
2462,6523;0,0205473
2463,6165;0,0205799
2464,5808;0,0206252
2465,5449;0,0206755
2466,5093;0,0207217
2467,4734;0,0207559
2468,4377;0,0207738
2469,4019;0,020775
2470,3662;0,0207636
2471,3303;0,0207466
2472,2947;0,0207317
2473,2588;0,0207256
2474,2231;0,0207317
2475,1873;0,0207499
2476,1516;0,0207778
2477,1157;0,0208119
2478,0801;0,0208488
2479,0442;0,0208852
2480,0085;0,0209181
2480,9727;0,020945
2481,9370;0,0209651
2482,9011;0,0209797
2483,8655;0,0209915
2484,8296;0,0210037
2485,7939;0,0210182
2486,7581;0,0210348
2487,7224;0,0210522
2488,6865;0,0210687
2489,6509;0,021083
2490,6150;0,021094
2491,5793;0,0211012
2492,5435;0,0211051
2493,5078;0,0211085
2494,4719;0,0211158
2495,4363;0,0211315
2496,4004;0,0211567
2497,3647;0,0211878
2498,3289;0,0212179
2499,2932;0,0212403
2500,2573;0,0212524
2501,2217;0,0212568
2502,1858;0,0212583
2503,1501;0,021262
2504,1143;0,0212707
2505,0786;0,021286
2506,0427;0,0213091
2507,0071;0,0213411
2507,9712;0,0213804
2508,9355;0,0214219
2509,8997;0,0214581
2510,8640;0,0214828
2511,8281;0,0214953
2512,7925;0,0215012
2513,7566;0,0215085
2514,7209;0,0215221
2515,6851;0,0215403
2516,6494;0,0215561
2517,6135;0,0215618
2518,5779;0,0215557
2519,5420;0,0215433
2520,5063;0,0215354
2521,4705;0,0215418
2522,4348;0,0215666
2523,3989;0,0216055
2524,3633;0,0216483
2525,3274;0,0216837
2526,2917;0,0217041
2527,2559;0,0217081
2528,2202;0,0217
2529,1843;0,0216863
2530,1487;0,0216722
2531,1128;0,0216601
2532,0771;0,0216495
2533,0413;0,0216408
2534,0056;0,0216367
2534,9697;0,0216428
2535,9341;0,0216642
2536,8982;0,0217017
2537,8625;0,0217489
2538,8267;0,021794
2539,7910;0,0218242
2540,7551;0,0218326
2541,7195;0,0218211
2542,6836;0,0217998
2543,6479;0,021782
2544,6121;0,021778
2545,5764;0,0217906
2546,5405;0,0218152
2547,5049;0,0218435
2548,4690;0,0218673
2549,4333;0,0218825
2550,3975;0,0218893
2551,3618;0,0218911
2552,3259;0,0218927
2553,2903;0,0218981
2554,2544;0,0219099
2555,2188;0,0219272
2556,1829;0,0219465
2557,1472;0,0219617
2558,1113;0,0219669
2559,0757;0,0219596
2560,0398;0,0219424
2561,0042;0,0219226
2561,9683;0,0219095
2562,9326;0,0219103
2563,8967;0,0219278
2564,8611;0,0219597
2565,8252;0,0220007
2566,7896;0,0220446
2567,7537;0,0220862
2568,7180;0,0221219
2569,6821;0,022149
2570,6465;0,0221659
2571,6106;0,0221718
2572,5750;0,0221681
2573,5391;0,022158
2574,5034;0,0221464
2575,4675;0,0221382
2576,4319;0,0221372
2577,3960;0,022145
2578,3604;0,0221609
2579,3245;0,0221831
2580,2888;0,022209
2581,2529;0,0222362
2582,2173;0,022262
2583,1814;0,0222836
2584,1458;0,0222987
2585,1099;0,0223068
2586,0742;0,0223102
2587,0383;0,0223135
2588,0027;0,0223221
2588,9668;0,0223394
2589,9312;0,0223655
2590,8953;0,0223975
2591,8596;0,0224315
2592,8237;0,0224644
2593,7881;0,0224944
2594,7522;0,02252
2595,7166;0,0225396
2596,6807;0,0225519
2597,6450;0,0225572
2598,6091;0,022559
2599,5735;0,0225632
2600,5376;0,0225758
2601,5020;0,0225996
2602,4661;0,0226331
2603,4304;0,0226715
2604,3945;0,0227097
2605,3589;0,0227446
2606,3230;0,0227762
2607,2874;0,022806
2608,2515;0,0228358
2609,2158;0,0228657
2610,1799;0,0228942
2611,1443;0,0229195
2612,1084;0,0229405
2613,0728;0,0229577
2614,0369;0,0229737
2615,0012;0,0229925
2615,9653;0,023018
2616,9297;0,0230525
2617,8938;0,0230954
2618,8582;0,0231424
2619,8223;0,0231867
2620,7866;0,0232214
2621,7507;0,0232429
2622,7151;0,0232528
2623,6792;0,0232581
2624,6436;0,0232678
2625,6077;0,0232888
2626,5720;0,0233226
2627,5361;0,0233647
2628,5005;0,0234071
2629,4646;0,0234433
2630,4290;0,0234709
2631,3931;0,0234923
2632,3574;0,0235121
2633,3215;0,0235339
2634,2859;0,0235592
2635,2500;0,0235877
2636,2144;0,0236188
2637,1785;0,0236531
2638,1428;0,0236915
2639,1069;0,0237337
2640,0713;0,023778
2641,0354;0,0238215
2641,9998;0,023862
2642,9639;0,0238987
2643,9282;0,0239322
2644,8923;0,0239634
2645,8567;0,0239923
2646,8208;0,0240186
2647,7852;0,0240422
2648,7493;0,0240647
2649,7136;0,0240888
2650,6777;0,024117
2651,6421;0,0241501
2652,6062;0,0241863
2653,5706;0,0242226
2654,5347;0,0242556
2655,4990;0,0242839
2656,4631;0,0243082
2657,4275;0,0243305
2658,3916;0,0243532
2659,3560;0,0243777
2660,3201;0,0244036
2661,2844;0,0244296
2662,2485;0,0244538
2663,2129;0,0244754
2664,1770;0,0244951
2665,1414;0,0245151
2666,1055;0,0245381
2667,0698;0,0245651
2668,0339;0,0245953
2668,9983;0,0246254
2669,9624;0,0246522
2670,9268;0,0246744
2671,8909;0,0246939
2672,8552;0,0247152
2673,8193;0,0247424
2674,7837;0,0247765
2675,7478;0,0248143
2676,7122;0,0248498
2677,6763;0,0248786
2678,6406;0,0249004
2679,6047;0,0249201
2680,5691;0,0249452
2681,5332;0,0249811
2682,4976;0,0250286
2683,4617;0,0250835
2684,4260;0,0251391
2685,3901;0,0251901
2686,3545;0,0252344
2687,3186;0,0252726
2688,2830;0,0253063
2689,2471;0,0253365
2690,2114;0,0253641
2691,1755;0,02539
2692,1399;0,0254161
2693,1040;0,0254442
2694,0684;0,0254752
2695,0325;0,0255089
2695,9968;0,0255443
2696,9609;0,0255818
2697,9253;0,0256227
2698,8894;0,0256688
2699,8538;0,0257199
2700,8179;0,0257733
2701,7822;0,0258249
2702,7463;0,0258711
2703,7107;0,0259112
2704,6748;0,0259472
2705,6392;0,0259828
2706,6033;0,0260206
2707,5676;0,0260609
2708,5317;0,0261025
2709,4961;0,0261432
2710,4602;0,0261819
2711,4246;0,0262186
2712,3887;0,0262551
2713,3530;0,0262937
2714,3171;0,0263363
2715,2815;0,0263832
2716,2456;0,0264325
2717,2100;0,026481
2718,1741;0,0265249
2719,1384;0,0265622
2720,1025;0,0265931
2721,0669;0,0266192
2722,0310;0,0266427
2722,9954;0,0266645
2723,9595;0,026685
2724,9238;0,0267052
2725,8879;0,0267285
2726,8523;0,0267594
2727,8164;0,0268018
2728,7808;0,026856
2729,7449;0,0269175
2730,7092;0,0269784
2731,6733;0,02703
2732,6377;0,027067
2733,6018;0,0270884
2734,5662;0,0270984
2735,5303;0,0271036
2736,4946;0,027111
2737,4587;0,0271257
2738,4231;0,0271501
2739,3872;0,0271834
2740,3516;0,0272234
2741,3157;0,0272667
2742,2800;0,02731
2743,2441;0,0273501
2744,2085;0,0273843
2745,1726;0,02741
2746,1370;0,0274265
2747,1011;0,0274356
2748,0654;0,027443
2749,0295;0,0274561
2749,9939;0,0274821
2750,9580;0,0275239
2751,9224;0,0275787
2752,8865;0,0276388
2753,8508;0,0276948
2754,8149;0,0277404
2755,7793;0,0277742
2756,7434;0,0278001
2757,7078;0,0278248
2758,6719;0,0278546
2759,6362;0,0278931
2760,6003;0,0279407
2761,5647;0,0279947
2762,5288;0,0280509
2763,4932;0,0281043
2764,4573;0,0281508
2765,4216;0,0281888
2766,3857;0,0282205
2767,3501;0,0282513
2768,3142;0,0282877
2769,2786;0,0283337
2770,2427;0,0283885
2771,2070;0,0284469
2772,1711;0,0285027
2773,1355;0,028553
2774,0996;0,0286004
2775,0640;0,0286517
2776,0281;0,0287132
2776,9924;0,0287866
2777,9565;0,0288676
2778,9209;0,0289482
2779,8850;0,0290219
2780,8494;0,029087
2781,8135;0,0291467
2782,7778;0,0292073
2783,7419;0,0292738
2784,7063;0,0293478
2785,6704;0,0294268
2786,6348;0,0295062
2787,5989;0,0295814
2788,5632;0,0296502
2789,5273;0,0297138
2790,4917;0,0297769
2791,4558;0,0298455
2792,4202;0,0299246
2793,3843;0,0300156
2794,3486;0,0301153
2795,3127;0,0302183
2796,2771;0,0303199
2797,2412;0,0304192
2798,2056;0,0305189
2799,1697;0,030624
2800,1340;0,0307377
2801,0981;0,0308601
2802,0625;0,0309885
2803,0266;0,0311193
2803,9910;0,0312498
2804,9551;0,031379
2805,9194;0,0315062
2806,8835;0,031631
2807,8479;0,031753
2808,8120;0,0318738
2809,7764;0,0319976
2810,7405;0,0321304
2811,7048;0,0322775
2812,6689;0,0324404
2813,6333;0,0326157
2814,5974;0,0327962
2815,5618;0,0329751
2816,5259;0,0331488
2817,4902;0,0333195
2818,4543;0,033493
2819,4187;0,0336766
2820,3828;0,0338745
2821,3472;0,0340874
2822,3113;0,0343127
2823,2756;0,0345477
2824,2397;0,0347918
2825,2041;0,0350473
2826,1682;0,0353179
2827,1326;0,035606
2828,0967;0,0359109
2829,0610;0,0362294
2830,0251;0,0365586
2830,9895;0,0368979
2831,9536;0,0372504
2832,9180;0,0376214
2833,8821;0,0380154
2834,8464;0,0384343
2835,8105;0,038878
2836,7749;0,039346
2837,7390;0,0398411
2838,7034;0,0403713
2839,6675;0,0409491
2840,6318;0,0415898
2841,5959;0,0423073
2842,5603;0,0431108
2843,5244;0,0439999
2844,4888;0,0449604
2845,4529;0,0459606
2846,4172;0,0469509
2847,3813;0,0478694
2848,3457;0,048653
2849,3098;0,0492518
2850,2742;0,0496412
2851,2383;0,049826
2852,2026;0,0498355
2853,1667;0,0497119
2854,1311;0,0494971
2855,0952;0,0492254
2856,0596;0,048922
2857,0237;0,0486068
2857,9880;0,0482987
2858,9521;0,0480181
2859,9165;0,047784
2860,8806;0,0476104
2861,8450;0,0475033
2862,8091;0,0474605
2863,7734;0,0474747
2864,7375;0,0475377
2865,7019;0,0476424
2866,6660;0,0477825
2867,6304;0,0479499
2868,5945;0,0481315
2869,5588;0,0483099
2870,5229;0,0484663
2871,4873;0,0485864
2872,4514;0,0486652
2873,4158;0,0487087
2874,3799;0,0487314
2875,3442;0,0487509
2876,3083;0,0487825
2877,2727;0,0488358
2878,2368;0,0489138
2879,2012;0,0490142
2880,1653;0,0491317
2881,1296;0,0492601
2882,0938;0,0493938
2883,0581;0,0495301
2884,0222;0,0496695
2884,9866;0,0498159
2885,9507;0,0499744
2886,9150;0,0501489
2887,8792;0,0503396
2888,8435;0,0505423
2889,8076;0,0507504
2890,7720;0,0509568
2891,7361;0,0511565
2892,7004;0,0513477
2893,6646;0,051532
2894,6289;0,0517135
2895,5930;0,0518978
2896,5574;0,0520909
2897,5215;0,0522967
2898,4858;0,0525157
2899,4500;0,0527439
2900,4143;0,0529745
2901,3784;0,0532011
2902,3428;0,0534223
2903,3069;0,0536437
2904,2712;0,053877
2905,2354;0,054137
2906,1997;0,0544368
2907,1638;0,0547865
2908,1282;0,0551943
2909,0923;0,0556679
2910,0566;0,0562139
2911,0208;0,0568337
2911,9851;0,0575164
2912,9492;0,0582347
2913,9136;0,0589462
2914,8777;0,0596021
2915,8420;0,0601587
2916,8062;0,0605873
2917,7705;0,0608769
2918,7346;0,0610313
2919,6990;0,061062
2920,6631;0,0609823
2921,6274;0,0608047
2922,5916;0,0605406
2923,5559;0,0602016
2924,5200;0,059799
2925,4844;0,0593431
2926,4485;0,0588428
2927,4128;0,058306
2928,3770;0,0577418
2929,3413;0,05716
2930,3054;0,0565708
2931,2698;0,0559816
2932,2339;0,0553955
2933,1982;0,0548112
2934,1624;0,0542256
2935,1267;0,0536371
2936,0908;0,0530472
2937,0552;0,0524607
2938,0193;0,051883
2938,9836;0,0513185
2939,9478;0,0507687
2940,9121;0,050233
2941,8762;0,0497106
2942,8406;0,0492026
2943,8047;0,0487131
2944,7690;0,0482497
2945,7332;0,047821
2946,6975;0,0474347
2947,6616;0,0470948
2948,6260;0,0467999
2949,5901;0,046543
2950,5544;0,0463124
2951,5186;0,0460945
2952,4829;0,0458765
2953,4470;0,0456493
2954,4114;0,045409
2955,3755;0,0451557
2956,3398;0,0448912
2957,3040;0,0446162
2958,2683;0,0443284
2959,2324;0,0440239
2960,1968;0,0436993
2961,1609;0,0433547
2962,1252;0,0429934
2963,0894;0,0426213
2964,0537;0,0422435
2965,0178;0,0418629
2965,9822;0,041481
2966,9463;0,0410989
2967,9106;0,0407197
2968,8748;0,0403475
2969,8391;0,0399861
2970,8032;0,0396372
2971,7676;0,0393005
2972,7317;0,0389749
2973,6960;0,0386602
2974,6602;0,0383581
2975,6245;0,0380706
2976,5886;0,0377989
2977,5530;0,037542
2978,5171;0,0372979
2979,4814;0,0370654
2980,4456;0,0368451
2981,4099;0,0366389
2982,3740;0,0364489
2983,3384;0,0362756
2984,3025;0,0361176
2985,2668;0,0359726
2986,2310;0,0358383
2987,1953;0,0357129
2988,1594;0,0355952
2989,1238;0,0354847
2990,0879;0,0353817
2991,0522;0,0352878
2992,0164;0,0352064
2992,9807;0,0351417
2993,9448;0,0350968
2994,9092;0,0350726
2995,8733;0,035067
2996,8376;0,0350754
2997,8018;0,0350924
2998,7661;0,0351126
2999,7302;0,0351325
3000,6946;0,0351508
3001,6587;0,0351686
3002,6230;0,0351883
3003,5872;0,0352122
3004,5515;0,0352409
3005,5156;0,0352724
3006,4800;0,0353024
3007,4441;0,0353257
3008,4084;0,0353388
3009,3726;0,0353407
3010,3369;0,0353336
3011,3010;0,0353226
3012,2654;0,0353139
3013,2295;0,0353131
3014,1938;0,035324
3015,1580;0,035349
3016,1223;0,0353888
3017,0864;0,0354434
3018,0508;0,0355117
3019,0149;0,0355897
3019,9792;0,0356709
3020,9434;0,0357473
3021,9077;0,0358129
3022,8718;0,0358672
3023,8362;0,0359165
3024,8003;0,035971
3025,7646;0,0360403
3026,7288;0,0361275
3027,6931;0,0362283
3028,6572;0,0363334
3029,6216;0,0364335
3030,5857;0,0365237
3031,5500;0,0366042
3032,5142;0,0366797
3033,4785;0,036756
3034,4426;0,0368382
3035,4070;0,03693
3036,3711;0,037033
3037,3354;0,0371462
3038,2996;0,037266
3039,2639;0,0373872
3040,2280;0,0375057
3041,1924;0,0376209
3042,1565;0,0377363
3043,1208;0,0378569
3044,0850;0,0379858
3045,0493;0,0381209
3046,0134;0,0382568
3046,9778;0,0383877
3047,9419;0,0385122
3048,9063;0,0386347
3049,8704;0,0387628
3050,8347;0,0389017
3051,7988;0,0390508
3052,7632;0,0392031
3053,7273;0,0393492
3054,6917;0,0394834
3055,6558;0,0396069
3056,6201;0,0397275
3057,5842;0,0398552
3058,5486;0,0399963
3059,5127;0,0401507
3060,4771;0,0403126
3061,4412;0,0404741
3062,4055;0,0406293
3063,3696;0,0407764
3064,3340;0,0409174
3065,2981;0,0410559
3066,2625;0,0411942
3067,2266;0,0413324
3068,1909;0,0414687
3069,1550;0,0416007
3070,1194;0,0417283
3071,0835;0,0418538
3072,0479;0,0419817
3073,0120;0,0421162
3073,9763;0,0422587
3074,9404;0,0424071
3075,9048;0,042556
3076,8689;0,0426998
3077,8333;0,0428351
3078,7974;0,0429622
3079,7617;0,0430841
3080,7258;0,0432052
3081,6902;0,0433286
3082,6543;0,0434565
3083,6187;0,0435897
3084,5828;0,0437283
3085,5471;0,0438714
3086,5112;0,0440169
3087,4756;0,0441619
3088,4397;0,0443042
3089,4041;0,0444431
3090,3682;0,0445799
3091,3325;0,0447166
3092,2966;0,0448543
3093,2610;0,0449933
3094,2251;0,0451335
3095,1895;0,0452756
3096,1536;0,0454209
3097,1179;0,0455696
3098,0820;0,0457199
3099,0464;0,045868
3100,0105;0,0460112
3100,9749;0,0461511
3101,9390;0,0462931
3102,9033;0,046444
3103,8674;0,0466069
3104,8318;0,0467789
3105,7959;0,0469531
3106,7603;0,0471232
3107,7244;0,0472875
3108,6887;0,0474495
3109,6528;0,0476149
3110,6172;0,0477866
3111,5813;0,047963
3112,5457;0,0481388
3113,5098;0,0483097
3114,4741;0,0484743
3115,4382;0,0486358
3116,4026;0,0487985
3117,3667;0,048966
3118,3311;0,0491389
3119,2952;0,049315
3120,2595;0,0494909
3121,2236;0,0496635
3122,1880;0,0498314
3123,1521;0,0499962
3124,1165;0,0501622
3125,0806;0,050335
3126,0449;0,0505187
3127,0090;0,0507133
3127,9734;0,0509135
3128,9375;0,0511114
3129,9019;0,0513009
3130,8660;0,0514819
3131,8303;0,0516606
3132,7944;0,051846
3133,7588;0,0520446
3134,7229;0,0522559
3135,6873;0,0524726
3136,6514;0,052685
3137,6157;0,0528864
3138,5798;0,0530765
3139,5442;0,0532612
3140,5083;0,0534487
3141,4727;0,0536455
3142,4368;0,0538535
3143,4011;0,0540702
3144,3652;0,0542912
3145,3296;0,0545124
3146,2937;0,0547311
3147,2581;0,0549461
3148,2222;0,0551568
3149,1865;0,0553622
3150,1506;0,0555623
3151,1150;0,0557586
3152,0791;0,0559552
3153,0435;0,0561574
3154,0076;0,0563689
3154,9719;0,05659
3155,9360;0,0568165
3156,9004;0,0570422
3157,8645;0,0572621
3158,8289;0,0574751
3159,7930;0,0576842
3160,7573;0,0578945
3161,7214;0,05811
3162,6858;0,0583312
3163,6499;0,0585554
3164,6143;0,0587791
3165,5784;0,059
3166,5427;0,0592187
3167,5068;0,0594376
3168,4712;0,0596602
3169,4353;0,0598748
3170,3997;0,0601124
3171,3638;0,060357
3172,3281;0,060604
3173,2922;0,0608465
3174,2566;0,061077
3175,2207;0,0612912
3176,1851;0,0614907
3177,1492;0,0616828
3178,1135;0,061878
3179,0776;0,0620846
3180,0420;0,062305
3181,0061;0,0625361
3181,9705;0,062772
3182,9346;0,0630079
3183,8989;0,0632417
3184,8630;0,0634724
3185,8274;0,0636979
3186,7915;0,0639153
3187,7559;0,0641232
3188,7200;0,0643248
3189,6843;0,0645284
3190,6484;0,0647426
3191,6128;0,0649709
3192,5769;0,065208
3193,5413;0,0654417
3194,5054;0,0656612
3195,4697;0,0658633
3196,4338;0,0660549
3197,3982;0,0662485
3198,3623;0,0664539
3199,3267;0,0666724
3200,2908;0,0668969
3201,2551;0,0671174
3202,2192;0,0673271
3203,1836;0,0675255
3204,1477;0,0677173
3205,1121;0,0679092
3206,0762;0,0681065
3207,0405;0,0683122
3208,0046;0,0685258
3208,9690;0,0687443
3209,9331;0,0689623
3210,8975;0,0691739
3211,8616;0,0693759
3212,8259;0,0695689
3213,7900;0,0697575
3214,7544;0,0699466
3215,7185;0,0701373
3216,6829;0,0703262
3217,6470;0,0705087
3218,6113;0,0706839
3219,5754;0,0708579
3220,5398;0,0710417
3221,5039;0,0712442
3222,4683;0,0714661
3223,4324;0,0716983
3224,3967;0,0719272
3225,3608;0,0721414
3226,3252;0,072338
3227,2893;0,0725225
3228,2537;0,0727041
3229,2178;0,0728904
3230,1821;0,0730841
3231,1462;0,0732838
3232,1106;0,0734871
3233,0747;0,0736924
3234,0391;0,0738997
3235,0032;0,0741087
3235,9675;0,0743181
3236,9316;0,0745257
3237,8960;0,0747295
3238,8601;0,0749289
3239,8245;0,0751258
3240,7886;0,0753227
3241,7529;0,0755217
3242,7170;0,0757236
3243,6814;0,0759278
3244,6455;0,0761341
3245,6099;0,0763439
3246,5740;0,0765599
3247,5383;0,0767851
3248,5024;0,0770197
3249,4668;0,0772602
3250,4309;0,0775
3251,3953;0,0777323
3252,3594;0,0779534
3253,3237;0,0781649
3254,2878;0,078373
3255,2522;0,078585
3256,2163;0,0788059
3257,1807;0,0790367
3258,1448;0,0792746
3259,1091;0,0795154
3260,0732;0,0797551
3261,0376;0,0799903
3262,0017;0,0802191
3262,9661;0,0804405
3263,9302;0,0806549
3264,8945;0,080864
3265,8586;0,0810697
3266,8230;0,081273
3267,7871;0,0814725
3268,7515;0,0816642
3269,7156;0,0818432
3270,6799;0,0820054
3271,6440;0,0821493
3272,6084;0,0822766
3273,5725;0,0823911
3274,5369;0,0824977
3275,5010;0,0826015
3276,4653;0,082707
3277,4294;0,0828179
3278,3938;0,0829349
3279,3579;0,0830544
3280,3223;0,0831688
3281,2864;0,0832695
3282,2507;0,0833516
3283,2148;0,083418
3284,1792;0,0834789
3285,1433;0,0835462
3286,1077;0,0836269
3287,0718;0,0837183
3288,0361;0,0838095
3289,0002;0,0838878
3289,9646;0,083946
3290,9287;0,0839856
3291,8931;0,0840137
3292,8572;0,084037
3293,8215;0,0840575
3294,7856;0,0840723
3295,7500;0,0840781
3296,7141;0,0840755
3297,6785;0,0840711
3298,6426;0,0840739
3299,6069;0,0840913
3300,5710;0,0841251
3301,5354;0,0841715
3302,4995;0,0842234
3303,4639;0,0842732
3304,4280;0,0843152
3305,3923;0,0843461
3306,3564;0,0843651
3307,3208;0,0843735
3308,2849;0,0843745
3309,2493;0,0843724
3310,2134;0,0843718
3311,1777;0,0843769
3312,1418;0,0843909
3313,1062;0,0844162
3314,0703;0,0844553
3315,0347;0,0845107
3315,9988;0,0845843
3316,9631;0,0846758
3317,9272;0,0847821
3318,8916;0,0848967
3319,8557;0,0850117
3320,8201;0,08512
3321,7842;0,0852172
3322,7485;0,0853032
3323,7126;0,0853809
3324,6770;0,0854551
3325,6411;0,0855308
3326,6055;0,0856119
3327,5696;0,0857007
3328,5339;0,0857974
3329,4980;0,0858992
3330,4624;0,0860002
3331,4265;0,0860909
3332,3909;0,0861607
3333,3550;0,0862004
3334,3193;0,0862052
3335,2834;0,0861771
3336,2478;0,0861233
3337,2119;0,0860542
3338,1763;0,0859785
3339,1404;0,0859006
3340,1047;0,0858195
3341,0688;0,0857313
3342,0332;0,0856323
3342,9973;0,0855214
3343,9617;0,0854013
3344,9258;0,085276
3345,8901;0,0851486
3346,8542;0,085019
3347,8186;0,0848841
3348,7827;0,0847396
3349,7471;0,0845829
3350,7112;0,0844142
3351,6755;0,0842366
3352,6396;0,0840553
3353,6040;0,0838757
3354,5681;0,0837026
3355,5325;0,0835389
3356,4966;0,0833853
3357,4609;0,08324
3358,4250;0,0830991
3359,3894;0,0829591
3360,3535;0,0828189
3361,3179;0,0826797
3362,2820;0,0825445
3363,2463;0,0824144
3364,2104;0,0822865
3365,1748;0,082154
3366,1389;0,0820088
3367,1033;0,0818455
3368,0674;0,0816645
3369,0317;0,0814712
3369,9958;0,0812734
3370,9602;0,0810783
3371,9243;0,0808908
3372,8887;0,0807135
3373,8528;0,0805468
3374,8171;0,0803897
3375,7813;0,0802396
3376,7456;0,080093
3377,7097;0,079946
3378,6741;0,0797953
3379,6382;0,0796377
3380,6025;0,07947
3381,5667;0,079289
3382,5310;0,0790946
3383,4951;0,0788931
3384,4595;0,0786992
3385,4236;0,0785313
3386,3879;0,0784033
3387,3521;0,0783156
3388,3164;0,0782523
3389,2805;0,078187
3390,2449;0,0780941
3391,2090;0,0779599
3392,1733;0,0777877
3393,1375;0,0775935
3394,1018;0,0773961
3395,0659;0,0772074
3396,0303;0,0770298
3396,9944;0,0768587
3397,9587;0,0766882
3398,9229;0,0765151
3399,8872;0,0763393
3400,8513;0,076163
3401,8157;0,0759879
3402,7798;0,0758137
3403,7441;0,0756379
3404,7083;0,0754568
3405,6726;0,0752676
3406,6367;0,0750699
3407,6011;0,0748658
3408,5652;0,0746589
3409,5295;0,0744512
3410,4937;0,0742423
3411,4580;0,0740306
3412,4221;0,0738164
3413,3865;0,0736032
3414,3506;0,0733957
3415,3149;0,0731947
3416,2791;0,0729941
3417,2434;0,0727818
3418,2075;0,0725465
3419,1719;0,0722854
3420,1360;0,0720089
3421,1003;0,0717361
3422,0645;0,0714855
3423,0288;0,0712653
3423,9929;0,0710707
3424,9573;0,0708874
3425,9214;0,0706992
3426,8857;0,0704942
3427,8499;0,0702681
3428,8142;0,070024
3429,7783;0,0697701
3430,7427;0,0695152
3431,7068;0,0692652
3432,6711;0,0690218
3433,6353;0,0687829
3434,5996;0,0685446
3435,5637;0,0683031
3436,5281;0,0680559
3437,4922;0,0678027
3438,4565;0,0675458
3439,4207;0,0672903
3440,3850;0,0670419
3441,3491;0,0668026
3442,3135;0,0665665
3443,2776;0,06632
3444,2419;0,0660483
3445,2061;0,0657452
3446,1704;0,0654211
3447,1345;0,0650993
3448,0989;0,0648034
3449,0630;0,0645417
3450,0273;0,064304
3450,9915;0,0640705
3451,9558;0,0638263
3452,9199;0,063571
3453,8843;0,063316
3454,8484;0,0630741
3455,8127;0,0628471
3456,7769;0,0626225
3457,7412;0,062381
3458,7053;0,0621092
3459,6697;0,0618079
3460,6338;0,061492
3461,5981;0,0611808
3462,5623;0,0608876
3463,5266;0,0606137
3464,4907;0,0603505
3465,4551;0,0600876
3466,4192;0,0598193
3467,3835;0,0595469
3468,3477;0,0592748
3469,3120;0,059005
3470,2761;0,0587338
3471,2405;0,0584542
3472,2046;0,0581623
3473,1689;0,0578637
3474,1331;0,0575731
3475,0974;0,0573056
3476,0615;0,0570654
3477,0259;0,0568401
3477,9900;0,0566063
3478,9543;0,0563429
3479,9185;0,0560456
3480,8828;0,0557315
3481,8469;0,0554282
3482,8113;0,0551551
3483,7754;0,0549093
3484,7397;0,0546684
3485,7039;0,0544071
3486,6682;0,0541144
3487,6323;0,0538028
3488,5967;0,0535003
3489,5608;0,0532322
3490,5251;0,0530035
3491,4893;0,0527946
3492,4536;0,0525733
3493,4177;0,0523144
3494,3821;0,0520172
3495,3462;0,0517085
3496,3105;0,0514275
3497,2747;0,0511994
3498,2390;0,0510154
3499,2031;0,0508347
3500,1675;0,050606
3501,1316;0,0502977
3502,0959;0,0499213
3503,0601;0,0495296
3504,0244;0,0491826
3504,9885;0,0489083
3505,9529;0,0486895
3506,9170;0,0484821
3507,8813;0,0482457
3508,8455;0,0479668
3509,8098;0,0476621
3510,7739;0,0473626
3511,7383;0,0470895
3512,7024;0,046843
3513,6667;0,0466094
3514,6309;0,0463762
3515,5952;0,0461423
3516,5593;0,0459163
3517,5237;0,0457064
3518,4878;0,0455114
3519,4521;0,0453191
3520,4163;0,0451131
3521,3806;0,0448823
3522,3447;0,044626
3523,3091;0,0443504
3524,2732;0,0440605
3525,2375;0,043755
3526,2017;0,0434293
3527,1660;0,0430866
3528,1301;0,0427451
3529,0945;0,0424336
3530,0586;0,0421754
3531,0229;0,0419724
3531,9871;0,0418025
3532,9514;0,0416297
3533,9155;0,0414211
3534,8799;0,0411632
3535,8440;0,0408689
3536,8083;0,0405728
3537,7725;0,0403139
3538,7368;0,0401156
3539,7009;0,0399754
3540,6653;0,0398655
3541,6294;0,0397407
3542,5938;0,0395517
3543,5579;0,0392649
3544,5222;0,0388853
3545,4863;0,0384652
3546,4507;0,0380777
3547,4148;0,0377708
3548,3792;0,0375408
3549,3433;0,0373429
3550,3076;0,0371226
3551,2717;0,0368487
3552,2361;0,0365319
3553,2002;0,0362178
3554,1646;0,0359538
3555,1287;0,0357562
3556,0930;0,0356035
3557,0571;0,0354561
3558,0215;0,035285
3558,9856;0,0350928
3559,9500;0,0349118
3560,9141;0,0347776
3561,8784;0,0346954
3562,8425;0,034622
3563,8069;0,0344717
3564,7710;0,0341498
3565,7354;0,0336183
3566,6995;0,0329635
3567,6638;0,0323671
3568,6279;0,0319659
3569,5923;0,0317632
3570,5564;0,0316729
3571,5208;0,031599
3572,4849;0,0314806
3573,4492;0,0313014
3574,4133;0,0310795
3575,3777;0,0308446
3576,3418;0,0306146
3577,3062;0,0303898
3578,2703;0,0301668
3579,2346;0,0299569
3580,1987;0,0297873
3581,1631;0,0296823
3582,1272;0,0296376
3583,0916;0,0296071
3584,0557;0,0295102
3585,0200;0,0292595
3585,9841;0,0288169
3586,9485;0,0282565
3587,9126;0,0277465
3588,8770;0,0274212
3589,8411;0,0272861
3590,8054;0,0272502
3591,7695;0,0272049
3592,7339;0,0270781
3593,6980;0,0268578
3594,6624;0,0265886
3595,6265;0,0263315
3596,5908;0,0261128
3597,5549;0,0259086
3598,5193;0,0256785
3599,4834;0,0254124
3600,4478;0,0251497
3601,4119;0,0249525
3602,3762;0,0248545
3603,3403;0,0248341
3604,3047;0,0248267
3605,2688;0,0247587
3606,2332;0,0245831
3607,1973;0,0243055
3608,1616;0,0239825
3609,1257;0,0236828
3610,0901;0,0234434
3611,0542;0,0232623
3612,0186;0,0231233
3612,9827;0,0230167
3613,9470;0,0229377
3614,9111;0,0228684
3615,8755;0,0227657
3616,8396;0,0225707
3617,8040;0,022244
3618,7681;0,0218151
3619,7324;0,0213968
3620,6965;0,0211206
3621,6609;0,0210474
3622,6250;0,0211453
3623,5894;0,0213274
3624,5535;0,0214867
3625,5178;0,0215054
3626,4819;0,021268
3627,4463;0,0207271
3628,4104;0,0200116
3629,3748;0,0193972
3630,3389;0,0190666
3631,3032;0,0189848
3632,2673;0,0190124
3633,2317;0,0190327
3634,1958;0,0189934
3635,1602;0,0188981
3636,1243;0,0187779
3637,0886;0,0186601
3638,0527;0,0185526
3639,0171;0,0184518
3639,9812;0,0183613
3640,9456;0,0183026
3641,9097;0,0183056
3642,8740;0,0183869
3643,8381;0,0185311
3644,8025;0,0186802
3645,7666;0,0187261
3646,7310;0,0185161
3647,6951;0,0179348
3648,6594;0,0170976
3649,6235;0,0163768
3650,5879;0,0160431
3651,5520;0,0160513
3652,5164;0,016206
3653,4805;0,0163326
3654,4448;0,0163303
3655,4089;0,0161841
3656,3733;0,0159616
3657,3374;0,0157641
3658,3018;0,0156489
3659,2659;0,0155987
3660,2302;0,0155618
3661,1943;0,0155092
3662,1587;0,0154586
3663,1228;0,0154545
3664,0872;0,0155234
3665,0513;0,0156407
3666,0156;0,0157336
3666,9797;0,0157141
3667,9441;0,0155352
3668,9082;0,0152519
3669,8726;0,015012
3670,8367;0,0149324
3671,8010;0,0149933
3672,7651;0,015065
3673,7295;0,0150009
3674,6936;0,0147326
3675,6580;0,0143434
3676,6221;0,0140177
3677,5864;0,0138685
3678,5505;0,0138686
3679,5149;0,0139333
3680,4790;0,014005
3681,4434;0,0140755
3682,4075;0,0141665
3683,3718;0,0142972
3684,3359;0,0144579
3685,3003;0,0146032
3686,2644;0,0146603
3687,2288;0,0145539
3688,1929;0,0142616
3689,1572;0,013874
3690,1213;0,013558
3691,0857;0,0134203
3692,0498;0,0134481
3693,0142;0,0135709
3693,9783;0,0137268
3694,9426;0,0138818
3695,9067;0,0140215
3696,8711;0,014135
3697,8352;0,0142029
3698,7996;0,0141972
3699,7637;0,014096
3700,7280;0,013909
3701,6921;0,0136933
3702,6565;0,0135337
3703,6206;0,0134924
3704,5850;0,0135782
3705,5491;0,0137531
3706,5134;0,013954
3707,4775;0,014105
3708,4419;0,0141236
3709,4060;0,0139469
3710,3704;0,0135949
3711,3345;0,0132076
3712,2988;0,0129583
3713,2629;0,0129201
3714,2273;0,0130521
3715,1914;0,0132684
3716,1558;0,0134915
3717,1199;0,0136697
3718,0842;0,0137793
3719,0483;0,0138218
3720,0127;0,0138145
3720,9768;0,0137745
3721,9412;0,0137046
3722,9053;0,0135974
3723,8696;0,0134566
3724,8337;0,0133141
3725,7981;0,0132225
3726,7622;0,0132243
3727,7266;0,0133281
3728,6907;0,0135108
3729,6550;0,0137343
3730,6191;0,0139541
3731,5835;0,0141151
3732,5476;0,0141452
3733,5120;0,0139766
3734,4761;0,0136185
3735,4404;0,0132145
3736,4045;0,0129612
3737,3689;0,0129566
3738,3330;0,0131644
3739,2974;0,0134782
3740,2615;0,0137798
3741,2258;0,0139623
3742,1899;0,013952
3743,1543;0,0137587
3744,1184;0,0135212
3745,0828;0,0134271
3746,0469;0,0135389
3747,0112;0,0137519
3747,9753;0,0138892
3748,9397;0,013798
3749,9038;0,0134425
3750,8682;0,0129861
3751,8323;0,0126955
3752,7966;0,0126963
3753,7607;0,0129116
3754,7251;0,0131911
3755,6892;0,01341
3756,6536;0,0134975
3757,6177;0,0134481
3758,5820;0,013324
3759,5461;0,0132202
3760,5105;0,0132001
3761,4746;0,0132643
3762,4390;0,0133712
3763,4031;0,0134731
3764,3674;0,0135379
3765,3315;0,0135526
3766,2959;0,0135162
3767,2600;0,0134307
3768,2244;0,0133007
3769,1885;0,0131456
3770,1528;0,0130092
3771,1169;0,0129454
3772,0813;0,0129869
3773,0454;0,0131238
3774,0098;0,0133092
3774,9739;0,0134794
3775,9382;0,0135748
3776,9023;0,0135618
3777,8667;0,0134532
3778,8308;0,0133092
3779,7952;0,013202
3780,7593;0,0131676
3781,7236;0,013193
3782,6877;0,0132393
3783,6521;0,0132714
3784,6162;0,0132737
3785,5806;0,0132516
3786,5447;0,0132241
3787,5090;0,0132122
3788,4731;0,0132316
3789,4375;0,0132865
3790,4016;0,0133689
3791,3660;0,0134601
3792,3301;0,01354
3793,2944;0,013598
3794,2585;0,0136419
3795,2229;0,0136922
3796,1870;0,0137612
3797,1514;0,0138305
3798,1155;0,0138488
3799,0798;0,0137618
3800,0439;0,0135627
3801,0083;0,0133258
3801,9724;0,0131643
3802,9368;0,0131317
3803,9009;0,0131804
3804,8652;0,0132133
3805,8293;0,013164
3806,7937;0,0130517
3807,7578;0,0129737
3808,7222;0,0130243
3809,6863;0,0132158
3810,6506;0,01348
3811,6147;0,0137206
3812,5791;0,0138574
3813,5432;0,0138574
3814,5076;0,0137571
3815,4717;0,0136505
3816,4360;0,0136167
3817,4001;0,0136496
3818,3645;0,0136666
3819,3286;0,0135838
3820,2930;0,0133939
3821,2571;0,0131867
3822,2214;0,0130742
3823,1855;0,0130965
3824,1499;0,0132129
3825,1140;0,013356
3826,0784;0,0134759
3827,0425;0,0135544
3828,0068;0,0135981
3828,9709;0,0136243
3829,9353;0,0136477
3830,8994;0,0136774
3831,8638;0,0137183
3832,8279;0,0137711
3833,7922;0,0138276
3834,7563;0,0138653
3835,7207;0,0138519
3836,6848;0,0137637
3837,6492;0,0136097
3838,6133;0,0134365
3839,5776;0,0132966
3840,5417;0,0132087
3841,5061;0,0131574
3842,4702;0,0131231
3843,4346;0,0131106
3844,3987;0,0131511
3845,3630;0,0132813
3846,3271;0,0135167
3847,2915;0,0138381
3848,2556;0,0141939
3849,2200;0,0145032
3850,1841;0,0146502
3851,1484;0,0144909
3852,1125;0,0139448
3853,0769;0,0131876
3854,0410;0,0126208
3855,0054;0,0124722
3855,9695;0,0126584
3856,9338;0,0130013
3857,8979;0,0133695
3858,8623;0,0136863
3859,8264;0,0139043
3860,7908;0,0139952
3861,7549;0,0139604
3862,7192;0,0138478
3863,6833;0,0137407
3864,6477;0,0137072
3865,6118;0,0137572
3866,5762;0,0138473
3867,5403;0,013914
3868,5046;0,013905
3869,4688;0,0138026
3870,4331;0,0136344
3871,3972;0,0134612
3872,3616;0,0133453
3873,3257;0,0133222
3874,2900;0,0133917
3875,2542;0,0135263
3876,2185;0,0136837
3877,1826;0,0138196
3878,1470;0,0139016
3879,1111;0,0139213
3880,0754;0,0138958
3881,0396;0,0138495
3882,0039;0,0137902
3882,9680;0,0137064
3883,9324;0,0135953
3884,8965;0,0134883
3885,8608;0,0134398
3886,8250;0,0134818
3887,7893;0,0135904
3888,7534;0,013696
3889,7178;0,013726
3890,6819;0,0136559
3891,6462;0,0135386
3892,6104;0,0134738
3893,5747;0,0135281
3894,5388;0,0136922
3895,5032;0,013907
3896,4673;0,0141077
3897,4316;0,0142488
3898,3958;0,0143104
3899,3601;0,0142926
3900,3242;0,014201
3901,2886;0,0140369
3902,2527;0,0138101
3903,2170;0,0135595
3904,1812;0,0133505
3905,1455;0,0132369
3906,1096;0,0132281
3907,0740;0,0132931
3908,0381;0,0133894
3909,0024;0,0134867
3909,9666;0,0135763
3910,9309;0,0136648
3911,8950;0,0137603
3912,8594;0,0138576
3913,8235;0,013934
3914,7878;0,0139585
3915,7520;0,0139136
3916,7163;0,0138154
3917,6804;0,0137148
3918,6448;0,0136662
3919,6089;0,0136898
3920,5732;0,0137611
3921,5374;0,0138316
3922,5017;0,0138597
3923,4658;0,013837
3924,4302;0,0137936
3925,3943;0,0137764
3926,3586;0,0138129
3927,3228;0,013891
3928,2871;0,0139678
3929,2512;0,0139937
3930,2156;0,0139404
3931,1797;0,0138201
3932,1440;0,0136813
3933,1082;0,0135798
3934,0725;0,0135473
3935,0366;0,0135836
3936,0010;0,0136687
3936,9651;0,0137768
3937,9294;0,0138829
3938,8936;0,0139644
3939,8579;0,0140044
3940,8220;0,0139993
3941,7864;0,0139642
3942,7505;0,0139281
3943,7148;0,0139168
3944,6790;0,0139354
3945,6433;0,0139652
3946,6074;0,0139766
3947,5718;0,0139485
3948,5359;0,0138829
3949,5002;0,0138049
3950,4644;0,0137467
3951,4287;0,013727
3952,3928;0,0137439
3953,3572;0,013782
3954,3213;0,0138248
3955,2856;0,0138625
3956,2498;0,0138921
3957,2141;0,0139128
3958,1782;0,0139216
3959,1426;0,0139144
3960,1067;0,0138896
3961,0710;0,0138528
3962,0352;0,0138164
3962,9995;0,0137934
3963,9636;0,0137914
3964,9280;0,013809
3965,8921;0,013838
3966,8564;0,0138685
3967,8206;0,0138935
3968,7849;0,0139106
3969,7490;0,0139203
3970,7134;0,0139232
3971,6775;0,0139182
3972,6418;0,0139044
3973,6060;0,013883
3974,5703;0,0138597
3975,5344;0,0138424
3976,4988;0,0138379
3977,4629;0,013848
3978,4272;0,0138684
3979,3914;0,0138909
3980,3557;0,0139078
3981,3198;0,0139147
3982,2842;0,0139126
3983,2483;0,013907
3984,2126;0,0139048
3985,1768;0,0139109
3986,1411;0,013926
3987,1052;0,0139454
3988,0696;0,0139611
3989,0337;0,0139653
3989,9980;0,0139544
3990,9622;0,0139313
3991,9265;0,0139044
3992,8906;0,0138837
3993,8550;0,0138763
3994,8191;0,0138837
3995,7834;0,0139029
3996,7476;0,0139278
3997,7119;0,0139521
3998,6760;0,0139709
3999,6404;0,0139821
4000,6045;0,0139977

##### Extended Information
[Comments]
Sample name
Comment
Username
Division
Organization;UNIVERSIDAD INDUSTRIAL DE SANTANDER

[Detailed Information]
Creation date;4/02/2025 12:30 p.m.

Data array type;Linear data array
Horizontal axis;Wavenumber [cm-1]
Vertical axis;Abs
Start;399,193 cm-1
End;4000,6 cm-1
Data interval;0,964233 cm-1
Data points;3736    

[Measurement Information]
Model name;FT/IR-4X1typeA
Serial No.;A035162111

Accessory;ATR PRO 4X
Accessory S/N;A021162126
Incident angle;45 deg

Measurement date;4/02/2025 12:30 p.m.

Light source;Standard
Detector;TGS
Accumulation;Auto (76)
Resolution;4 cm-1
Zero filling;On
Apodization;Cosine
Gain;Auto (8)
Aperture;Auto (7 mm)
Scan speed;Auto (2 mm/sec)
Filter;Auto (12800 Hz)

