TITLE;
DATA TYPE;INFRARED SPECTRUM
ORIGIN;JASCO
OWNER;
DATE;25/02/05
TIME;11:18:31
SPECTROMETER/DATA SYSTEM;
LOCALE;9226
RESOLUTION;
DELTAX;0,964233
XUNITS;1/CM
YUNITS;ABSORBANCE
FIRSTX;  399,1927
LASTX; 4000,6047
NPOINTS;    3736
FIRSTY;     0,18046
MAXY;     0,24464
MINY;    -0,00549
XYDATA
399,1927;0,180458
400,1569;0,180746
401,1211;0,180929
402,0854;0,180992
403,0496;0,180898
404,0138;0,180643
404,9781;0,180292
405,9423;0,17998
406,9065;0,179856
407,8708;0,180005
408,8350;0,180404
409,7992;0,180944
410,7635;0,181501
411,7277;0,182011
412,6919;0,182498
413,6562;0,183043
414,6204;0,183715
415,5846;0,184516
416,5489;0,185353
417,5131;0,186035
418,4773;0,186375
419,4416;0,186424
420,4058;0,186506
421,3700;0,186907
422,3343;0,187663
423,2985;0,188633
424,2627;0,189612
425,2270;0,190425
426,1912;0,191007
427,1554;0,191427
428,1197;0,191836
429,0839;0,192367
430,0481;0,193056
431,0124;0,193815
431,9766;0,194474
432,9408;0,194865
433,9051;0,194922
434,8693;0,194731
435,8335;0,194504
436,7978;0,194467
437,7620;0,194715
438,7262;0,195146
439,6905;0,195507
440,6547;0,195539
441,6189;0,195129
442,5832;0,194404
443,5474;0,19368
444,5116;0,193248
445,4759;0,193168
446,4401;0,193259
447,4043;0,19326
448,3686;0,193016
449,3328;0,192555
450,2970;0,192044
451,2613;0,191657
452,2255;0,191463
453,1897;0,19141
454,1540;0,191395
455,1182;0,191348
456,0824;0,191273
457,0467;0,191214
458,0109;0,191193
458,9751;0,191176
459,9394;0,19111
460,9036;0,190986
461,8678;0,190845
462,8321;0,190749
463,7963;0,190738
464,7605;0,190808
465,7248;0,190925
466,6890;0,191039
467,6532;0,191111
468,6175;0,191108
469,5817;0,190998
470,5459;0,19076
471,5102;0,190419
472,4744;0,190066
473,4386;0,189824
474,4029;0,189772
475,3671;0,189893
476,3313;0,1901
477,2956;0,190299
478,2598;0,190436
479,2240;0,190505
480,1883;0,190536
481,1525;0,190558
482,1167;0,190591
483,0810;0,190649
484,0452;0,19076
485,0094;0,190958
485,9737;0,191263
486,9379;0,191658
487,9021;0,192102
488,8664;0,192554
489,8306;0,192991
490,7948;0,193404
491,7591;0,193777
492,7233;0,19407
493,6875;0,194231
494,6518;0,194231
495,6160;0,194101
496,5802;0,193925
497,5445;0,193807
498,5087;0,193819
499,4729;0,19398
500,4372;0,19425
501,4014;0,194562
502,3656;0,194857
503,3299;0,195111
504,2941;0,195333
505,2583;0,195541
506,2226;0,195751
507,1868;0,195975
508,1510;0,196233
509,1153;0,196557
510,0795;0,196977
511,0437;0,197507
512,0080;0,198131
512,9722;0,198805
513,9365;0,199476
514,9007;0,200098
515,8649;0,200645
516,8292;0,201122
517,7934;0,20155
518,7576;0,201948
519,7219;0,202319
520,6861;0,202646
521,6503;0,202901
522,6146;0,203055
523,5788;0,203091
524,5430;0,203017
525,5073;0,202877
526,4715;0,202742
527,4357;0,202685
528,4000;0,202735
529,3642;0,202863
530,3284;0,202992
531,2927;0,203034
532,2569;0,202921
533,2211;0,20264
534,1854;0,20224
535,1496;0,201808
536,1138;0,201428
537,0781;0,201146
538,0423;0,200955
539,0065;0,200821
539,9708;0,200708
540,9350;0,200601
541,8992;0,200512
542,8635;0,200464
543,8277;0,200474
544,7919;0,20055
545,7562;0,200696
546,7204;0,20092
547,6846;0,201224
548,6489;0,20159
549,6131;0,201974
550,5773;0,202315
551,5416;0,202568
552,5058;0,202738
553,4700;0,20288
554,4343;0,20306
555,3985;0,203299
556,3627;0,203531
557,3270;0,203616
558,2912;0,203396
559,2554;0,202771
560,2197;0,201745
561,1839;0,200422
562,1481;0,198963
563,1124;0,197526
564,0766;0,196218
565,0408;0,195085
566,0051;0,194122
566,9693;0,193307
567,9335;0,192623
568,8978;0,19207
569,8620;0,191654
570,8262;0,191369
571,7905;0,191189
572,7547;0,191073
573,7189;0,190976
574,6832;0,190875
575,6474;0,190769
576,6116;0,190673
577,5759;0,190601
578,5401;0,190546
579,5043;0,190483
580,4686;0,190384
581,4328;0,190232
582,3970;0,190036
583,3613;0,189826
584,3255;0,18963
585,2897;0,189469
586,2540;0,189344
587,2182;0,189247
588,1824;0,189164
589,1467;0,189089
590,1109;0,189014
591,0751;0,188929
592,0394;0,188813
593,0036;0,188639
593,9678;0,188382
594,9321;0,188035
595,8963;0,187607
596,8605;0,187121
597,8248;0,186604
598,7890;0,186078
599,7532;0,185554
600,7175;0,185035
601,6817;0,184526
602,6459;0,184031
603,6102;0,183559
604,5744;0,183112
605,5386;0,182683
606,5029;0,182257
607,4671;0,181816
608,4313;0,181339
609,3956;0,180816
610,3598;0,180245
611,3240;0,179641
612,2883;0,179034
613,2525;0,178458
614,2167;0,177921
615,1810;0,177391
616,1452;0,176792
617,1094;0,176037
618,0737;0,175076
619,0379;0,173931
620,0021;0,172678
620,9664;0,171407
621,9306;0,170183
622,8948;0,169044
623,8591;0,168011
624,8233;0,167101
625,7875;0,166348
626,7518;0,165749
627,7160;0,165263
628,6802;0,164815
629,6445;0,16433
630,6087;0,163769
631,5729;0,16314
632,5372;0,162491
633,5014;0,161874
634,4656;0,161317
635,4299;0,160816
636,3941;0,160348
637,3583;0,159892
638,3226;0,159446
639,2868;0,159018
640,2510;0,15862
641,2153;0,158254
642,1795;0,157914
643,1437;0,157597
644,1080;0,157307
645,0722;0,157054
646,0364;0,156841
647,0007;0,156658
647,9649;0,156482
648,9291;0,156293
649,8934;0,156087
650,8576;0,155883
651,8218;0,15571
652,7861;0,15559
653,7503;0,155529
654,7145;0,155522
655,6788;0,155564
656,6430;0,155651
657,6072;0,155767
658,5715;0,155866
659,5357;0,155872
660,4999;0,155713
661,4642;0,155376
662,4284;0,154924
663,3926;0,154464
664,3569;0,154095
665,3211;0,153893
666,2853;0,153876
667,2496;0,153875
668,2138;0,153452
669,1780;0,152302
670,1423;0,150704
671,1065;0,149063
672,0707;0,147491
673,0350;0,145925
673,9992;0,144325
674,9634;0,142727
675,9277;0,14121
676,8919;0,139828
677,8561;0,138564
678,8204;0,137358
679,7846;0,136166
680,7488;0,134993
681,7131;0,133882
682,6773;0,132872
683,6415;0,131973
684,6058;0,131173
685,5700;0,130452
686,5342;0,129801
687,4985;0,129211
688,4627;0,128674
689,4269;0,128173
690,3912;0,127692
691,3554;0,127226
692,3196;0,126773
693,2839;0,126333
694,2481;0,125899
695,2123;0,125463
696,1766;0,125017
697,1408;0,124559
698,1050;0,124089
699,0693;0,123604
700,0335;0,1231
700,9977;0,122571
701,9620;0,122014
702,9262;0,121429
703,8904;0,12081
704,8547;0,120159
705,8189;0,11948
706,7831;0,11879
707,7474;0,118111
708,7116;0,117465
709,6758;0,116859
710,6401;0,116276
711,6043;0,115682
712,5685;0,115051
713,5328;0,114384
714,4970;0,113719
715,4612;0,112961
716,4255;0,112467
717,3897;0,112047
718,3539;0,111615
719,3182;0,111058
720,2824;0,110292
721,2466;0,109316
722,2109;0,108204
723,1751;0,107063
724,1393;0,105979
725,1036;0,104993
726,0678;0,104107
727,0320;0,103306
727,9963;0,102566
728,9605;0,101862
729,9247;0,101167
730,8890;0,10046
731,8532;0,0997302
732,8174;0,0989857
733,7817;0,0982482
734,7459;0,0975437
735,7101;0,0968935
736,6744;0,0963098
737,6386;0,0957967
738,6028;0,0953498
739,5671;0,0949543
740,5313;0,0945832
741,4955;0,0942017
742,4598;0,0937779
743,4240;0,0932952
744,3882;0,0927572
745,3525;0,0921818
746,3167;0,0915904
747,2809;0,0909983
748,2452;0,0904137
749,2094;0,0898414
750,1736;0,0892868
751,1379;0,088756
752,1021;0,0882514
753,0663;0,0877684
754,0306;0,0872958
754,9948;0,0868208
755,9590;0,0863348
756,9233;0,085837
757,8875;0,0853334
758,8517;0,0848344
759,8160;0,0843516
760,7802;0,0838953
761,7444;0,0834726
762,7087;0,0830862
763,6729;0,0827336
764,6371;0,0824083
765,6014;0,0821012
766,5656;0,0818031
767,5298;0,0815056
768,4941;0,0812021
769,4583;0,0808887
770,4225;0,0805655
771,3868;0,0802381
772,3510;0,0799162
773,3152;0,0796102
774,2795;0,0793257
775,2437;0,0790605
776,2079;0,0788039
777,1722;0,0785407
778,1364;0,0782561
779,1006;0,0779395
780,0649;0,0775867
781,0291;0,0772003
781,9933;0,0767885
782,9576;0,0763632
783,9218;0,0759375
784,8860;0,0755232
785,8503;0,0751292
786,8145;0,0747611
787,7787;0,0744222
788,7430;0,0741141
789,7072;0,0738358
790,6714;0,0735828
791,6357;0,0733473
792,5999;0,0731205
793,5641;0,0728964
794,5284;0,0726736
795,4926;0,0724551
796,4568;0,0722447
797,4211;0,0720441
798,3853;0,0718517
799,3495;0,0716646
800,3138;0,0714818
801,2780;0,0713039
802,2422;0,071131
803,2065;0,0709591
804,1707;0,0707781
805,1349;0,070576
806,0992;0,0703461
807,0634;0,0700928
808,0276;0,0698329
808,9919;0,0695886
809,9561;0,0693776
810,9203;0,0692049
811,8846;0,0690618
812,8488;0,0689318
813,8130;0,0687993
814,7773;0,0686564
815,7415;0,068504
816,7057;0,0683501
817,6700;0,0682053
818,6342;0,0680793
819,5984;0,0679773
820,5627;0,0678974
821,5269;0,0678307
822,4911;0,0677661
823,4554;0,0676967
824,4196;0,0676256
825,3839;0,067564
826,3481;0,0675223
827,3123;0,0674995
828,2766;0,0674788
829,2408;0,0674345
830,2050;0,067345
831,1693;0,0672047
832,1335;0,0670245
833,0977;0,0668232
834,0620;0,0666151
835,0262;0,0664035
835,9904;0,0661834
836,9547;0,0659494
837,9189;0,0657013
838,8831;0,0654455
839,8474;0,0651909
840,8116;0,0649444
841,7758;0,0647107
842,7401;0,0644937
843,7043;0,0642989
844,6685;0,0641328
845,6328;0,0640009
846,5970;0,0639057
847,5612;0,0638445
848,5255;0,0638101
849,4897;0,0637926
850,4539;0,0637809
851,4182;0,0637651
852,3824;0,0637383
853,3466;0,0636965
854,3109;0,0636386
855,2751;0,0635644
856,2393;0,0634735
857,2036;0,0633664
858,1678;0,0632451
859,1320;0,0631146
860,0963;0,0629819
861,0605;0,0628539
862,0247;0,0627364
862,9890;0,062634
863,9532;0,0625519
864,9174;0,0624977
865,8817;0,0624804
866,8459;0,062509
867,8101;0,0625887
868,7744;0,0627183
869,7386;0,0628896
870,7028;0,0630878
871,6671;0,0632937
872,6313;0,0634874
873,5955;0,0636527
874,5598;0,0637804
875,5240;0,0638707
876,4882;0,0639328
877,4525;0,0639815
878,4167;0,0640347
879,3809;0,0641113
880,3452;0,0642308
881,3094;0,0644135
882,2736;0,0646792
883,2379;0,0650441
884,2021;0,0655176
885,1663;0,0661004
886,1306;0,0667848
887,0948;0,0675564
888,0590;0,0683963
889,0233;0,0692834
889,9875;0,0701938
890,9517;0,0711021
891,9160;0,0719817
892,8802;0,0728054
893,8444;0,0735462
894,8087;0,0741782
895,7729;0,0746768
896,7371;0,07502
897,7014;0,0751903
898,6656;0,0751785
899,6298;0,074987
900,5941;0,0746329
901,5583;0,0741475
902,5225;0,0735729
903,4868;0,0729558
904,4510;0,0723395
905,4152;0,0717584
906,3795;0,0712371
907,3437;0,0707918
908,3079;0,0704334
909,2722;0,0701687
910,2364;0,0699982
911,2007;0,0699144
912,1649;0,0699019
913,1292;0,0699431
914,0934;0,0700255
915,0576;0,070147
916,0219;0,0703135
916,9861;0,0705315
917,9503;0,0707997
918,9146;0,0711056
919,8788;0,0714307
920,8430;0,0717578
921,8073;0,0720776
922,7715;0,0723871
923,7357;0,0726844
924,7000;0,0729638
925,6642;0,0732169
926,6284;0,0734374
927,5927;0,0736259
928,5569;0,0737896
929,5211;0,0739376
930,4854;0,074076
931,4496;0,0742084
932,4138;0,0743406
933,3781;0,0744862
934,3423;0,0746657
935,3065;0,0748994
936,2708;0,0751988
937,2350;0,0755631
938,1992;0,0759843
939,1635;0,0764559
940,1277;0,0769803
941,0919;0,0775683
942,0562;0,0782328
943,0204;0,0789828
943,9846;0,0798207
944,9489;0,0807452
945,9131;0,081755
946,8773;0,0828499
947,8416;0,0840275
948,8058;0,0852814
949,7700;0,0866021
950,7343;0,0879818
951,6985;0,0894203
952,6627;0,090926
953,6270;0,0925121
954,5912;0,0941888
955,5554;0,0959574
956,5197;0,0978085
957,4839;0,0997256
958,4481;0,10169
959,4124;0,103685
960,3766;0,105698
961,3408;0,107719
962,3051;0,109744
963,2693;0,111772
964,2335;0,113806
965,1978;0,115855
966,1620;0,117933
967,1262;0,120055
968,0905;0,122244
969,0547;0,124524
970,0189;0,126921
970,9832;0,129465
971,9474;0,132179
972,9116;0,135084
973,8759;0,138197
974,8401;0,141533
975,8043;0,145098
976,7686;0,148889
977,7328;0,152884
978,6970;0,157032
979,6613;0,161247
980,6255;0,165414
981,5897;0,169402
982,5540;0,173082
983,5182;0,176354
984,4824;0,179171
985,4467;0,181541
986,4109;0,183525
987,3751;0,185209
988,3394;0,186679
989,3036;0,187995
990,2678;0,189188
991,2321;0,190266
992,1963;0,191238
993,1605;0,192125
994,1248;0,192962
995,0890;0,193792
996,0532;0,194645
997,0175;0,195529
997,9817;0,196433
998,9459;0,197335
999,9102;0,198217
1000,8744;0,199075
1001,8386;0,199926
1002,8029;0,2008
1003,7671;0,201741
1004,7313;0,202794
1005,6956;0,204003
1006,6598;0,205404
1007,6240;0,207018
1008,5883;0,208852
1009,5525;0,210893
1010,5167;0,213119
1011,4810;0,215488
1012,4452;0,217946
1013,4094;0,220426
1014,3737;0,222856
1015,3379;0,225166
1016,3021;0,227305
1017,2664;0,229246
1018,2306;0,230987
1019,1948;0,232548
1020,1591;0,233963
1021,1233;0,235273
1022,0875;0,236516
1023,0518;0,237728
1024,0160;0,238929
1024,9802;0,240119
1025,9445;0,241275
1026,9087;0,242354
1027,8729;0,243298
1028,8372;0,244044
1029,8014;0,244518
1030,7656;0,244644
1031,7299;0,244348
1032,6941;0,243567
1033,6583;0,24228
1034,6226;0,240523
1035,5868;0,238396
1036,5510;0,236053
1037,5153;0,233676
1038,4795;0,231435
1039,4437;0,229462
1040,4080;0,227838
1041,3722;0,226586
1042,3364;0,225683
1043,3007;0,225063
1044,2649;0,224638
1045,2291;0,224309
1046,1934;0,22398
1047,1576;0,223572
1048,1218;0,223026
1049,0861;0,222305
1050,0503;0,221385
1051,0145;0,22025
1051,9788;0,218894
1052,9430;0,217317
1053,9072;0,215534
1054,8715;0,213558
1055,8357;0,211389
1056,7999;0,209002
1057,7642;0,20634
1058,7284;0,203344
1059,6926;0,199978
1060,6569;0,196269
1061,6211;0,192318
1062,5853;0,188277
1063,5496;0,184318
1064,5138;0,180582
1065,4780;0,177156
1066,4423;0,174069
1067,4065;0,171305
1068,3707;0,168826
1069,3350;0,166586
1070,2992;0,164535
1071,2634;0,162621
1072,2277;0,160783
1073,1919;0,15896
1074,1561;0,157096
1075,1204;0,155156
1076,0846;0,153131
1077,0488;0,151041
1078,0131;0,148929
1078,9773;0,146855
1079,9415;0,144885
1080,9058;0,143077
1081,8700;0,141472
1082,8342;0,14009
1083,7985;0,138925
1084,7627;0,137954
1085,7269;0,137145
1086,6912;0,136462
1087,6554;0,135882
1088,6196;0,135394
1089,5839;0,135003
1090,5481;0,134724
1091,5123;0,134573
1092,4766;0,13456
1093,4408;0,134683
1094,4050;0,134928
1095,3693;0,135275
1096,3335;0,1357
1097,2977;0,136186
1098,2620;0,136714
1099,2262;0,137263
1100,1904;0,1378
1101,1547;0,138279
1102,1189;0,138654
1103,0831;0,138882
1104,0474;0,138947
1105,0116;0,138858
1105,9758;0,138644
1106,9401;0,138339
1107,9043;0,137957
1108,8685;0,137487
1109,8328;0,136886
1110,7970;0,136099
1111,7612;0,135081
1112,7255;0,133822
1113,6897;0,132355
1114,6539;0,130762
1115,6182;0,129143
1116,5824;0,127595
1117,5466;0,126179
1118,5109;0,124905
1119,4751;0,123736
1120,4393;0,122595
1121,4036;0,121395
1122,3678;0,120052
1123,3320;0,118502
1124,2963;0,116709
1125,2605;0,114668
1126,2247;0,112404
1127,1890;0,109964
1128,1532;0,107413
1129,1174;0,104817
1130,0817;0,102232
1131,0459;0,0996973
1132,0101;0,0972393
1132,9744;0,09488
1133,9386;0,0926484
1134,9028;0,0905862
1135,8671;0,0887429
1136,8313;0,0871641
1137,7955;0,08588
1138,7598;0,0848974
1139,7240;0,0842011
1140,6882;0,0837602
1141,6525;0,0835362
1142,6167;0,0834904
1143,5809;0,0835883
1144,5452;0,0838023
1145,5094;0,0841127
1146,4736;0,0845077
1147,4379;0,0849819
1148,4021;0,0855326
1149,3663;0,086155
1150,3306;0,0868382
1151,2948;0,0875623
1152,2590;0,0882993
1153,2233;0,089015
1154,1875;0,089672
1155,1517;0,0902307
1156,1160;0,0906477
1157,0802;0,0908725
1158,0444;0,0908446
1159,0087;0,0904938
1159,9729;0,0897477
1160,9371;0,0885451
1161,9014;0,0868524
1162,8656;0,0846776
1163,8298;0,0820768
1164,7941;0,0791495
1165,7583;0,0760247
1166,7225;0,0728409
1167,6868;0,0697258
1168,6510;0,066779
1169,6152;0,0640639
1170,5795;0,0616079
1171,5437;0,0594114
1172,5079;0,0574605
1173,4722;0,0557391
1174,4364;0,0542342
1175,4006;0,0529351
1176,3649;0,0518293
1177,3291;0,0508992
1178,2933;0,0501219
1179,2576;0,049473
1180,2218;0,0489312
1181,1860;0,0484809
1182,1503;0,0481129
1183,1145;0,0478231
1184,0787;0,0476105
1185,0430;0,0474756
1186,0072;0,0474193
1186,9714;0,0474424
1187,9357;0,0475458
1188,8999;0,0477309
1189,8641;0,0480002
1190,8284;0,0483565
1191,7926;0,0488023
1192,7568;0,0493374
1193,7211;0,0499576
1194,6853;0,0506542
1195,6495;0,051415
1196,6138;0,0522246
1197,5780;0,0530656
1198,5422;0,0539195
1199,5065;0,0547129
1200,4707;0,0555529
1201,4349;0,0563708
1202,3992;0,0571665
1203,3634;0,0579426
1204,3276;0,0586994
1205,2919;0,0594322
1206,2561;0,0601338
1207,2203;0,0608019
1208,1846;0,0614468
1209,1488;0,0620953
1210,1130;0,0627855
1211,0773;0,0635551
1212,0415;0,0644281
1213,0057;0,065407
1213,9700;0,0664748
1214,9342;0,0676031
1215,8984;0,0687632
1216,8627;0,0699311
1217,8269;0,0710878
1218,7911;0,0722172
1219,7554;0,0733037
1220,7196;0,074333
1221,6838;0,0752951
1222,6481;0,0761866
1223,6123;0,0770113
1224,5765;0,077778
1225,5408;0,0784968
1226,5050;0,0791763
1227,4692;0,0798213
1228,4335;0,0804319
1229,3977;0,0810032
1230,3619;0,0815273
1231,3262;0,0819953
1232,2904;0,0824006
1233,2546;0,0827423
1234,2189;0,0830258
1235,1831;0,0832617
1236,1473;0,0834623
1237,1116;0,0836378
1238,0758;0,0837926
1239,0400;0,0839253
1240,0043;0,0840293
1240,9685;0,0840955
1241,9327;0,0841146
1242,8970;0,0840785
1243,8612;0,0839809
1244,8254;0,0838169
1245,7897;0,0835841
1246,7539;0,0832839
1247,7181;0,0829228
1248,6824;0,0825131
1249,6466;0,0820716
1250,6108;0,0816164
1251,5751;0,0811647
1252,5393;0,0807295
1253,5035;0,0803189
1254,4678;0,079934
1255,4320;0,079569
1256,3962;0,079211
1257,3605;0,0788429
1258,3247;0,0784483
1259,2889;0,0780164
1260,2532;0,077545
1261,2174;0,0770387
1262,1816;0,0765044
1263,1459;0,0759456
1264,1101;0,0753593
1265,0743;0,0747377
1266,0386;0,0740706
1267,0028;0,0733492
1267,9670;0,0725693
1268,9313;0,0717324
1269,8955;0,0708462
1270,8597;0,0699228
1271,8240;0,0689754
1272,7882;0,0680159
1273,7524;0,0670547
1274,7167;0,0661021
1275,6809;0,0651708
1276,6451;0,0642749
1277,6094;0,0634258
1278,5736;0,0626267
1279,5378;0,0618704
1280,5021;0,0611433
1281,4663;0,0604338
1282,4305;0,0597392
1283,3948;0,0590663
1284,3590;0,0584268
1285,3232;0,0578311
1286,2875;0,0572855
1287,2517;0,0567931
1288,2159;0,0563571
1289,1802;0,0559828
1290,1444;0,0556757
1291,1086;0,0554389
1292,0729;0,0552722
1293,0371;0,0551738
1294,0013;0,0551433
1294,9656;0,0551834
1295,9298;0,0552993
1296,8940;0,0554968
1297,8583;0,0557804
1298,8225;0,0561521
1299,7867;0,0566101
1300,7510;0,0571475
1301,7152;0,0577535
1302,6794;0,0584145
1303,6437;0,0591183
1304,6079;0,0598579
1305,5721;0,0606322
1306,5364;0,0614415
1307,5006;0,0622829
1308,4648;0,0631473
1309,4291;0,0640191
1310,3933;0,0648797
1311,3575;0,0657087
1312,3218;0,0664839
1313,2860;0,0671803
1314,2502;0,067769
1315,2145;0,0682185
1316,1787;0,0684993
1317,1429;0,0685926
1318,1072;0,0685012
1319,0714;0,068256
1320,0356;0,0679111
1320,9999;0,0675257
1321,9641;0,067145
1322,9283;0,0667926
1323,8926;0,0664755
1324,8568;0,066193
1325,8210;0,0659445
1326,7853;0,0657293
1327,7495;0,0655447
1328,7137;0,0653827
1329,6780;0,0652305
1330,6422;0,0650729
1331,6064;0,0648971
1332,5707;0,0646935
1333,5349;0,064455
1334,4991;0,0641699
1335,4634;0,0638172
1336,4276;0,0633666
1337,3918;0,0627912
1338,3561;0,0620921
1339,3203;0,0613193
1340,2845;0,0605608
1341,2488;0,0598962
1342,2130;0,0593583
1343,1772;0,0589343
1344,1415;0,0585942
1345,1057;0,0583156
1346,0699;0,0580946
1347,0342;0,0579437
1347,9984;0,0578832
1348,9626;0,0579298
1349,9269;0,0580876
1350,8911;0,0583443
1351,8553;0,0586756
1352,8196;0,059057
1353,7838;0,0594758
1354,7480;0,0599363
1355,7123;0,0604526
1356,6765;0,0610325
1357,6407;0,0616644
1358,6050;0,0623192
1359,5692;0,0629596
1360,5334;0,0635522
1361,4977;0,0640783
1362,4619;0,0645434
1363,4261;0,0649742
1364,3904;0,0653955
1365,3546;0,0658087
1366,3188;0,0661938
1367,2831;0,0665271
1368,2473;0,0667943
1369,2115;0,0669919
1370,1758;0,0671175
1371,1400;0,0671575
1372,1042;0,0670851
1373,0685;0,0668747
1374,0327;0,0665272
1374,9969;0,0660819
1375,9612;0,0655885
1376,9254;0,0650621
1377,8896;0,0644715
1378,8539;0,0637743
1379,8181;0,0629652
1380,7823;0,0620944
1381,7466;0,0612387
1382,7108;0,0604434
1383,6750;0,0596887
1384,6393;0,0589061
1385,6035;0,0580389
1386,5677;0,0571114
1387,5320;0,0562506
1388,4962;0,0556052
1389,4604;0,0552317
1390,4247;0,0550737
1391,3889;0,055028
1392,3531;0,0550092
1393,3174;0,0549744
1394,2816;0,0549192
1395,2458;0,0548618
1396,2101;0,0548274
1397,1743;0,054839
1398,1385;0,0549162
1399,1028;0,0550744
1400,0670;0,0553168
1401,0313;0,0556277
1401,9955;0,0559772
1402,9597;0,0563366
1403,9240;0,0566948
1404,8882;0,0570649
1405,8524;0,0574745
1406,8167;0,057944
1407,7809;0,0584715
1408,7451;0,059041
1409,7094;0,0596434
1410,6736;0,0602872
1411,6378;0,0609895
1412,6021;0,0617522
1413,5663;0,0625458
1414,5305;0,0633133
1415,4948;0,0639854
1416,4590;0,0644942
1417,4232;0,064792
1418,3875;0,0648936
1419,3517;0,0648974
1420,3159;0,0649076
1421,2802;0,0649313
1422,2444;0,0648885
1423,2086;0,064699
1424,1729;0,0643434
1425,1371;0,0638573
1426,1013;0,0632789
1427,0656;0,0626008
1428,0298;0,0617787
1428,9940;0,060796
1429,9583;0,0597255
1430,9225;0,0587044
1431,8867;0,0578252
1432,8510;0,0570567
1433,8152;0,0562666
1434,7794;0,0553151
1435,7437;0,0541821
1436,7079;0,0530586
1437,6721;0,0522431
1438,6364;0,0518829
1439,6006;0,0518936
1440,5648;0,0521061
1441,5291;0,0524007
1442,4933;0,0527368
1443,4575;0,0531221
1444,4218;0,0535689
1445,3860;0,0540699
1446,3502;0,0545995
1447,3145;0,055137
1448,2787;0,0556869
1449,2429;0,0562752
1450,2072;0,0569193
1451,1714;0,0576006
1452,1356;0,0582644
1453,0999;0,0588362
1454,0641;0,0592238
1455,0283;0,0592943
1455,9926;0,0588867
1456,9568;0,0580284
1457,9210;0,0571776
1458,8853;0,0568035
1459,8495;0,0568867
1460,8137;0,0571257
1461,7780;0,0572308
1462,7422;0,05699
1463,7064;0,0562806
1464,6707;0,0551437
1465,6349;0,0538227
1466,5991;0,0525923
1467,5634;0,0515315
1468,5276;0,0505093
1469,4918;0,0493006
1470,4561;0,0476731
1471,4203;0,0454668
1472,3845;0,0427596
1473,3488;0,0399906
1474,3130;0,03769
1475,2772;0,0360437
1476,2415;0,034901
1477,2057;0,0340477
1478,1699;0,0333471
1479,1342;0,0327404
1480,0984;0,0322125
1481,0626;0,031773
1482,0269;0,0314466
1482,9911;0,0312581
1483,9553;0,0312119
1484,9196;0,0312819
1485,8838;0,031418
1486,8480;0,0315619
1487,8123;0,0316696
1488,7765;0,0317511
1489,7407;0,0318998
1490,7050;0,0322281
1491,6692;0,0327632
1492,6334;0,0334499
1493,5977;0,0342231
1494,5619;0,0350519
1495,5261;0,035936
1496,4904;0,0368832
1497,4546;0,0378964
1498,4188;0,0389805
1499,3831;0,0401321
1500,3473;0,0413089
1501,3115;0,042435
1502,2758;0,0434366
1503,2400;0,0442676
1504,2042;0,0449048
1505,1685;0,0452964
1506,1327;0,0452964
1507,0969;0,0448279
1508,0612;0,0442296
1509,0254;0,0439094
1509,9896;0,0438756
1510,9539;0,0439397
1511,9181;0,043951
1512,8823;0,0438325
1513,8466;0,0435533
1514,8108;0,0431131
1515,7750;0,0425402
1516,7393;0,0418827
1517,7035;0,0411802
1518,6677;0,0404404
1519,6320;0,039656
1520,5962;0,0388537
1521,5604;0,0381214
1522,5247;0,0375591
1523,4889;0,0371998
1524,4531;0,037005
1525,4174;0,036928
1526,3816;0,0369585
1527,3458;0,0371075
1528,3101;0,0373665
1529,2743;0,0376936
1530,2385;0,0380375
1531,2028;0,0383719
1532,1670;0,0387129
1533,1312;0,0391077
1534,0955;0,0395956
1535,0597;0,0401672
1536,0239;0,0407693
1536,9882;0,041348
1537,9524;0,0418742
1538,9166;0,0423075
1539,8809;0,0425235
1540,8451;0,0424139
1541,8093;0,042178
1542,7736;0,0421263
1543,7378;0,0423065
1544,7020;0,0426076
1545,6663;0,0429381
1546,6305;0,0432563
1547,5947;0,0435416
1548,5590;0,0437741
1549,5232;0,0439396
1550,4874;0,0440489
1551,4517;0,0441471
1552,4159;0,0442907
1553,3801;0,0445018
1554,3444;0,0447415
1555,3086;0,0449108
1556,2728;0,0448465
1557,2371;0,0443129
1558,2013;0,0432151
1559,1655;0,0420971
1560,1298;0,0417256
1561,0940;0,0421267
1562,0582;0,0428883
1563,0225;0,0436953
1563,9867;0,0444072
1564,9509;0,0449842
1565,9152;0,0454302
1566,8794;0,0457727
1567,8436;0,0460677
1568,8079;0,0464042
1569,7721;0,0468684
1570,7363;0,0474807
1571,7006;0,0481806
1572,6648;0,048881
1573,6290;0,0495241
1574,5933;0,050101
1575,5575;0,0506446
1576,5217;0,0512188
1577,4860;0,0518939
1578,4502;0,0526935
1579,4144;0,0535768
1580,3787;0,0544845
1581,3429;0,0553795
1582,3071;0,0562528
1583,2714;0,0571135
1584,2356;0,0579774
1585,1998;0,0588563
1586,1641;0,0597475
1587,1283;0,0606286
1588,0925;0,0614611
1589,0568;0,0622025
1590,0210;0,0628163
1590,9852;0,063275
1591,9495;0,0635545
1592,9137;0,0636331
1593,8779;0,0635026
1594,8422;0,0631825
1595,8064;0,0627225
1596,7706;0,0621832
1597,7349;0,0616118
1598,6991;0,061031
1599,6633;0,0604457
1600,6276;0,059858
1601,5918;0,05928
1602,5560;0,0587368
1603,5203;0,0582554
1604,4845;0,0578465
1605,4487;0,0574939
1606,4130;0,0571635
1607,3772;0,0568311
1608,3414;0,0565147
1609,3057;0,0562779
1610,2699;0,0561864
1611,2341;0,0562495
1612,1984;0,0564049
1613,1626;0,0565527
1614,1268;0,0566022
1615,0911;0,0565194
1616,0553;0,0563794
1617,0195;0,0563581
1617,9838;0,0565869
1618,9480;0,057029
1619,9122;0,0575428
1620,8765;0,0580008
1621,8407;0,0583448
1622,8049;0,0585864
1623,7692;0,0587838
1624,7334;0,0589973
1625,6976;0,0592511
1626,6619;0,0595413
1627,6261;0,0598705
1628,5903;0,0602589
1629,5546;0,0607171
1630,5188;0,0612166
1631,4830;0,0616913
1632,4473;0,062061
1633,4115;0,0622456
1634,3757;0,062177
1635,3400;0,0618701
1636,3042;0,0615317
1637,2684;0,0614381
1638,2327;0,061663
1639,1969;0,0620914
1640,1611;0,06259
1641,1254;0,063076
1642,0896;0,063503
1643,0538;0,0638318
1644,0181;0,0640124
1644,9823;0,0639937
1645,9465;0,0637911
1646,9108;0,0635629
1647,8750;0,0634983
1648,8392;0,0635955
1649,8035;0,0636489
1650,7677;0,0633485
1651,7319;0,0623271
1652,6962;0,0604053
1653,6604;0,058214
1654,6246;0,0568301
1655,5889;0,0564205
1656,5531;0,0564422
1657,5173;0,0564262
1658,4816;0,0561414
1659,4458;0,0554979
1660,4100;0,0544842
1661,3743;0,0531877
1662,3385;0,0518322
1663,3027;0,0506855
1664,2670;0,0498702
1665,2312;0,0493023
1666,1954;0,048781
1667,1597;0,0480882
1668,1239;0,047072
1669,0881;0,0457546
1670,0524;0,0443785
1671,0166;0,0432157
1671,9808;0,0423119
1672,9451;0,0414969
1673,9093;0,0405848
1674,8735;0,039541
1675,8378;0,0385214
1676,8020;0,0377424
1677,7662;0,0372875
1678,7305;0,037058
1679,6947;0,0368645
1680,6589;0,0365048
1681,6232;0,0357771
1682,5874;0,0345186
1683,5516;0,0328106
1684,5159;0,0311472
1685,4801;0,0300186
1686,4443;0,0294325
1687,4086;0,029107
1688,3728;0,028809
1689,3370;0,0284523
1690,3013;0,0280552
1691,2655;0,0276687
1692,2297;0,0273258
1693,1940;0,0270259
1694,1582;0,0267444
1695,1224;0,0264434
1696,0867;0,0260768
1697,0509;0,0255989
1698,0151;0,0249965
1698,9794;0,024344
1699,9436;0,0238121
1700,9078;0,0235654
1701,8721;0,0236386
1702,8363;0,0239311
1703,8005;0,024299
1704,7648;0,0246386
1705,7290;0,0249235
1706,6932;0,0251989
1707,6575;0,0255359
1708,6217;0,0259761
1709,5859;0,0265105
1710,5502;0,0270999
1711,5144;0,0276996
1712,4786;0,0282696
1713,4429;0,0287702
1714,4071;0,0291543
1715,3713;0,0293737
1716,3356;0,0294301
1717,2998;0,0294528
1718,2640;0,0296464
1719,2283;0,0301007
1720,1925;0,0307429
1721,1567;0,0314486
1722,1210;0,032125
1723,0852;0,0327291
1724,0494;0,0332585
1725,0137;0,0337389
1725,9779;0,034208
1726,9421;0,0346935
1727,9064;0,0351927
1728,8706;0,0356648
1729,8348;0,0360335
1730,7991;0,0361972
1731,7633;0,0360553
1732,7275;0,0355875
1733,6918;0,0349608
1734,6560;0,0344671
1735,6202;0,0342539
1736,5845;0,034217
1737,5487;0,0341471
1738,5129;0,033879
1739,4772;0,0333527
1740,4414;0,032621
1741,4056;0,031807
1742,3699;0,0310178
1743,3341;0,0302805
1744,2983;0,0295544
1745,2626;0,0287768
1746,2268;0,0278807
1747,1910;0,0267847
1748,1553;0,0254063
1749,1195;0,0237472
1750,0837;0,0219858
1751,0480;0,0204035
1752,0122;0,0191703
1752,9764;0,018247
1753,9407;0,0174731
1754,9049;0,0166962
1755,8691;0,0158482
1756,8334;0,014954
1757,7976;0,0140806
1758,7618;0,0132663
1759,7261;0,012492
1760,6903;0,0117196
1761,6545;0,0109549
1762,6188;0,0102616
1763,5830;0,00970748
1764,5472;0,00930474
1765,5115;0,00900762
1766,4757;0,00875281
1767,4399;0,00849522
1768,4042;0,00821418
1769,3684;0,00789534
1770,3326;0,00751387
1771,2969;0,00705268
1772,2611;0,00655505
1773,2253;0,00613355
1774,1896;0,00588494
1775,1538;0,00581072
1776,1180;0,00583343
1777,0823;0,0058607
1778,0465;0,0058308
1779,0107;0,00572743
1779,9750;0,0055719
1780,9392;0,00539983
1781,9034;0,00523694
1782,8677;0,0050942
1783,8319;0,00498255
1784,7961;0,00492356
1785,7604;0,00493795
1786,7246;0,00502247
1787,6888;0,00514042
1788,6531;0,00523426
1789,6173;0,00524739
1790,5815;0,00514635
1791,5458;0,00494729
1792,5100;0,00473169
1793,4742;0,00460296
1794,4385;0,00460242
1795,4027;0,00468683
1796,3669;0,00477839
1797,3312;0,00481475
1798,2954;0,00476783
1799,2596;0,00464376
1800,2239;0,00447613
1801,1881;0,00431238
1802,1523;0,00419333
1803,1166;0,00413801
1804,0808;0,0041434
1805,0450;0,00419346
1806,0093;0,00426622
1806,9735;0,0043363
1807,9377;0,00437676
1808,9020;0,00436546
1809,8662;0,00429651
1810,8304;0,00418867
1811,7947;0,00407768
1812,7589;0,00399433
1813,7231;0,00394771
1814,6874;0,00392756
1815,6516;0,00391877
1816,6158;0,00391463
1817,5801;0,00392058
1818,5443;0,00394677
1819,5085;0,00399516
1820,4728;0,00405284
1821,4370;0,00409872
1822,4012;0,0041178
1823,3655;0,00411221
1824,3297;0,00409935
1825,2939;0,00409521
1826,2582;0,0040938
1827,2224;0,00406276
1828,1866;0,00396451
1829,1509;0,0037931
1830,1151;0,00359824
1831,0793;0,00346133
1832,0436;0,0034331
1833,0078;0,00349829
1833,9720;0,0035981
1834,9363;0,0036755
1835,9005;0,00370715
1836,8647;0,00371064
1837,8290;0,00372421
1838,7932;0,00377076
1839,7574;0,00383617
1840,7217;0,00387862
1841,6859;0,00385459
1842,6501;0,00374388
1843,6144;0,00356869
1844,5786;0,00339372
1845,5428;0,0032869
1846,5071;0,00326717
1847,4713;0,00329978
1848,4355;0,00333596
1849,3998;0,00334783
1850,3640;0,00333576
1851,3282;0,00331612
1852,2925;0,00330432
1853,2567;0,00330616
1854,2209;0,00332028
1855,1852;0,00334413
1856,1494;0,00337498
1857,1136;0,0034059
1858,0779;0,00342328
1859,0421;0,0034138
1860,0063;0,00337798
1860,9706;0,00333811
1861,9348;0,00332946
1862,8990;0,0033786
1863,8633;0,00348499
1864,8275;0,00361757
1865,7917;0,00372392
1866,7560;0,00374672
1867,7202;0,00365074
1868,6844;0,00345542
1869,6487;0,0032357
1870,6129;0,00306958
1871,5771;0,00298752
1872,5414;0,00297423
1873,5056;0,00299954
1874,4698;0,00304035
1875,4341;0,0030847
1876,3983;0,00312739
1877,3625;0,00316505
1878,3268;0,00319467
1879,2910;0,00321396
1880,2552;0,00322275
1881,2195;0,0032241
1882,1837;0,0032244
1883,1479;0,00323137
1884,1122;0,00325029
1885,0764;0,00328022
1886,0406;0,003313
1887,0049;0,00333574
1887,9691;0,00333655
1888,9333;0,00331203
1889,8976;0,00327147
1890,8618;0,00323159
1891,8260;0,00320436
1892,7903;0,00318937
1893,7545;0,00317685
1894,7188;0,00315648
1895,6830;0,003125
1896,6472;0,00308817
1897,6115;0,00305646
1898,5757;0,00303827
1899,5399;0,00303612
1900,5042;0,00304735
1901,4684;0,00306652
1902,4326;0,00308723
1903,3969;0,0031031
1904,3611;0,00310873
1905,3253;0,00310071
1906,2896;0,00307832
1907,2538;0,00304386
1908,2180;0,00300266
1909,1823;0,00296297
1910,1465;0,00293452
1911,1107;0,00292413
1912,0750;0,00293008
1913,0392;0,00293989
1914,0034;0,0029347
1914,9677;0,00289836
1915,9319;0,00282762
1916,8961;0,00273873
1917,8604;0,00266401
1918,8246;0,0026349
1919,7888;0,00266199
1920,7531;0,0027285
1921,7173;0,00280052
1922,6815;0,00284396
1923,6458;0,00283832
1924,6100;0,00278235
1925,5742;0,00269019
1926,5385;0,00258271
1927,5027;0,00248178
1928,4669;0,00240858
1929,4312;0,00238045
1930,3954;0,00240353
1931,3596;0,00246605
1932,3239;0,00253908
1933,2881;0,00258758
1934,2523;0,00258573
1935,2166;0,00252814
1936,1808;0,00243093
1937,1450;0,002323
1938,1093;0,00223368
1939,0735;0,00218415
1940,0377;0,00218376
1941,0020;0,00222816
1941,9662;0,0022982
1942,9304;0,00236343
1943,8947;0,00239146
1944,8589;0,00235762
1945,8231;0,00225027
1946,7874;0,0020738
1947,7516;0,00185187
1948,7158;0,00162724
1949,6801;0,00145192
1950,6443;0,00136618
1951,6085;0,00137619
1952,5728;0,00144501
1953,5370;0,00150622
1954,5012;0,00149614
1955,4655;0,00138816
1956,4297;0,00120932
1957,3939;0,00102805
1958,3582;0,000918893
1959,3224;0,000923533
1960,2866;0,00102991
1961,2509;0,0011823
1962,2151;0,00131476
1963,1793;0,00138361
1964,1436;0,00137791
1965,1078;0,00130762
1966,0720;0,0011841
1967,0363;0,00100946
1968,0005;0,000781173
1968,9647;0,000504713
1969,9290;0,000201055
1970,8932;-9,64486E-05
1971,8574;-0,000350668
1972,8217;-0,000527863
1973,7859;-0,000601598
1974,7501;-0,000556721
1975,7144;-0,000395405
1976,6786;-0,000145115
1977,6428;0,000140951
1978,6071;0,000398895
1979,5713;0,000579213
1980,5355;0,000664844
1981,4998;0,000670999
1982,4640;0,000631218
1983,4282;0,00058111
1984,3925;0,000548412
1985,3567;0,000551792
1986,3209;0,00060528
1987,2852;0,00072159
1988,2494;0,000908382
1989,2136;0,00115717
1990,1779;0,00143227
1991,1421;0,00167214
1992,1063;0,00181042
1993,0706;0,00180775
1994,0348;0,00167164
1994,9990;0,00145127
1995,9633;0,00121485
1996,9275;0,00102519
1997,8917;0,000922064
1998,8560;0,000913743
1999,8202;0,00097884
2000,7844;0,00107784
2001,7487;0,00116891
2002,7129;0,00122061
2003,6771;0,00121812
2004,6414;0,00116385
2005,6056;0,00107491
2006,5698;0,000977769
2007,5341;0,000899647
2008,4983;0,000858914
2009,4625;0,000859334
2010,4268;0,000891579
2011,3910;0,000940923
2012,3552;0,000995946
2013,3195;0,00105311
2014,2837;0,00111459
2015,2479;0,00118102
2016,2122;0,00124475
2017,1764;0,00129016
2018,1406;0,00130269
2019,1049;0,00128014
2020,0691;0,00123649
2021,0333;0,00119402
2021,9976;0,00116828
2022,9618;0,0011555
2023,9260;0,00113222
2024,8903;0,0010704
2025,8545;0,000960317
2026,8187;0,000825282
2027,7830;0,000715265
2028,7472;0,000680856
2029,7114;0,000744169
2030,6757;0,000887103
2031,6399;0,00106608
2032,6041;0,00124275
2033,5684;0,00140764
2034,5326;0,00157779
2035,4968;0,00177202
2036,4611;0,00198642
2037,4253;0,00219254
2038,3895;0,00235653
2039,3538;0,00246146
2040,3180;0,00251474
2041,2822;0,00253717
2042,2465;0,00254563
2043,2107;0,00254645
2044,1749;0,00254514
2045,1392;0,00256069
2046,1034;0,00262685
2047,0676;0,00277299
2048,0320;0,00299763
2048,9961;0,00325927
2049,9604;0,00349594
2050,9246;0,00365785
2051,8889;0,00372852
2052,8530;0,00372532
2053,8174;0,00368625
2054,7815;0,00365244
2055,7458;0,00365409
2056,7100;0,00370248
2057,6743;0,00378953
2058,6384;0,00389381
2059,6028;0,00399037
2060,5669;0,00406111
2061,5313;0,0041018
2062,4954;0,00412198
2063,4597;0,00413692
2064,4238;0,00415587
2065,3882;0,00417471
2066,3523;0,00417877
2067,3167;0,00415413
2068,2808;0,00409914
2069,2451;0,00402833
2070,2092;0,00396674
2071,1736;0,00393883
2072,1377;0,00395785
2073,1021;0,0040211
2074,0662;0,00411156
2075,0305;0,00420421
2075,9946;0,00427422
2076,9590;0,00430449
2077,9231;0,00429078
2078,8875;0,0042427
2079,8516;0,00417976
2080,8159;0,00412372
2081,7800;0,00409056
2082,7444;0,00408535
2083,7085;0,00410204
2084,6729;0,00412722
2085,6370;0,00414595
2086,6013;0,00414706
2087,5654;0,00412653
2088,5298;0,00408809
2089,4939;0,00404096
2090,4583;0,00399546
2091,4224;0,00395843
2092,3867;0,00393105
2093,3508;0,00391064
2094,3152;0,00389542
2095,2793;0,00388909
2096,2437;0,00390132
2097,2078;0,00394276
2098,1721;0,0040179
2099,1362;0,00412039
2100,1006;0,00423479
2101,0647;0,00434005
2102,0291;0,00442009
2102,9932;0,00446559
2103,9575;0,00447547
2104,9216;0,00445535
2105,8860;0,00441536
2106,8501;0,00436816
2107,8145;0,00432667
2108,7786;0,00430062
2109,7429;0,00429284
2110,7070;0,00429738
2111,6714;0,00430177
2112,6355;0,00429366
2113,5999;0,00426889
2114,5640;0,0042364
2115,5283;0,00421615
2116,4924;0,00422988
2117,4568;0,00428893
2118,4209;0,00438561
2119,3853;0,00449381
2120,3494;0,00457942
2121,3137;0,00461569
2122,2778;0,00459447
2123,2422;0,00452699
2124,2063;0,00443443
2125,1707;0,00433545
2126,1348;0,0042394
2127,0991;0,00414896
2128,0632;0,00406851
2129,0276;0,00400974
2129,9917;0,00398856
2130,9561;0,00401442
2131,9202;0,00407957
2132,8845;0,00415681
2133,8486;0,00420943
2134,8130;0,00420864
2135,7771;0,00414777
2136,7415;0,004044
2137,7056;0,00392774
2138,6699;0,00382864
2139,6340;0,00376717
2140,5984;0,00375351
2141,5625;0,00378951
2142,5269;0,0038691
2143,4910;0,003977
2144,4553;0,00408923
2145,4194;0,00417913
2146,3838;0,00422823
2147,3479;0,00423593
2148,3123;0,00421984
2149,2764;0,0042034
2150,2407;0,00419645
2151,2048;0,00418139
2152,1692;0,00411702
2153,1333;0,00396252
2154,0977;0,00371161
2155,0618;0,00341838
2156,0261;0,00319585
2156,9902;0,00317253
2157,9546;0,00341324
2158,9187;0,00385367
2159,8831;0,00432001
2160,8472;0,00463407
2161,8115;0,00471048
2162,7756;0,00457475
2163,7400;0,00432018
2164,7041;0,00405314
2165,6685;0,0038537
2166,6326;0,00375758
2167,5969;0,00375724
2168,5610;0,00381674
2169,5254;0,00389237
2170,4895;0,00395104
2171,4539;0,00398108
2172,4180;0,00399254
2173,3823;0,0040072
2174,3464;0,00404291
2175,3108;0,00410129
2176,2749;0,00416611
2177,2393;0,00421245
2178,2034;0,00421898
2179,1677;0,00417507
2180,1318;0,00408081
2181,0962;0,00394385
2182,0603;0,00377717
2183,0247;0,00359893
2183,9888;0,00343209
2184,9531;0,0033019
2185,9172;0,00323196
2186,8816;0,00323995
2187,8457;0,0033336
2188,8101;0,00350634
2189,7742;0,00373418
2190,7385;0,00397747
2191,7026;0,00419047
2192,6670;0,00433652
2193,6311;0,00440124
2194,5955;0,00439538
2195,5596;0,0043451
2196,5239;0,00427657
2197,4880;0,00420544
2198,4524;0,00413722
2199,4165;0,00407491
2200,3809;0,004025
2201,3450;0,00399601
2202,3093;0,00399266
2203,2734;0,00401323
2204,2378;0,00405421
2205,2019;0,00411705
2206,1663;0,00420771
2207,1304;0,00432535
2208,0947;0,00444829
2209,0588;0,00453148
2210,0232;0,00452373
2210,9873;0,0043978
2211,9517;0,00417403
2212,9158;0,00391933
2213,8801;0,00371841
2214,8442;0,00363265
2215,8086;0,00367089
2216,7727;0,00378919
2217,7371;0,00391837
2218,7012;0,00400179
2219,6655;0,00402167
2220,6296;0,00400137
2221,5940;0,00398554
2222,5581;0,00401197
2223,5225;0,00409076
2224,4866;0,00420021
2225,4509;0,0042992
2226,4150;0,00434756
2227,3794;0,00432408
2228,3435;0,00423617
2229,3079;0,00411591
2230,2720;0,00400704
2231,2363;0,00394825
2232,2004;0,00395929
2233,1648;0,004035
2234,1289;0,00414912
2235,0933;0,00426581
2236,0574;0,00435357
2237,0217;0,00439567
2237,9858;0,00439311
2238,9502;0,00436054
2239,9143;0,00431861
2240,8787;0,00428671
2241,8428;0,00427833
2242,8071;0,00429856
2243,7712;0,00434316
2244,7356;0,00439918
2245,6997;0,00444905
2246,6641;0,00447824
2247,6282;0,00448373
2248,5925;0,00447775
2249,5566;0,00448254
2250,5210;0,00451745
2251,4851;0,00458555
2252,4495;0,00466894
2253,4136;0,00473709
2254,3779;0,00476417
2255,3420;0,00474438
2256,3064;0,00469467
2257,2705;0,00464283
2258,2349;0,00460975
2259,1990;0,0045982
2260,1633;0,00459571
2261,1274;0,00458822
2262,0918;0,00457421
2263,0559;0,00456851
2264,0203;0,00459266
2264,9844;0,00465845
2265,9487;0,00475652
2266,9128;0,00485863
2267,8772;0,00493208
2268,8413;0,00495656
2269,8057;0,00493286
2270,7698;0,00487911
2271,7341;0,00481939
2272,6982;0,00477271
2273,6626;0,00474839
2274,6267;0,00474775
2275,5911;0,00476779
2276,5552;0,00480318
2277,5195;0,00484624
2278,4836;0,00488744
2279,4480;0,00491849
2280,4121;0,0049366
2281,3765;0,00494649
2282,3406;0,00495788
2283,3049;0,00498
2284,2690;0,00501693
2285,2334;0,00506721
2286,1975;0,00512747
2287,1619;0,00519696
2288,1260;0,00527903
2289,0903;0,00537803
2290,0544;0,00549374
2291,0188;0,0056176
2291,9829;0,00573416
2292,9473;0,00582757
2293,9114;0,00588951
2294,8757;0,0059235
2295,8398;0,00594261
2296,8042;0,0059617
2297,7683;0,00598885
2298,7327;0,00602153
2299,6968;0,00604978
2300,6611;0,0060645
2301,6252;0,00606551
2302,5896;0,00606341
2303,5537;0,0060747
2304,5181;0,00611177
2305,4822;0,00617383
2306,4465;0,00624356
2307,4106;0,00629232
2308,3750;0,00629232
2309,3391;0,00623017
2310,3035;0,00611501
2311,2676;0,00597614
2312,2319;0,00585022
2313,1960;0,00576422
2314,1604;0,00572342
2315,1245;0,00571192
2316,0889;0,0057053
2317,0530;0,00568793
2318,0173;0,00566489
2318,9814;0,0056611
2319,9458;0,00570687
2320,9099;0,0058177
2321,8743;0,00598191
2322,8384;0,00616409
2323,8027;0,0063196
2324,7668;0,00640997
2325,7312;0,0064148
2326,6953;0,0063395
2327,6597;0,00621617
2328,6238;0,00609411
2329,5881;0,00602227
2330,5522;0,00603135
2331,5166;0,00612307
2332,4807;0,00627011
2333,4451;0,00642638
2334,4092;0,00654575
2335,3735;0,00660287
2336,3376;0,00660636
2337,3020;0,00659577
2338,2661;0,00661923
2339,2305;0,00669825
2340,1946;0,00679728
2341,1589;0,00682082
2342,1230;0,00666051
2343,0874;0,00630316
2344,0515;0,00593102
2345,0159;0,00584101
2345,9800;0,00618576
2346,9443;0,00683839
2347,9084;0,00751308
2348,8728;0,00795865
2349,8369;0,00807168
2350,8013;0,00791553
2351,7654;0,00767017
2352,7297;0,0075298
2353,6938;0,00759226
2354,6582;0,00782232
2355,6223;0,00811273
2356,5867;0,00835703
2357,5508;0,00847323
2358,5151;0,0084127
2359,4792;0,00818287
2360,4436;0,00785036
2361,4077;0,0074947
2362,3721;0,00714981
2363,3362;0,00679151
2364,3005;0,00637531
2365,2646;0,00588263
2366,2290;0,00533783
2367,1931;0,00479399
2368,1575;0,00430863
2369,1216;0,00392524
2370,0859;0,00366313
2371,0500;0,00351521
2372,0144;0,00345591
2372,9785;0,00345733
2373,9429;0,00350462
2374,9070;0,00360072
2375,8713;0,0037576
2376,8354;0,00398097
2377,7998;0,00425906
2378,7639;0,00456237
2379,7283;0,00485379
2380,6924;0,00510203
2381,6567;0,00529087
2382,6208;0,00542034
2383,5852;0,00550117
2384,5493;0,0055467
2385,5137;0,00556715
2386,4778;0,00556834
2387,4421;0,0055542
2388,4063;0,00553002
2389,3706;0,00550363
2390,3347;0,00548341
2391,2991;0,00547516
2392,2632;0,00548014
2393,2275;0,00549589
2394,1917;0,00551871
2395,1560;0,00554569
2396,1201;0,00557499
2397,0845;0,00560506
2398,0486;0,00563482
2399,0129;0,00566248
2399,9771;0,00568708
2400,9414;0,00570949
2401,9055;0,00573118
2402,8699;0,00575378
2403,8340;0,00577803
2404,7983;0,00580373
2405,7625;0,00583002
2406,7268;0,00585524
2407,6909;0,00587747
2408,6553;0,00589507
2409,6194;0,00590717
2410,5837;0,00591503
2411,5479;0,00592175
2412,5122;0,00593102
2413,4763;0,0059451
2414,4407;0,0059639
2415,4048;0,00598541
2416,3691;0,00600776
2417,3333;0,0060311
2418,2976;0,00605773
2419,2617;0,00609042
2420,2261;0,0061295
2421,1902;0,00617091
2422,1545;0,00620764
2423,1187;0,00623298
2424,0830;0,00624443
2425,0471;0,00624545
2426,0115;0,00624378
2426,9756;0,00624718
2427,9399;0,00625948
2428,9041;0,00627957
2429,8684;0,00630387
2430,8325;0,00633021
2431,7969;0,00635992
2432,7610;0,00639609
2433,7253;0,00643933
2434,6895;0,00648459
2435,6538;0,00652216
2436,6179;0,0065431
2437,5823;0,00654548
2438,5464;0,00653694
2439,5107;0,00653129
2440,4749;0,0065411
2441,4392;0,00657108
2442,4033;0,00661644
2443,3677;0,00666665
2444,3318;0,0067117
2445,2961;0,00674658
2446,2603;0,00677199
2447,2246;0,00679203
2448,1887;0,00681146
2449,1531;0,0068341
2450,1172;0,00686215
2451,0815;0,00689561
2452,0457;0,00693145
2453,0100;0,00696363
2453,9741;0,0069851
2454,9385;0,00699137
2455,9026;0,00698364
2456,8669;0,00696895
2457,8311;0,00695708
2458,7954;0,00695563
2459,7595;0,00696663
2460,7239;0,0069864
2461,6880;0,00700859
2462,6523;0,00702806
2463,6165;0,00704342
2464,5808;0,00705681
2465,5449;0,00707165
2466,5093;0,00708996
2467,4734;0,00711091
2468,4377;0,00713137
2469,4019;0,00714804
2470,3662;0,00715961
2471,3303;0,00716751
2472,2947;0,00717463
2473,2588;0,00718306
2474,2231;0,0071927
2475,1873;0,00720225
2476,1516;0,00721178
2477,1157;0,00722454
2478,0801;0,00724579
2479,0442;0,00727889
2480,0085;0,0073216
2480,9727;0,00736585
2481,9370;0,00740192
2482,9011;0,00742422
2483,8655;0,0074343
2484,8296;0,00743904
2485,7939;0,00744565
2486,7581;0,00745768
2487,7224;0,00747519
2488,6865;0,00749783
2489,6509;0,00752747
2490,6150;0,00756696
2491,5793;0,00761594
2492,5435;0,00766748
2493,5078;0,00770939
2494,4719;0,00773064
2495,4363;0,00772854
2496,4004;0,00771178
2497,3647;0,0076966
2498,3289;0,00769818
2499,2932;0,00772262
2500,2573;0,00776438
2501,2217;0,00781046
2502,1858;0,0078483
2503,1501;0,00787241
2504,1143;0,00788573
2505,0786;0,00789549
2506,0427;0,00790687
2507,0071;0,00791921
2507,9712;0,0079274
2508,9355;0,00792728
2509,8997;0,00792088
2510,8640;0,00791703
2511,8281;0,00792657
2512,7925;0,00795511
2513,7566;0,00799858
2514,7209;0,00804493
2515,6851;0,00808094
2516,6494;0,00809959
2517,6135;0,00810317
2518,5779;0,00810037
2519,5420;0,00809997
2520,5063;0,00810546
2521,4705;0,00811411
2522,4348;0,00812035
2523,3989;0,00812085
2524,3633;0,00811764
2525,3274;0,00811757
2526,2917;0,00812864
2527,2559;0,0081555
2528,2202;0,00819652
2529,1843;0,00824386
2530,1487;0,00828641
2531,1128;0,00831419
2532,0771;0,00832227
2533,0413;0,00831273
2534,0056;0,00829365
2534,9697;0,00827574
2535,9341;0,00826786
2536,8982;0,00827363
2537,8625;0,00829047
2538,8267;0,00831163
2539,7910;0,00832995
2540,7551;0,00834134
2541,7195;0,00834603
2542,6836;0,00834688
2543,6479;0,0083462
2544,6121;0,00834343
2545,5764;0,00833568
2546,5405;0,00832084
2547,5049;0,00830116
2548,4690;0,00828427
2549,4333;0,00828036
2550,3975;0,00829674
2551,3618;0,00833317
2552,3259;0,00838108
2553,2903;0,00842754
2554,2544;0,00846176
2555,2188;0,00848021
2556,1829;0,00848755
2557,1472;0,00849311
2558,1113;0,00850513
2559,0757;0,00852651
2560,0398;0,00855403
2561,0042;0,00858111
2561,9683;0,00860175
2562,9326;0,00861329
2563,8967;0,00861672
2564,8611;0,00861509
2565,8252;0,00861168
2566,7896;0,0086091
2567,7537;0,0086093
2568,7180;0,00861381
2569,6821;0,00862342
2570,6465;0,0086375
2571,6106;0,00865371
2572,5750;0,00866875
2573,5391;0,00867989
2574,5034;0,00868633
2575,4675;0,00868959
2576,4319;0,0086926
2577,3960;0,00869833
2578,3604;0,00870858
2579,3245;0,00872352
2580,2888;0,00874203
2581,2529;0,00876252
2582,2173;0,00878394
2583,1814;0,0088066
2584,1458;0,00883216
2585,1099;0,00886254
2586,0742;0,00889818
2587,0383;0,00893654
2588,0027;0,00897228
2588,9668;0,00899925
2589,9312;0,00901349
2590,8953;0,00901537
2591,8596;0,00900964
2592,8237;0,00900345
2593,7881;0,00900367
2594,7522;0,00901477
2595,7166;0,00903797
2596,6807;0,00907127
2597,6450;0,00911002
2598,6091;0,00914817
2599,5735;0,00918022
2600,5376;0,00920372
2601,5020;0,00922069
2602,4661;0,00923683
2603,4304;0,00925818
2604,3945;0,00928723
2605,3589;0,00932123
2606,3230;0,00935409
2607,2874;0,00938077
2608,2515;0,00940113
2609,2158;0,00942019
2610,1799;0,00944472
2611,1443;0,00947847
2612,1084;0,00951954
2613,0728;0,00956172
2614,0369;0,00959857
2615,0012;0,00962735
2615,9653;0,00965017
2616,9297;0,00967204
2617,8938;0,00969757
2618,8582;0,00972853
2619,8223;0,00976356
2620,7866;0,00979952
2621,7507;0,00983334
2622,7151;0,00986315
2623,6792;0,00988877
2624,6436;0,00991146
2625,6077;0,00993345
2626,5720;0,00995718
2627,5361;0,00998435
2628,5005;0,0100155
2629,4646;0,0100501
2630,4290;0,0100876
2631,3931;0,0101279
2632,3574;0,0101708
2633,3215;0,0102153
2634,2859;0,0102577
2635,2500;0,0102928
2636,2144;0,0103165
2637,1785;0,010329
2638,1428;0,0103362
2639,1069;0,0103476
2640,0713;0,0103717
2641,0354;0,0104111
2641,9998;0,0104616
2642,9639;0,0105147
2643,9282;0,0105622
2644,8923;0,010601
2645,8567;0,010633
2646,8208;0,010663
2647,7852;0,0106945
2648,7493;0,0107283
2649,7136;0,0107621
2650,6777;0,0107935
2651,6421;0,010822
2652,6062;0,0108489
2653,5706;0,0108766
2654,5347;0,0109065
2655,4990;0,0109385
2656,4631;0,0109712
2657,4275;0,0110029
2658,3916;0,0110334
2659,3560;0,011063
2660,3201;0,0110922
2661,2844;0,0111212
2662,2485;0,011149
2663,2129;0,0111748
2664,1770;0,0111982
2665,1414;0,0112197
2666,1055;0,0112403
2667,0698;0,0112608
2668,0339;0,0112809
2668,9983;0,0113004
2669,9624;0,0113194
2670,9268;0,0113396
2671,8909;0,0113635
2672,8552;0,0113935
2673,8193;0,0114301
2674,7837;0,0114709
2675,7478;0,011512
2676,7122;0,0115495
2677,6763;0,0115818
2678,6406;0,0116102
2679,6047;0,0116383
2680,5691;0,0116705
2681,5332;0,0117092
2682,4976;0,0117545
2683,4617;0,0118036
2684,4260;0,0118523
2685,3901;0,0118972
2686,3545;0,0119359
2687,3186;0,0119682
2688,2830;0,0119952
2689,2471;0,0120186
2690,2114;0,0120411
2691,1755;0,0120661
2692,1399;0,0120972
2693,1040;0,0121369
2694,0684;0,0121849
2695,0325;0,0122373
2695,9968;0,0122884
2696,9609;0,0123332
2697,9253;0,0123709
2698,8894;0,0124049
2699,8538;0,0124406
2700,8179;0,0124815
2701,7822;0,0125267
2702,7463;0,0125716
2703,7107;0,0126118
2704,6748;0,0126456
2705,6392;0,012676
2706,6033;0,0127081
2707,5676;0,0127458
2708,5317;0,0127896
2709,4961;0,0128364
2710,4602;0,0128822
2711,4246;0,0129243
2712,3887;0,0129635
2713,3530;0,0130027
2714,3171;0,0130452
2715,2815;0,0130932
2716,2456;0,0131461
2717,2100;0,0132013
2718,1741;0,0132552
2719,1384;0,013305
2720,1025;0,0133487
2721,0669;0,0133853
2722,0310;0,0134148
2722,9954;0,0134376
2723,9595;0,0134559
2724,9238;0,0134742
2725,8879;0,0134982
2726,8523;0,0135335
2727,8164;0,0135824
2728,7808;0,013643
2729,7449;0,0137088
2730,7092;0,0137714
2731,6733;0,0138234
2732,6377;0,0138609
2733,6018;0,0138836
2734,5662;0,0138947
2735,5303;0,0138996
2736,4946;0,0139047
2737,4587;0,0139165
2738,4231;0,0139398
2739,3872;0,0139769
2740,3516;0,0140263
2741,3157;0,014083
2742,2800;0,0141395
2743,2441;0,014188
2744,2085;0,0142223
2745,1726;0,0142404
2746,1370;0,0142452
2747,1011;0,0142441
2748,0654;0,0142469
2749,0295;0,0142623
2749,9939;0,014295
2750,9580;0,0143443
2751,9224;0,0144048
2752,8865;0,014469
2753,8508;0,01453
2754,8149;0,0145838
2755,7793;0,0146292
2756,7434;0,0146675
2757,7078;0,0147014
2758,6719;0,0147341
2759,6362;0,0147688
2760,6003;0,0148076
2761,5647;0,014851
2762,5288;0,0148976
2763,4932;0,0149451
2764,4573;0,0149921
2765,4216;0,01504
2766,3857;0,0150922
2767,3501;0,0151533
2768,3142;0,0152254
2769,2786;0,0153056
2770,2427;0,0153861
2771,2070;0,0154576
2772,1711;0,0155136
2773,1355;0,0155549
2774,0996;0,0155892
2775,0640;0,0156279
2776,0281;0,0156798
2776,9924;0,0157472
2777,9565;0,0158255
2778,9209;0,0159069
2779,8850;0,0159864
2780,8494;0,0160641
2781,8135;0,016144
2782,7778;0,0162302
2783,7419;0,0163219
2784,7063;0,0164129
2785,6704;0,0164942
2786,6348;0,0165598
2787,5989;0,0166105
2788,5632;0,0166555
2789,5273;0,0167086
2790,4917;0,0167826
2791,4558;0,0168834
2792,4202;0,0170066
2793,3843;0,01714
2794,3486;0,0172692
2795,3127;0,0173838
2796,2771;0,0174825
2797,2412;0,0175719
2798,2056;0,0176628
2799,1697;0,017764
2800,1340;0,0178788
2801,0981;0,0180056
2802,0625;0,018141
2803,0266;0,0182823
2803,9910;0,0184284
2804,9551;0,0185779
2805,9194;0,0187273
2806,8835;0,0188715
2807,8479;0,0190074
2808,8120;0,0191364
2809,7764;0,019265
2810,7405;0,0194022
2811,7048;0,0195547
2812,6689;0,0197242
2813,6333;0,0199076
2814,5974;0,0200995
2815,5618;0,0202955
2816,5259;0,0204943
2817,4902;0,0206966
2818,4543;0,0209046
2819,4187;0,0211194
2820,3828;0,0213414
2821,3472;0,0215706
2822,3113;0,0218067
2823,2756;0,0220508
2824,2397;0,0223052
2825,2041;0,0225738
2826,1682;0,0228611
2827,1326;0,0231706
2828,0967;0,023504
2829,0610;0,0238608
2830,0251;0,0242396
2830,9895;0,0246394
2831,9536;0,0250605
2832,9180;0,0255039
2833,8821;0,0259705
2834,8464;0,0264614
2835,8105;0,0269795
2836,7749;0,0275323
2837,7390;0,0281332
2838,7034;0,0288017
2839,6675;0,0295598
2840,6318;0,0304285
2841,5959;0,0314245
2842,5603;0,0325568
2843,5244;0,0338227
2844,4888;0,0352017
2845,4529;0,0366492
2846,4172;0,0380941
2847,3813;0,0394435
2848,3457;0,0405986
2849,3098;0,0414751
2850,2742;0,0420238
2851,2383;0,0422403
2852,2026;0,0421609
2853,1667;0,0418482
2854,1311;0,0413716
2855,0952;0,0407929
2856,0596;0,0401604
2857,0237;0,039511
2857,9880;0,0388757
2858,9521;0,0382842
2859,9165;0,0377637
2860,8806;0,0373352
2861,8450;0,037009
2862,8091;0,0367837
2863,7734;0,0366503
2864,7375;0,0365968
2865,7019;0,036612
2866,6660;0,0366848
2867,6304;0,0368005
2868,5945;0,0369383
2869,5588;0,0370718
2870,5229;0,0371757
2871,4873;0,0372339
2872,4514;0,0372451
2873,4158;0,0372223
2874,3799;0,0371864
2875,3442;0,0371573
2876,3083;0,0371476
2877,2727;0,0371614
2878,2368;0,0371982
2879,2012;0,0372576
2880,1653;0,0373419
2881,1296;0,0374556
2882,0938;0,0376017
2883,0581;0,03778
2884,0222;0,0379862
2884,9866;0,0382149
2885,9507;0,038462
2886,9150;0,0387269
2887,8792;0,0390112
2888,8435;0,039316
2889,8076;0,0396386
2890,7720;0,0399716
2891,7361;0,0403048
2892,7004;0,0406289
2893,6646;0,0409399
2894,6289;0,0412411
2895,5930;0,0415418
2896,5574;0,0418531
2897,5215;0,0421826
2898,4858;0,0425311
2899,4500;0,0428926
2900,4143;0,0432577
2901,3784;0,0436198
2902,3428;0,0439795
2903,3069;0,0443467
2904,2712;0,0447392
2905,2354;0,0451778
2906,1997;0,0456822
2907,1638;0,046268
2908,1282;0,0469467
2909,0923;0,0477267
2910,0566;0,0486117
2911,0208;0,0495975
2911,9851;0,0506665
2912,9492;0,0517838
2913,9136;0,0528983
2914,8777;0,0539494
2915,8420;0,0548779
2916,8062;0,0556364
2917,7705;0,0561965
2918,7346;0,0565491
2919,6990;0,0567017
2920,6631;0,0566716
2921,6274;0,0564801
2922,5916;0,0561479
2923,5559;0,0556921
2924,5200;0,0551251
2925,4844;0,0544567
2926,4485;0,0536975
2927,4128;0,0528629
2928,3770;0,0519744
2929,3413;0,0510565
2930,3054;0,0501316
2931,2698;0,049214
2932,2339;0,0483087
2933,1982;0,0474139
2934,1624;0,046527
2935,1267;0,0456498
2936,0908;0,0447891
2937,0552;0,0439542
2938,0193;0,0431528
2938,9836;0,0423883
2939,9478;0,0416598
2940,9121;0,0409646
2941,8762;0,0403018
2942,8406;0,0396749
2943,8047;0,0390927
2944,7690;0,0385675
2945,7332;0,0381119
2946,6975;0,0377333
2947,6616;0,0374301
2948,6260;0,03719
2949,5901;0,0369937
2950,5544;0,0368196
2951,5186;0,0366506
2952,4829;0,0364763
2953,4470;0,0362926
2954,4114;0,036097
2955,3755;0,0358849
2956,3398;0,0356481
2957,3040;0,0353772
2958,2683;0,035065
2959,2324;0,0347103
2960,1968;0,0343178
2961,1609;0,0338956
2962,1252;0,0334512
2963,0894;0,0329891
2964,0537;0,0325111
2965,0178;0,0320184
2965,9822;0,0315155
2966,9463;0,0310102
2967,9106;0,0305113
2968,8748;0,030025
2969,8391;0,0295521
2970,8032;0,0290899
2971,7676;0,0286365
2972,7317;0,0281949
2973,6960;0,0277733
2974,6602;0,0273811
2975,6245;0,0270232
2976,5886;0,0266976
2977,5530;0,0263969
2978,5171;0,0261141
2979,4814;0,0258466
2980,4456;0,0255964
2981,4099;0,0253667
2982,3740;0,0251578
2983,3384;0,0249664
2984,3025;0,0247873
2985,2668;0,0246173
2986,2310;0,0244562
2987,1953;0,0243064
2988,1594;0,0241702
2989,1238;0,024049
2990,0879;0,0239429
2991,0522;0,0238517
2992,0164;0,0237746
2992,9807;0,0237101
2993,9448;0,0236561
2994,9092;0,0236122
2995,8733;0,0235814
2996,8376;0,0235702
2997,8018;0,0235847
2998,7661;0,0236258
2999,7302;0,0236857
3000,6946;0,0237503
3001,6587;0,0238059
3002,6230;0,0238462
3003,5872;0,023876
3004,5515;0,0239062
3005,5156;0,0239464
3006,4800;0,0239974
3007,4441;0,0240501
3008,4084;0,024091
3009,3726;0,0241106
3010,3369;0,0241087
3011,3010;0,0240953
3012,2654;0,0240846
3013,2295;0,0240886
3014,1938;0,0241126
3015,1580;0,0241558
3016,1223;0,024215
3017,0864;0,0242873
3018,0508;0,0243707
3019,0149;0,0244627
3019,9792;0,0245589
3020,9434;0,0246537
3021,9077;0,0247435
3022,8718;0,0248293
3023,8362;0,0249162
3024,8003;0,0250114
3025,7646;0,0251191
3026,7288;0,0252382
3027,6931;0,0253623
3028,6572;0,0254828
3029,6216;0,0255919
3030,5857;0,0256861
3031,5500;0,0257672
3032,5142;0,0258425
3033,4785;0,0259226
3034,4426;0,0260176
3035,4070;0,0261334
3036,3711;0,0262683
3037,3354;0,0264138
3038,2996;0,0265584
3039,2639;0,0266929
3040,2280;0,0268155
3041,1924;0,0269324
3042,1565;0,027054
3043,1208;0,0271883
3044,0850;0,027337
3045,0493;0,0274953
3046,0134;0,0276552
3046,9778;0,0278112
3047,9419;0,0279629
3048,9063;0,0281139
3049,8704;0,0282678
3050,8347;0,0284246
3051,7988;0,0285797
3052,7632;0,0287272
3053,7273;0,0288645
3054,6917;0,028995
3055,6558;0,029128
3056,6201;0,0292738
3057,5842;0,0294389
3058,5486;0,0296224
3059,5127;0,0298168
3060,4771;0,0300112
3061,4412;0,0301949
3062,4055;0,03036
3063,3696;0,0305029
3064,3340;0,0306248
3065,2981;0,0307319
3066,2625;0,0308338
3067,2266;0,030941
3068,1909;0,0310614
3069,1550;0,0311983
3070,1194;0,0313498
3071,0835;0,0315113
3072,0479;0,0316772
3073,0120;0,0318421
3073,9763;0,0320012
3074,9404;0,0321502
3075,9048;0,0322859
3076,8689;0,0324082
3077,8333;0,032521
3078,7974;0,0326308
3079,7617;0,0327439
3080,7258;0,0328635
3081,6902;0,032989
3082,6543;0,0331177
3083,6187;0,0332478
3084,5828;0,0333795
3085,5471;0,0335142
3086,5112;0,0336524
3087,4756;0,0337922
3088,4397;0,0339307
3089,4041;0,034065
3090,3682;0,0341946
3091,3325;0,0343223
3092,2966;0,0344527
3093,2610;0,0345914
3094,2251;0,0347418
3095,1895;0,0349036
3096,1536;0,0350712
3097,1179;0,0352351
3098,0820;0,0353856
3099,0464;0,0355176
3100,0105;0,0356346
3100,9749;0,0357476
3101,9390;0,0358705
3102,9033;0,0360122
3103,8674;0,0361722
3104,8318;0,036342
3105,7959;0,0365106
3106,7603;0,0366717
3107,7244;0,0368272
3108,6887;0,0369843
3109,6528;0,0371505
3110,6172;0,0373278
3111,5813;0,0375121
3112,5457;0,037696
3113,5098;0,0378739
3114,4741;0,0380442
3115,4382;0,0382089
3116,4026;0,0383707
3117,3667;0,0385302
3118,3311;0,0386861
3119,2952;0,0388376
3120,2595;0,0389867
3121,2236;0,0391386
3122,1880;0,0392998
3123,1521;0,0394743
3124,1165;0,0396621
3125,0806;0,0398588
3126,0449;0,0400588
3127,0090;0,0402581
3127,9734;0,040456
3128,9375;0,0406544
3129,9019;0,0408547
3130,8660;0,0410565
3131,8303;0,0412569
3132,7944;0,0414526
3133,7588;0,0416419
3134,7229;0,0418263
3135,6873;0,0420096
3136,6514;0,0421961
3137,6157;0,0423885
3138,5798;0,0425872
3139,5442;0,0427912
3140,5083;0,0429994
3141,4727;0,0432121
3142,4368;0,0434311
3143,4011;0,0436579
3144,3652;0,043892
3145,3296;0,0441297
3146,2937;0,0443641
3147,2581;0,0445873
3148,2222;0,0447937
3149,1865;0,0449821
3150,1506;0,0451575
3151,1150;0,045329
3152,0791;0,0455065
3153,0435;0,0456973
3154,0076;0,0459035
3154,9719;0,0461232
3155,9360;0,046352
3156,9004;0,0465857
3157,8645;0,0468213
3158,8289;0,0470576
3159,7930;0,0472939
3160,7573;0,0475293
3161,7214;0,0477627
3162,6858;0,0479926
3163,6499;0,0482175
3164,6143;0,0484365
3165,5784;0,0486501
3166,5427;0,0488608
3167,5068;0,0490729
3168,4712;0,0492915
3169,4353;0,0494933
3170,3997;0,0497355
3171,3638;0,0499879
3172,3281;0,0502448
3173,2922;0,0504983
3174,2566;0,0507416
3175,2207;0,0509705
3176,1851;0,0511849
3177,1492;0,0513885
3178,1135;0,0515868
3179,0776;0,0517851
3180,0420;0,0519862
3181,0061;0,0521903
3181,9705;0,0523967
3182,9346;0,0526054
3183,8989;0,0528176
3184,8630;0,0530345
3185,8274;0,053255
3186,7915;0,0534752
3187,7559;0,0536905
3188,7200;0,0538989
3189,6843;0,0541039
3190,6484;0,0543125
3191,6128;0,0545308
3192,5769;0,0547583
3193,5413;0,0549866
3194,5054;0,0552038
3195,4697;0,0554016
3196,4338;0,0555815
3197,3982;0,0557539
3198,3623;0,0559332
3199,3267;0,0561291
3200,2908;0,0563427
3201,2551;0,0565672
3202,2192;0,056793
3203,1836;0,0570123
3204,1477;0,0572221
3205,1121;0,057423
3206,0762;0,057617
3207,0405;0,0578064
3208,0046;0,0579922
3208,9690;0,0581741
3209,9331;0,0583516
3210,8975;0,0585245
3211,8616;0,0586947
3212,8259;0,0588666
3213,7900;0,0590457
3214,7544;0,0592366
3215,7185;0,0594393
3216,6829;0,059649
3217,6470;0,0598581
3218,6113;0,0600604
3219,5754;0,060254
3220,5398;0,0604414
3221,5039;0,0606268
3222,4683;0,0608127
3223,4324;0,0609993
3224,3967;0,0611858
3225,3608;0,0613725
3226,3252;0,0615614
3227,2893;0,0617538
3228,2537;0,0619485
3229,2178;0,0621409
3230,1821;0,0623267
3231,1462;0,0625049
3232,1106;0,0626804
3233,0747;0,062861
3234,0391;0,0630537
3235,0032;0,0632604
3235,9675;0,063478
3236,9316;0,0637011
3237,8960;0,0639262
3238,8601;0,0641525
3239,8245;0,0643808
3240,7886;0,0646103
3241,7529;0,0648371
3242,7170;0,0650557
3243,6814;0,0652622
3244,6455;0,0654586
3245,6099;0,0656525
3246,5740;0,0658545
3247,5383;0,0660734
3248,5024;0,0663114
3249,4668;0,066564
3250,4309;0,0668227
3251,3953;0,0670794
3252,3594;0,0673302
3253,3237;0,0675768
3254,2878;0,0678231
3255,2522;0,0680726
3256,2163;0,068325
3257,1807;0,0685769
3258,1448;0,0688247
3259,1091;0,0690672
3260,0732;0,0693069
3261,0376;0,069548
3262,0017;0,0697935
3262,9661;0,0700429
3263,9302;0,0702922
3264,8945;0,070536
3265,8586;0,0707694
3266,8230;0,0709893
3267,7871;0,0711945
3268,7515;0,0713847
3269,7156;0,0715596
3270,6799;0,0717191
3271,6440;0,0718632
3272,6084;0,0719923
3273,5725;0,0721081
3274,5369;0,0722133
3275,5010;0,0723118
3276,4653;0,0724079
3277,4294;0,0725046
3278,3938;0,0726025
3279,3579;0,0726988
3280,3223;0,0727884
3281,2864;0,0728663
3282,2507;0,0729299
3283,2148;0,0729812
3284,1792;0,0730254
3285,1433;0,0730678
3286,1077;0,0731105
3287,0718;0,0731498
3288,0361;0,0731779
3289,0002;0,0731869
3289,9646;0,0731734
3290,9287;0,0731402
3291,8931;0,0730951
3292,8572;0,0730468
3293,8215;0,0730015
3294,7856;0,072962
3295,7500;0,0729289
3296,7141;0,0729018
3297,6785;0,0728792
3298,6426;0,0728577
3299,6069;0,0728313
3300,5710;0,0727937
3301,5354;0,0727411
3302,4995;0,0726748
3303,4639;0,0726008
3304,4280;0,0725265
3305,3923;0,0724574
3306,3564;0,0723952
3307,3208;0,072339
3308,2849;0,0722871
3309,2493;0,0722385
3310,2134;0,072194
3311,1777;0,0721552
3312,1418;0,072125
3313,1062;0,0721068
3314,0703;0,0721039
3315,0347;0,0721188
3315,9988;0,0721516
3316,9631;0,0722002
3317,9272;0,0722606
3318,8916;0,0723275
3319,8557;0,0723953
3320,8201;0,0724581
3321,7842;0,0725112
3322,7485;0,0725527
3323,7126;0,0725849
3324,6770;0,0726146
3325,6411;0,0726495
3326,6055;0,0726955
3327,5696;0,0727541
3328,5339;0,0728224
3329,4980;0,0728946
3330,4624;0,0729633
3331,4265;0,0730194
3332,3909;0,0730529
3333,3550;0,0730541
3334,3193;0,0730181
3335,2834;0,0729479
3336,2478;0,0728543
3337,2119;0,0727506
3338,1763;0,0726456
3339,1404;0,0725395
3340,1047;0,0724254
3341,0688;0,0722958
3342,0332;0,0721478
3342,9973;0,0719849
3343,9617;0,0718137
3344,9258;0,0716387
3345,8901;0,0714599
3346,8542;0,0712745
3347,8186;0,0710803
3348,7827;0,0708783
3349,7471;0,0706712
3350,7112;0,0704616
3351,6755;0,0702503
3352,6396;0,0700376
3353,6040;0,0698254
3354,5681;0,0696186
3355,5325;0,0694227
3356,4966;0,06924
3357,4609;0,0690676
3358,4250;0,0688979
3359,3894;0,0687228
3360,3535;0,0685381
3361,3179;0,0683443
3362,2820;0,0681438
3363,2463;0,0679375
3364,2104;0,0677233
3365,1748;0,0674981
3366,1389;0,0672621
3367,1033;0,0670208
3368,0674;0,0667841
3369,0317;0,0665612
3369,9958;0,0663562
3370,9602;0,0661663
3371,9243;0,0659837
3372,8887;0,0657999
3373,8528;0,0656085
3374,8171;0,0654075
3375,7813;0,0651984
3376,7456;0,0649859
3377,7097;0,0647754
3378,6741;0,0645708
3379,6382;0,064373
3380,6025;0,0641784
3381,5667;0,0639818
3382,5310;0,0637801
3383,4951;0,063577
3384,4595;0,0633822
3385,4236;0,0632068
3386,3879;0,0630542
3387,3521;0,0629155
3388,3164;0,0627723
3389,2805;0,0626054
3390,2449;0,0624059
3391,2090;0,0621806
3392,1733;0,0619486
3393,1375;0,0617307
3394,1018;0,061538
3395,0659;0,0613684
3396,0303;0,0612098
3396,9944;0,0610487
3397,9587;0,0608766
3398,9229;0,0606912
3399,8872;0,0604944
3400,8513;0,060289
3401,8157;0,0600777
3402,7798;0,0598634
3403,7441;0,0596497
3404,7083;0,0594401
3405,6726;0,0592359
3406,6367;0,0590346
3407,6011;0,0588299
3408,5652;0,058614
3409,5295;0,0583816
3410,4937;0,0581333
3411,4580;0,0578771
3412,4221;0,0576262
3413,3865;0,0573933
3414,3506;0,0571832
3415,3149;0,0569888
3416,2791;0,0567924
3417,2434;0,0565731
3418,2075;0,0563162
3419,1719;0,0560218
3420,1360;0,0557054
3421,1003;0,0553917
3422,0645;0,0551027
3423,0288;0,0548484
3423,9929;0,0546245
3424,9573;0,0544173
3425,9214;0,0542107
3426,8857;0,053992
3427,8499;0,0537551
3428,8142;0,0535005
3429,7783;0,0532327
3430,7427;0,0529574
3431,7068;0,0526794
3432,6711;0,0524019
3433,6353;0,0521275
3434,5996;0,051859
3435,5637;0,0515988
3436,5281;0,0513489
3437,4922;0,0511098
3438,4565;0,0508813
3439,4207;0,0506629
3440,3850;0,0504525
3441,3491;0,0502432
3442,3135;0,0500218
3443,2776;0,0497711
3444,2419;0,0494775
3445,2061;0,0491409
3446,1704;0,0487803
3447,1345;0,0484278
3448,0989;0,0481123
3449,0630;0,0478442
3450,0273;0,0476119
3450,9915;0,0473919
3451,9558;0,0471641
3452,9199;0,046921
3453,8843;0,0466673
3454,8484;0,0464121
3455,8127;0,04616
3456,7769;0,0459076
3457,7412;0,0456478
3458,7053;0,0453764
3459,6697;0,0450967
3460,6338;0,0448175
3461,5981;0,0445475
3462,5623;0,0442883
3463,5266;0,0440329
3464,4907;0,0437687
3465,4551;0,0434858
3466,4192;0,0431835
3467,3835;0,0428718
3468,3477;0,0425671
3469,3120;0,0422827
3470,2761;0,0420205
3471,2405;0,0417709
3472,2046;0,0415198
3473,1689;0,0412595
3474,1331;0,0409945
3475,0974;0,0407387
3476,0615;0,0405034
3477,0259;0,0402869
3477,9900;0,040073
3478,9543;0,0398401
3479,9185;0,0395757
3480,8828;0,0392849
3481,8469;0,038988
3482,8113;0,0387059
3483,7754;0,0384444
3484,7397;0,0381909
3485,7039;0,037924
3486,6682;0,03763
3487,6323;0,0373137
3488,5967;0,0369981
3489,5608;0,0367102
3490,5251;0,0364635
3491,4893;0,0362495
3492,4536;0,0360433
3493,4177;0,0358203
3494,3821;0,0355723
3495,3462;0,0353145
3496,3105;0,0350749
3497,2747;0,0348719
3498,2390;0,034697
3499,2031;0,0345153
3500,1675;0,0342842
3501,1316;0,0339805
3502,0959;0,0336204
3503,0601;0,0332546
3504,0244;0,0329368
3504,9885;0,032687
3505,9529;0,0324818
3506,9170;0,0322744
3507,8813;0,032025
3508,8455;0,0317234
3509,8098;0,0313915
3510,7739;0,0310655
3511,7383;0,0307708
3512,7024;0,0305104
3513,6667;0,0302725
3514,6309;0,0300472
3515,5952;0,029837
3516,5593;0,0296529
3517,5237;0,0295011
3518,4878;0,0293717
3519,4521;0,0292388
3520,4163;0,0290729
3521,3806;0,0288562
3522,3447;0,0285914
3523,3091;0,0282971
3524,2732;0,0279927
3525,2375;0,0276854
3526,2017;0,0273708
3527,1660;0,027046
3528,1301;0,0267226
3529,0945;0,026425
3530,0586;0,026174
3531,0229;0,0259687
3531,9871;0,0257831
3532,9514;0,0255797
3533,9155;0,0253306
3534,8799;0,0250344
3535,8440;0,0247211
3536,8083;0,0244397
3537,7725;0,0242333
3538,7368;0,0241174
3539,7009;0,0240721
3540,6653;0,0240496
3541,6294;0,0239878
3542,5938;0,0238274
3543,5579;0,0235346
3544,5222;0,0231254
3545,4863;0,0226689
3546,4507;0,0222534
3547,4148;0,0219315
3548,3792;0,0216935
3549,3433;0,0214857
3550,3076;0,0212514
3551,2717;0,0209658
3552,2361;0,0206506
3553,2002;0,0203569
3554,1646;0,0201273
3555,1287;0,0199665
3556,0930;0,0198439
3557,0571;0,0197215
3558,0215;0,0195839
3558,9856;0,01945
3559,9500;0,0193587
3560,9141;0,019334
3561,8784;0,0193533
3562,8425;0,0193403
3563,8069;0,0191829
3564,7710;0,0187761
3565,7354;0,0180988
3566,6995;0,0172856
3567,6638;0,0165782
3568,6279;0,0161432
3569,5923;0,0159695
3570,5564;0,0159349
3571,5208;0,0159137
3572,4849;0,0158324
3573,4492;0,0156769
3574,4133;0,0154742
3575,3777;0,0152622
3576,3418;0,0150641
3577,3062;0,0148841
3578,2703;0,0147244
3579,2346;0,0146011
3580,1987;0,01454
3581,1631;0,0145529
3582,1272;0,014613
3583,0916;0,0146505
3584,0557;0,0145689
3585,0200;0,0142816
3585,9841;0,0137745
3586,9485;0,0131659
3587,9126;0,0126683
3588,8770;0,0124297
3589,8411;0,0124305
3590,8054;0,0125367
3591,7695;0,0126022
3592,7339;0,012533
3593,6980;0,0123141
3594,6624;0,012006
3595,6265;0,0116985
3596,5908;0,0114442
3597,5549;0,0112304
3598,5193;0,0110127
3599,4834;0,0107699
3600,4478;0,0105312
3601,4119;0,0103517
3602,3762;0,0102596
3603,3403;0,0102261
3604,3047;0,0101788
3605,2688;0,0100398
3606,2332;0,00976521
3607,1973;0,00937356
3608,1616;0,00894068
3609,1257;0,00855355
3610,0901;0,00825952
3611,0542;0,00805868
3612,0186;0,007932
3612,9827;0,00786338
3613,9470;0,00783537
3614,9111;0,00781177
3615,8755;0,00773247
3616,8396;0,00753462
3617,8040;0,00719863
3618,7681;0,00679591
3619,7324;0,00648032
3620,6965;0,00639074
3621,6609;0,00655146
3622,6250;0,00687199
3623,5894;0,00721202
3624,5535;0,0074285
3625,5178;0,00738719
3626,4819;0,0069767
3627,4463;0,00618303
3628,4104;0,00520764
3629,3748;0,00440903
3630,3389;0,00399537
3631,3032;0,0038853
3632,2673;0,00387588
3633,2317;0,00381528
3634,1958;0,00365295
3635,1602;0,00341758
3636,1243;0,00316859
3637,0886;0,00294971
3638,0527;0,00277163
3639,0171;0,00262914
3639,9812;0,00252874
3640,9456;0,00249728
3641,9097;0,00256342
3642,8740;0,00272954
3643,8381;0,00295658
3644,8025;0,00316377
3645,7666;0,00322782
3646,7310;0,00298398
3647,6951;0,00229929
3648,6594;0,00128688
3649,6235;0,000374531
3650,5879;-0,00010045
3651,5520;-0,000181116
3652,5164;-0,000104773
3653,4805;-7,92899E-05
3654,4448;-0,000208265
3655,4089;-0,000481574
3656,3733;-0,000796131
3657,3374;-0,00102906
3658,3018;-0,00112975
3659,2659;-0,0011397
3660,2302;-0,00112989
3661,1943;-0,0011323
3662,1587;-0,00112056
3663,1228;-0,00104376
3664,0872;-0,00088146
3665,0513;-0,000672541
3666,0156;-0,000500604
3666,9797;-0,000452337
3667,9441;-0,000566212
3668,9082;-0,000786268
3669,8726;-0,000978562
3670,8367;-0,00104732
3671,8010;-0,00103084
3672,7651;-0,00106618
3673,7295;-0,0012871
3674,6936;-0,00172331
3675,6580;-0,00223738
3676,6221;-0,00260811
3677,5864;-0,00272989
3678,5505;-0,00266525
3679,5149;-0,0025244
3680,4790;-0,00236598
3681,4434;-0,00218663
3682,4075;-0,00196073
3683,3718;-0,001685
3684,3359;-0,00139784
3685,3003;-0,00116881
3686,2644;-0,00107461
3687,2288;-0,00116989
3688,1929;-0,0014439
3689,1572;-0,00178194
3690,1213;-0,00201767
3691,0857;-0,00206594
3692,0498;-0,00196319
3693,0142;-0,00179033
3693,9783;-0,00160505
3694,9426;-0,00143066
3695,9067;-0,00127487
3696,8711;-0,00115051
3697,8352;-0,00108332
3698,7996;-0,00110297
3699,7637;-0,00122081
3700,7280;-0,00140533
3701,6921;-0,00157797
3702,6565;-0,00164929
3703,6206;-0,00157415
3704,5850;-0,00137439
3705,5491;-0,00111819
3706,5134;-0,000892398
3707,4775;-0,000793486
3708,4419;-0,000927291
3709,4060;-0,00137681
3710,3704;-0,00210511
3711,3345;-0,00288357
3712,2988;-0,00342181
3713,2629;-0,00358962
3714,2273;-0,00344989
3715,1914;-0,00314085
3716,1558;-0,00278278
3717,1199;-0,00244894
3718,0842;-0,00216861
3719,0483;-0,00194036
3720,0127;-0,00175043
3720,9768;-0,00159231
3721,9412;-0,00147678
3722,9053;-0,00142207
3723,8696;-0,00142933
3724,8337;-0,0014649
3725,7981;-0,00147188
3726,7622;-0,00140668
3727,7266;-0,00126679
3728,6907;-0,00108782
3729,6550;-0,000923305
3730,6191;-0,000831002
3731,5835;-0,000872824
3732,5476;-0,00111386
3733,5120;-0,00158782
3734,4761;-0,00221715
3735,4404;-0,00278405
3736,4045;-0,00306783
3737,3689;-0,00301464
3738,3330;-0,00273756
3739,2974;-0,00241068
3740,2615;-0,00219169
3741,2258;-0,00219186
3742,1899;-0,00244965
3743,1543;-0,0028807
3744,1184;-0,00326077
3745,0828;-0,00336482
3746,0469;-0,00317269
3747,0112;-0,00287399
3747,9753;-0,00271592
3748,9397;-0,00288143
3749,9038;-0,00338851
3750,8682;-0,00400682
3751,8323;-0,00439119
3752,7966;-0,00439627
3753,7607;-0,0041453
3754,7251;-0,00384683
3755,6892;-0,00365644
3756,6536;-0,00364008
3757,6177;-0,00377161
3758,5820;-0,00394881
3759,5461;-0,00405221
3760,5105;-0,00402227
3761,4746;-0,00388345
3762,4390;-0,00370506
3763,4031;-0,00355377
3764,3674;-0,00347095
3765,3315;-0,00347177
3766,2959;-0,00355435
3767,2600;-0,00370828
3768,2244;-0,00391409
3769,1885;-0,00413348
3770,1528;-0,00430651
3771,1169;-0,00437345
3772,0813;-0,00431044
3773,0454;-0,0041458
3774,0098;-0,00394482
3774,9739;-0,00378099
3775,9382;-0,00371083
3776,9023;-0,00375397
3777,8667;-0,00387938
3778,8308;-0,00401326
3779,7952;-0,00408255
3780,7593;-0,00406427
3781,7236;-0,00399321
3782,6877;-0,00392936
3783,6521;-0,00392069
3784,6162;-0,003982
3785,5806;-0,00409194
3786,5447;-0,00420608
3787,5090;-0,00427826
3788,4731;-0,00427906
3789,4375;-0,00420389
3790,4016;-0,00407033
3791,3660;-0,00390758
3792,3301;-0,00374241
3793,2944;-0,00358713
3794,2585;-0,00343661
3795,2229;-0,00327932
3796,1870;-0,00311856
3797,1514;-0,00298829
3798,1155;-0,00294736
3799,0798;-0,00304846
3800,0439;-0,00329121
3801,0083;-0,00359385
3801,9724;-0,00383884
3802,9368;-0,00397486
3803,9009;-0,00405677
3804,8652;-0,0041809
3805,8293;-0,00438958
3806,7937;-0,00461654
3807,7578;-0,00472096
3808,7222;-0,00460422
3809,6863;-0,00429384
3810,6506;-0,00391038
3811,6147;-0,00358188
3812,5791;-0,00338594
3813,5432;-0,00332679
3814,5076;-0,00333714
3815,4717;-0,0033207
3816,4360;-0,00323447
3817,4001;-0,00313965
3818,3645;-0,00316107
3819,3286;-0,00338908
3820,2930;-0,00378857
3821,2571;-0,00419154
3822,2214;-0,00442122
3823,1855;-0,00442899
3824,1499;-0,00429159
3825,1140;-0,00411697
3826,0784;-0,00397456
3827,0425;-0,00387899
3828,0068;-0,00380689
3828,9709;-0,00372504
3829,9353;-0,00361254
3830,8994;-0,00346747
3831,8638;-0,00330271
3832,8279;-0,00314118
3833,7922;-0,00301573
3834,7563;-0,00296873
3835,7207;-0,00304297
3836,6848;-0,00325788
3837,6492;-0,00358015
3838,6133;-0,00392308
3839,5776;-0,00419866
3840,5417;-0,00437533
3841,5061;-0,00447594
3842,4702;-0,00452797
3843,4346;-0,00452311
3844,3987;-0,00441849
3845,3630;-0,00417276
3846,3271;-0,00378496
3847,2915;-0,0033073
3848,2556;-0,00283315
3849,2200;-0,00248344
3850,1841;-0,00240542
3851,1484;-0,00275971
3852,1125;-0,00360522
3853,0769;-0,00466251
3854,0410;-0,00538044
3855,0054;-0,00548647
3855,9695;-0,00515133
3856,9338;-0,00465923
3857,8979;-0,00419909
3858,8623;-0,00385574
3859,8264;-0,00365194
3860,7908;-0,00357735
3861,7549;-0,0035975
3862,7192;-0,00365504
3863,6833;-0,00368545
3864,6477;-0,00365232
3865,6118;-0,00357062
3866,5762;-0,00349381
3867,5403;-0,0034826
3868,5046;-0,00357803
3869,4688;-0,00378261
3870,4331;-0,00405171
3871,3972;-0,00430692
3872,3616;-0,00447258
3873,3257;-0,00451047
3874,2900;-0,00442915
3875,2542;-0,00427099
3876,2185;-0,00409139
3877,1826;-0,00393976
3878,1470;-0,0038451
3879,1111;-0,00380931
3880,0754;-0,00381442
3881,0396;-0,00384478
3882,0039;-0,00390626
3882,9680;-0,00401678
3883,9324;-0,00417124
3884,8965;-0,0043189
3885,8608;-0,00438903
3886,8250;-0,00435074
3887,7893;-0,00424606
3888,7534;-0,00416298
3889,7178;-0,00417427
3890,6819;-0,00428035
3891,6462;-0,00439253
3892,6104;-0,00439205
3893,5747;-0,00422796
3894,5388;-0,0039492
3895,5032;-0,00365276
3896,4673;-0,00342294
3897,4316;-0,00330476
3898,3958;-0,00330476
3899,3601;-0,00340625
3900,3242;-0,00359098
3901,2886;-0,0038503
3902,2527;-0,00416964
3903,2170;-0,00450134
3904,1812;-0,00476803
3905,1455;-0,00490829
3906,1096;-0,00491684
3907,0740;-0,00483732
3908,0381;-0,0047246
3909,0024;-0,00461388
3909,9666;-0,00451186
3910,9309;-0,00440716
3911,8950;-0,00429025
3912,8594;-0,00416995
3913,8235;-0,00407579
3914,7878;-0,00404391
3915,7520;-0,00409191
3916,7163;-0,00419695
3917,6804;-0,00429872
3918,6448;-0,00433705
3919,6089;-0,0042952
3920,5732;-0,00420888
3921,5374;-0,00413791
3922,5017;-0,00412702
3923,4658;-0,00417777
3924,4302;-0,00424685
3925,3943;-0,00427713
3926,3586;-0,00424075
3927,3228;-0,00415836
3928,2871;-0,00408352
3929,2512;-0,00407055
3930,2156;-0,00414444
3931,1797;-0,00428442
3932,1440;-0,0044334
3933,1082;-0,00453283
3934,0725;-0,00455564
3935,0366;-0,00451125
3936,0010;-0,00442837
3936,9651;-0,00433721
3937,9294;-0,00426142
3938,8936;-0,00421668
3939,8579;-0,00420955
3940,8220;-0,00423427
3941,7864;-0,00427145
3942,7505;-0,00429547
3943,7148;-0,00428989
3944,6790;-0,00425965
3945,6433;-0,00422857
3946,6074;-0,00422438
3947,5718;-0,00426145
3948,5359;-0,00433123
3949,5002;-0,004407
3950,4644;-0,00446147
3951,4287;-0,0044837
3952,3928;-0,00448168
3953,3572;-0,00447139
3954,3213;-0,00446414
3955,2856;-0,00446161
3956,2498;-0,00445961
3957,2141;-0,00445571
3958,1782;-0,0044534
3959,1426;-0,0044597
3960,1067;-0,00447845
3961,0710;-0,00450534
3962,0352;-0,00452902
3962,9995;-0,00453797
3963,9636;-0,00452774
3964,9280;-0,0045031
3965,8921;-0,0044743
3966,8564;-0,00445085
3967,8206;-0,0044373
3968,7849;-0,00443314
3969,7490;-0,00443595
3970,7134;-0,00444472
3971,6775;-0,00446026
3972,6418;-0,00448266
3973,6060;-0,00450832
3974,5703;-0,00452973
3975,5344;-0,00453919
3976,4988;-0,00453388
3977,4629;-0,0045183
3978,4272;-0,00450232
3979,3914;-0,0044958
3980,3557;-0,00450349
3981,3198;-0,00452297
3982,2842;-0,00454669
3983,2483;-0,00456631
3984,2126;-0,00457661
3985,1768;-0,00457674
3986,1411;-0,00456863
3987,1052;-0,00455469
3988,0696;-0,00453653
3989,0337;-0,00451549
3989,9980;-0,00449427
3990,9622;-0,0044777
3991,9265;-0,00447154
3992,8906;-0,00447949
3993,8550;-0,00450053
3994,8191;-0,0045284
3995,7834;-0,0045544
3996,7476;-0,00457177
3997,7119;-0,00457879
3998,6760;-0,00457842
3999,6404;-0,00457486
4000,6045;-0,00450453

##### Extended Information
[Comments]
Sample name
Comment
Username
Division
Organization;UNIVERSIDAD INDUSTRIAL DE SANTANDER

[Detailed Information]
Creation date;5/02/2025 11:18 a.m.

Data array type;Linear data array
Horizontal axis;Wavenumber [cm-1]
Vertical axis;Abs
Start;399,193 cm-1
End;4000,6 cm-1
Data interval;0,964233 cm-1
Data points;3736    

[Measurement Information]
Model name;FT/IR-4X1typeA
Serial No.;A035162111

Accessory;ATR PRO 4X
Accessory S/N;A021162126
Incident angle;45 deg

Measurement date;5/02/2025 11:18 a.m.

Light source;Standard
Detector;TGS
Accumulation;Auto (78)
Resolution;4 cm-1
Zero filling;On
Apodization;Cosine
Gain;Auto (8)
Aperture;Auto (7 mm)
Scan speed;Auto (2 mm/sec)
Filter;Auto (12800 Hz)

