TITLE;
DATA TYPE;INFRARED SPECTRUM
ORIGIN;JASCO
OWNER;
DATE;25/02/04
TIME;12:36:35
SPECTROMETER/DATA SYSTEM;
LOCALE;9226
RESOLUTION;
DELTAX;0,964233
XUNITS;1/CM
YUNITS;ABSORBANCE
FIRSTX;  399,1927
LASTX; 4000,6047
NPOINTS;    3736
FIRSTY;     0,14695
MAXY;     0,21541
MINY;     0,01076
XYDATA
399,1927;0,146948
400,1569;0,147765
401,1211;0,148511
402,0854;0,149098
403,0496;0,149533
404,0138;0,149844
404,9781;0,150052
405,9423;0,150188
406,9065;0,150294
407,8708;0,150416
408,8350;0,15059
409,7992;0,150837
410,7635;0,151169
411,7277;0,151583
412,6919;0,152047
413,6562;0,152497
414,6204;0,152869
415,5846;0,153131
416,5489;0,153348
417,5131;0,153711
418,4773;0,154478
419,4416;0,155713
420,4058;0,157147
421,3700;0,158444
422,3343;0,159467
423,2985;0,160247
424,2627;0,16086
425,2270;0,161349
426,1912;0,161724
427,1554;0,161996
428,1197;0,162227
429,0839;0,16253
430,0481;0,16302
431,0124;0,163738
431,9766;0,164604
432,9408;0,165441
433,9051;0,166062
434,8693;0,166367
435,8335;0,166382
436,7978;0,166211
437,7620;0,165957
438,7262;0,16567
439,6905;0,165363
440,6547;0,165061
441,6189;0,164828
442,5832;0,16475
443,5474;0,164869
444,5116;0,165136
445,4759;0,165422
446,4401;0,165591
447,4043;0,165557
448,3686;0,165298
449,3328;0,164855
450,2970;0,164313
451,2613;0,163786
452,2255;0,16337
453,1897;0,163103
454,1540;0,162938
455,1182;0,16277
456,0824;0,162499
457,0467;0,162118
458,0109;0,161752
458,9751;0,161589
459,9394;0,161732
460,9036;0,162136
461,8678;0,162664
462,8321;0,163171
463,7963;0,163556
464,7605;0,163763
465,7248;0,16376
466,6890;0,163534
467,6532;0,163094
468,6175;0,162491
469,5817;0,161825
470,5459;0,161235
471,5102;0,160861
472,4744;0,160777
473,4386;0,160962
474,4029;0,161324
475,3671;0,161763
476,3313;0,162208
477,2956;0,162612
478,2598;0,162933
479,2240;0,16314
480,1883;0,163234
481,1525;0,163262
482,1167;0,163302
483,0810;0,163428
484,0452;0,163665
485,0094;0,163984
485,9737;0,164324
486,9379;0,164635
487,9021;0,164898
488,8664;0,165121
489,8306;0,165326
490,7948;0,16554
491,7591;0,165783
492,7233;0,166067
493,6875;0,166373
494,6518;0,16666
495,6160;0,166877
496,5802;0,166995
497,5445;0,16703
498,5087;0,167046
499,4729;0,167128
500,4372;0,167338
501,4014;0,16768
502,3656;0,168092
503,3299;0,168488
504,2941;0,168819
505,2583;0,169098
506,2226;0,169377
507,1868;0,169706
508,1510;0,170087
509,1153;0,170479
510,0795;0,170833
511,0437;0,17114
512,0080;0,171449
512,9722;0,171835
513,9365;0,172352
514,9007;0,172987
515,8649;0,173643
516,8292;0,174178
517,7934;0,174484
518,7576;0,174551
519,7219;0,174468
520,6861;0,17435
521,6503;0,174259
522,6146;0,174189
523,5788;0,174102
524,5430;0,173976
525,5073;0,173837
526,4715;0,173748
527,4357;0,17375
528,4000;0,173828
529,3642;0,173907
530,3284;0,173906
531,2927;0,173784
532,2569;0,173556
533,2211;0,173279
534,1854;0,173009
535,1496;0,172765
536,1138;0,172524
537,0781;0,172252
538,0423;0,17195
539,0065;0,171675
539,9708;0,17152
540,9350;0,171563
541,8992;0,171824
542,8635;0,172252
543,8277;0,172749
544,7919;0,17322
545,7562;0,17362
546,7204;0,173967
547,6846;0,174313
548,6489;0,174706
549,6131;0,175154
550,5773;0,175627
551,5416;0,176093
552,5058;0,176542
553,4700;0,176996
554,4343;0,177475
555,3985;0,17796
556,3627;0,17836
557,3270;0,178525
558,2912;0,178293
559,2554;0,177566
560,2197;0,176352
561,1839;0,174777
562,1481;0,173042
563,1124;0,171351
564,0766;0,16985
565,0408;0,168594
566,0051;0,16757
566,9693;0,166737
567,9335;0,166062
568,8978;0,165535
569,8620;0,165144
570,8262;0,164858
571,7905;0,16462
572,7547;0,164368
573,7189;0,164063
574,6832;0,16371
575,6474;0,163351
576,6116;0,16304
577,5759;0,162807
578,5401;0,162648
579,5043;0,16253
580,4686;0,162417
581,4328;0,162293
582,3970;0,162164
583,3613;0,162052
584,3255;0,161979
585,2897;0,161955
586,2540;0,161971
587,2182;0,162003
588,1824;0,162019
589,1467;0,161993
590,1109;0,161911
591,0751;0,161778
592,0394;0,16161
593,0036;0,161428
593,9678;0,161239
594,9321;0,161035
595,8963;0,160799
596,8605;0,160512
597,8248;0,160165
598,7890;0,159762
599,7532;0,159317
600,7175;0,158852
601,6817;0,158392
602,6459;0,157964
603,6102;0,157593
604,5744;0,15729
605,5386;0,157042
606,5029;0,15681
607,4671;0,156537
608,4313;0,156171
609,3956;0,155688
610,3598;0,155104
611,3240;0,15447
612,2883;0,153841
613,2525;0,153256
614,2167;0,15271
615,1810;0,15216
616,1452;0,151541
617,1094;0,150791
618,0737;0,149883
619,0379;0,148834
620,0021;0,147691
620,9664;0,146513
621,9306;0,145352
622,8948;0,144256
623,8591;0,143267
624,8233;0,142415
625,7875;0,141691
626,7518;0,141065
627,7160;0,14049
628,6802;0,139921
629,6445;0,139332
630,6087;0,138718
631,5729;0,138085
632,5372;0,137438
633,5014;0,136777
634,4656;0,13611
635,4299;0,135457
636,3941;0,134848
637,3583;0,134311
638,3226;0,133853
639,2868;0,13345
640,2510;0,133062
641,2153;0,132647
642,1795;0,132181
643,1437;0,13167
644,1080;0,131137
645,0722;0,130616
646,0364;0,130134
647,0007;0,129714
647,9649;0,129368
648,9291;0,129105
649,8934;0,128922
650,8576;0,128812
651,8218;0,128766
652,7861;0,128785
653,7503;0,128889
654,7145;0,129107
655,6788;0,129463
656,6430;0,129949
657,6072;0,130518
658,5715;0,131081
659,5357;0,131538
660,4999;0,131809
661,4642;0,131889
662,4284;0,131848
663,3926;0,131791
664,3569;0,13178
665,3211;0,13178
666,2853;0,131608
667,2496;0,130956
668,2138;0,12963
669,1780;0,127901
670,1423;0,126246
671,1065;0,124832
672,0707;0,123549
673,0350;0,122246
673,9992;0,120822
674,9634;0,119262
675,9277;0,117634
676,8919;0,116044
677,8561;0,114565
678,8204;0,113222
679,7846;0,112018
680,7488;0,110968
681,7131;0,11009
682,6773;0,109381
683,6415;0,108806
684,6058;0,108315
685,5700;0,107872
686,5342;0,107465
687,4985;0,107097
688,4627;0,106772
689,4269;0,106483
690,3912;0,106215
691,3554;0,105954
692,3196;0,10569
693,2839;0,105425
694,2481;0,105164
695,2123;0,104916
696,1766;0,104681
697,1408;0,104452
698,1050;0,10421
699,0693;0,103935
700,0335;0,103618
700,9977;0,103257
701,9620;0,102861
702,9262;0,102435
703,8904;0,101987
704,8547;0,101515
705,8189;0,101024
706,7831;0,10052
707,7474;0,100008
708,7116;0,0994847
709,6758;0,0989345
710,6401;0,0983326
711,6043;0,0976623
712,5685;0,0969297
713,5328;0,0961687
714,4970;0,0954259
715,4612;0,0948362
716,4255;0,0941738
717,3897;0,0935136
718,3539;0,0928011
719,3182;0,0919967
720,2824;0,0911003
721,2466;0,0901523
722,2109;0,0892083
723,1751;0,088307
724,1393;0,0874557
725,1036;0,0866382
726,0678;0,0858327
727,0320;0,0850248
727,9963;0,0842125
728,9605;0,0834033
729,9247;0,0826104
730,8890;0,0818513
731,8532;0,0811465
732,8174;0,0805142
733,7817;0,0799618
734,7459;0,0794796
735,7101;0,0790432
736,6744;0,0786234
737,6386;0,0781989
738,6028;0,077764
739,5671;0,0773264
740,5313;0,0769001
741,4955;0,0764956
742,4598;0,0761141
743,4240;0,0757479
744,3882;0,0753833
745,3525;0,075008
746,3167;0,0746157
747,2809;0,0742086
748,2452;0,073795
749,2094;0,0733838
750,1736;0,0729791
751,1379;0,0725786
752,1021;0,0721763
753,0663;0,0717678
754,0306;0,0713536
754,9948;0,0709397
755,9590;0,0705345
756,9233;0,0701459
757,8875;0,069779
758,8517;0,0694351
759,8160;0,0691118
760,7802;0,068803
761,7444;0,068501
762,7087;0,0681995
763,6729;0,067897
764,6371;0,067599
765,6014;0,0673151
766,5656;0,0670535
767,5298;0,0668155
768,4941;0,0665934
769,4583;0,0663741
770,4225;0,066145
771,3868;0,0658997
772,3510;0,0656406
773,3152;0,0653761
774,2795;0,0651156
775,2437;0,0648652
776,2079;0,0646241
777,1722;0,0643861
778,1364;0,0641427
779,1006;0,0638877
780,0649;0,0636215
781,0291;0,063351
781,9933;0,0630866
782,9576;0,0628369
783,9218;0,062604
784,8860;0,0623834
785,8503;0,0621677
786,8145;0,061951
787,7787;0,0617321
788,7430;0,0615134
789,7072;0,0612981
790,6714;0,061088
791,6357;0,060884
792,5999;0,0606875
793,5641;0,0604997
794,5284;0,06032
795,4926;0,0601431
796,4568;0,0599608
797,4211;0,0597678
798,3853;0,0595682
799,3495;0,0593773
800,3138;0,0592148
801,2780;0,0590934
802,2422;0,0590096
803,2065;0,0589439
804,1707;0,0588698
805,1349;0,0587671
806,0992;0,0586304
807,0634;0,0584696
808,0276;0,0583027
808,9919;0,0581469
809,9561;0,0580132
810,9203;0,0579056
811,8846;0,0578239
812,8488;0,0577656
813,8130;0,0577274
814,7773;0,057705
815,7415;0,0576926
816,7057;0,0576839
817,6700;0,0576739
818,6342;0,0576592
819,5984;0,0576387
820,5627;0,0576119
821,5269;0,057579
822,4911;0,0575402
823,4554;0,0574966
824,4196;0,0574499
825,3839;0,0574022
826,3481;0,0573547
827,3123;0,0573076
828,2766;0,05726
829,2408;0,0572106
830,2050;0,0571571
831,1693;0,0570951
832,1335;0,0570185
833,0977;0,0569205
834,0620;0,0567975
835,0262;0,0566506
835,9904;0,056487
836,9547;0,056316
837,9189;0,0561463
838,8831;0,0559839
839,8474;0,0558329
840,8116;0,0556976
841,7758;0,0555828
842,7401;0,055491
843,7043;0,055419
844,6685;0,0553573
845,6328;0,0552935
846,5970;0,0552192
847,5612;0,0551352
848,5255;0,0550505
849,4897;0,0549769
850,4539;0,0549208
851,4182;0,0548803
852,3824;0,0548472
853,3466;0,0548132
854,3109;0,0547755
855,2751;0,0547379
856,2393;0,0547074
857,2036;0,0546892
858,1678;0,0546844
859,1320;0,0546915
860,0963;0,0547084
861,0605;0,054735
862,0247;0,0547725
862,9890;0,0548219
863,9532;0,0548837
864,9174;0,0549592
865,8817;0,0550518
866,8459;0,0551674
867,8101;0,0553112
868,7744;0,0554847
869,7386;0,0556839
870,7028;0,0559015
871,6671;0,0561304
872,6313;0,0563666
873,5955;0,0566081
874,5598;0,0568523
875,5240;0,0570946
876,4882;0,0573318
877,4525;0,0575674
878,4167;0,0578157
879,3809;0,0581007
880,3452;0,0584479
881,3094;0,0588754
882,2736;0,0593879
883,2379;0,0599776
884,2021;0,0606304
885,1663;0,0613327
886,1306;0,0620763
887,0948;0,0628579
888,0590;0,063676
889,0233;0,0645259
889,9875;0,0653956
890,9517;0,066264
891,9160;0,0671015
892,8802;0,0678741
893,8444;0,0685486
894,8087;0,0690976
895,7729;0,0695028
896,7371;0,0697558
897,7014;0,0698569
898,6656;0,0698147
899,6298;0,0696452
900,5941;0,0693693
901,5583;0,0690108
902,5225;0,0685927
903,4868;0,0681362
904,4510;0,0676623
905,4152;0,0671943
906,3795;0,0667591
907,3437;0,0663833
908,3079;0,0660862
909,2722;0,0658735
910,2364;0,065736
911,2007;0,0656557
912,1649;0,0656165
913,1292;0,0656124
914,0934;0,0656492
915,0576;0,0657395
916,0219;0,0658928
916,9861;0,0661088
917,9503;0,0663765
918,9146;0,0666795
919,8788;0,0670026
920,8430;0,0673363
921,8073;0,0676757
922,7715;0,0680154
923,7357;0,0683462
924,7000;0,0686559
925,6642;0,0689343
926,6284;0,0691791
927,5927;0,0693979
928,5569;0,0696043
929,5211;0,0698114
930,4854;0,0700275
931,4496;0,070256
932,4138;0,070499
933,3781;0,0707605
934,3423;0,0710469
935,3065;0,0713658
936,2708;0,0717258
937,2350;0,0721371
938,1992;0,0726135
939,1635;0,0731701
940,1277;0,0738168
941,0919;0,0745515
942,0562;0,0753595
943,0204;0,0762198
943,9846;0,0771179
944,9489;0,0780531
945,9131;0,0790383
946,8773;0,080089
947,8416;0,0812122
948,8058;0,0824015
949,7700;0,0836424
950,7343;0,0849233
951,6985;0,0862441
952,6627;0,0876165
953,6270;0,0890569
954,5912;0,0905776
955,5554;0,0921814
956,5197;0,0938622
957,4839;0,0956085
958,4481;0,0974083
959,4124;0,09925
960,3766;0,101123
961,3408;0,103019
962,3051;0,104929
963,2693;0,106852
964,2335;0,10879
965,1978;0,110753
966,1620;0,112748
967,1262;0,114785
968,0905;0,116873
969,0547;0,119024
970,0189;0,121258
970,9832;0,123604
971,9474;0,126098
972,9116;0,128771
973,8759;0,131649
974,8401;0,134744
975,8043;0,138054
976,7686;0,141564
977,7328;0,145236
978,6970;0,149006
979,6613;0,152771
980,6255;0,156401
981,5897;0,159755
982,5540;0,162721
983,5182;0,16524
984,4824;0,167322
985,4467;0,16904
986,4109;0,170498
987,3751;0,171799
988,3394;0,173021
989,3036;0,174203
990,2678;0,175356
991,2321;0,176467
992,1963;0,177517
993,1605;0,178493
994,1248;0,179385
995,0890;0,18019
996,0532;0,180909
997,0175;0,181546
997,9817;0,182108
998,9459;0,182612
999,9102;0,183087
1000,8744;0,183571
1001,8386;0,184108
1002,8029;0,184742
1003,7671;0,18551
1004,7313;0,186438
1005,6956;0,187542
1006,6598;0,188836
1007,6240;0,190326
1008,5883;0,192009
1009,5525;0,193865
1010,5167;0,195851
1011,4810;0,197903
1012,4452;0,19994
1013,4094;0,201883
1014,3737;0,20367
1015,3379;0,205261
1016,3021;0,206643
1017,2664;0,207823
1018,2306;0,208816
1019,1948;0,209644
1020,1591;0,210335
1021,1233;0,210927
1022,0875;0,211464
1023,0518;0,211993
1024,0160;0,212547
1024,9802;0,213137
1025,9445;0,213747
1026,9087;0,214338
1027,8729;0,214856
1028,8372;0,215238
1029,8014;0,215413
1030,7656;0,215297
1031,7299;0,214802
1032,6941;0,213851
1033,6583;0,212409
1034,6226;0,210504
1035,5868;0,208238
1036,5510;0,205776
1037,5153;0,203308
1038,4795;0,20102
1039,4437;0,199063
1040,4080;0,197528
1041,3722;0,19645
1042,3364;0,195805
1043,3007;0,195525
1044,2649;0,195515
1045,2291;0,195674
1046,1934;0,195912
1047,1576;0,196161
1048,1218;0,196371
1049,0861;0,196493
1050,0503;0,196478
1051,0145;0,196273
1051,9788;0,195835
1052,9430;0,195139
1053,9072;0,194185
1054,8715;0,192979
1055,8357;0,191515
1056,7999;0,189759
1057,7642;0,187652
1058,7284;0,185138
1059,6926;0,182198
1060,6569;0,178877
1061,6211;0,175288
1062,5853;0,171586
1063,5496;0,167935
1064,5138;0,164468
1065,4780;0,161267
1066,4423;0,15836
1067,4065;0,155732
1068,3707;0,153345
1069,3350;0,15115
1070,2992;0,1491
1071,2634;0,147146
1072,2277;0,145243
1073,1919;0,14334
1074,1561;0,141394
1075,1204;0,139375
1076,0846;0,137277
1077,0488;0,135125
1078,0131;0,132973
1078,9773;0,130891
1079,9415;0,128955
1080,9058;0,127227
1081,8700;0,125744
1082,8342;0,124522
1083,7985;0,123548
1084,7627;0,122795
1085,7269;0,122221
1086,6912;0,121787
1087,6554;0,121461
1088,6196;0,121226
1089,5839;0,121084
1090,5481;0,121041
1091,5123;0,121108
1092,4766;0,121284
1093,4408;0,121559
1094,4050;0,121914
1095,3693;0,12233
1096,3335;0,122789
1097,2977;0,123277
1098,2620;0,123774
1099,2262;0,124253
1100,1904;0,124681
1101,1547;0,125023
1102,1189;0,125252
1103,0831;0,125355
1104,0474;0,125337
1105,0116;0,125215
1105,9758;0,125015
1106,9401;0,124752
1107,9043;0,124422
1108,8685;0,12399
1109,8328;0,123392
1110,7970;0,122547
1111,7612;0,121391
1112,7255;0,119899
1113,6897;0,118113
1114,6539;0,116132
1115,6182;0,114093
1116,5824;0,112128
1117,5466;0,110332
1118,5109;0,10874
1119,4751;0,107326
1120,4393;0,106016
1121,4036;0,104714
1122,3678;0,103323
1123,3320;0,101773
1124,2963;0,100027
1125,2605;0,0980927
1126,2247;0,0960098
1127,1890;0,0938413
1128,1532;0,0916536
1129,1174;0,0895009
1130,0817;0,0874151
1131,0459;0,085406
1132,0101;0,0834704
1132,9744;0,0816074
1133,9386;0,0798313
1134,9028;0,0781783
1135,8671;0,0767019
1136,8313;0,0754595
1137,7955;0,0744962
1138,7598;0,0738325
1139,7240;0,0734611
1140,6882;0,0733519
1141,6525;0,0734618
1142,6167;0,0737441
1143,5809;0,0741557
1144,5452;0,0746605
1145,5094;0,075233
1146,4736;0,0758591
1147,4379;0,0765359
1148,4021;0,0772671
1149,3663;0,0780562
1150,3306;0,0788985
1151,2948;0,0797761
1152,2590;0,0806594
1153,2233;0,0815123
1154,1875;0,0822982
1155,1517;0,0829833
1156,1160;0,0835335
1157,0802;0,0839084
1158,0444;0,0840549
1159,0087;0,0839045
1159,9729;0,08338
1160,9371;0,0824077
1161,9014;0,0809368
1162,8656;0,0789578
1163,8298;0,0765132
1164,7941;0,0736975
1165,7583;0,0706429
1166,7225;0,0674961
1167,6868;0,064394
1168,6510;0,0614447
1169,6152;0,0587196
1170,5795;0,0562556
1171,5437;0,0540641
1172,5079;0,0521403
1173,4722;0,05047
1174,4364;0,0490323
1175,4006;0,0478009
1176,3649;0,0467473
1177,3291;0,0458441
1178,2933;0,0450688
1179,2576;0,0444052
1180,2218;0,0438415
1181,1860;0,0433677
1182,1503;0,0429741
1183,1145;0,0426519
1184,0787;0,0423967
1185,0430;0,0422099
1186,0072;0,0420989
1186,9714;0,0420739
1187,9357;0,0421428
1188,8999;0,042308
1189,8641;0,0425649
1190,8284;0,0429048
1191,7926;0,0433172
1192,7568;0,0437934
1193,7211;0,0443263
1194,6853;0,0449093
1195,6495;0,0455329
1196,6138;0,046183
1197,5780;0,0468402
1198,5422;0,0474829
1199,5065;0,0480661
1200,4707;0,0486283
1201,4349;0,0491358
1202,3992;0,0495885
1203,3634;0,0499887
1204,3276;0,0503363
1205,2919;0,0506265
1206,2561;0,050853
1207,2203;0,0510155
1208,1846;0,0511267
1209,1488;0,0512166
1210,1130;0,0513277
1211,0773;0,0515052
1212,0415;0,0517837
1213,0057;0,052179
1213,9700;0,0526871
1214,9342;0,0532896
1215,8984;0,053962
1216,8627;0,0546802
1217,8269;0,0554225
1218,7911;0,0561713
1219,7554;0,0569132
1220,7196;0,0576397
1221,6838;0,0583472
1222,6481;0,0590352
1223,6123;0,0597028
1224,5765;0,0603461
1225,5408;0,0609585
1226,5050;0,0615334
1227,4692;0,0620672
1228,4335;0,0625607
1229,3977;0,0630171
1230,3619;0,0634377
1231,3262;0,0638186
1232,2904;0,0641499
1233,2546;0,0644188
1234,2189;0,0646154
1235,1831;0,0647383
1236,1473;0,0647976
1237,1116;0,0648129
1238,0758;0,0648066
1239,0400;0,0647958
1240,0043;0,064787
1240,9685;0,0647742
1241,9327;0,0647436
1242,8970;0,0646796
1243,8612;0,0645706
1244,8254;0,0644119
1245,7897;0,0642052
1246,7539;0,0639569
1247,7181;0,0636763
1248,6824;0,063374
1249,6466;0,0630616
1250,6108;0,0627504
1251,5751;0,0624504
1252,5393;0,062169
1253,5035;0,06191
1254,4678;0,0616731
1255,4320;0,0614544
1256,3962;0,0612468
1257,3605;0,0610412
1258,3247;0,0608276
1259,2889;0,0605968
1260,2532;0,0603413
1261,2174;0,0600565
1262,1816;0,0597413
1263,1459;0,0593981
1264,1101;0,0590328
1265,0743;0,0586526
1266,0386;0,0582641
1267,0028;0,0578713
1267,9670;0,0574744
1268,9313;0,0570719
1269,8955;0,0566617
1270,8597;0,0562437
1271,8240;0,0558193
1272,7882;0,0553912
1273,7524;0,0549631
1274,7167;0,0545396
1275,6809;0,0541262
1276,6451;0,0537272
1277,6094;0,0533421
1278,5736;0,0529638
1279,5378;0,0525795
1280,5021;0,0521761
1281,4663;0,0517477
1282,4305;0,0512994
1283,3948;0,0508458
1284,3590;0,0504066
1285,3232;0,0499997
1286,2875;0,0496386
1287,2517;0,0493318
1288,2159;0,0490831
1289,1802;0,0488923
1290,1444;0,0487563
1291,1086;0,0486709
1292,0729;0,0486336
1293,0371;0,0486473
1294,0013;0,0487201
1294,9656;0,0488624
1295,9298;0,0490823
1296,8940;0,0493815
1297,8583;0,0497551
1298,8225;0,0501951
1299,7867;0,0506936
1300,7510;0,0512445
1301,7152;0,0518439
1302,6794;0,0524894
1303,6437;0,053179
1304,6079;0,0539113
1305,5721;0,0546832
1306,5364;0,055488
1307,5006;0,0563137
1308,4648;0,0571447
1309,4291;0,0579641
1310,3933;0,0587548
1311,3575;0,0594988
1312,3218;0,060175
1313,2860;0,0607575
1314,2502;0,0612171
1315,2145;0,061524
1316,1787;0,0616544
1317,1429;0,0615985
1318,1072;0,0613696
1319,0714;0,061008
1320,0356;0,0605725
1320,9999;0,0601216
1321,9641;0,0596959
1322,9283;0,0593131
1323,8926;0,0589768
1324,8568;0,0586874
1325,8210;0,0584495
1326,7853;0,0582714
1327,7495;0,0581577
1328,7137;0,058104
1329,6780;0,058093
1330,6422;0,0580986
1331,6064;0,0580922
1332,5707;0,0580501
1333,5349;0,0579567
1334,4991;0,0577998
1335,4634;0,0575644
1336,4276;0,0572289
1337,3918;0,0567729
1338,3561;0,0561971
1339,3203;0,0555419
1340,2845;0,0548793
1341,2488;0,0542757
1342,2130;0,0537605
1343,1772;0,0533273
1344,1415;0,0529567
1345,1057;0,0526367
1346,0699;0,0523724
1347,0342;0,0521827
1347,9984;0,0520903
1348,9626;0,0521104
1349,9269;0,0522416
1350,8911;0,0524653
1351,8553;0,052751
1352,8196;0,0530672
1353,7838;0,0533929
1354,7480;0,0537255
1355,7123;0,0540786
1356,6765;0,0544695
1357,6407;0,0549038
1358,6050;0,0553681
1359,5692;0,0558318
1360,5334;0,0562553
1361,4977;0,0566063
1362,4619;0,0568809
1363,4261;0,0571103
1364,3904;0,0573378
1365,3546;0,0575872
1366,3188;0,0578533
1367,2831;0,0581118
1368,2473;0,0583321
1369,2115;0,0584858
1370,1758;0,0585474
1371,1400;0,0584904
1372,1042;0,0582881
1373,0685;0,057926
1374,0327;0,0574238
1374,9969;0,0568393
1375,9612;0,0562343
1376,9254;0,055629
1377,8896;0,0549934
1378,8539;0,0542841
1379,8181;0,0534906
1380,7823;0,052655
1381,7466;0,051849
1382,7108;0,0511221
1383,6750;0,0504686
1384,6393;0,0498353
1385,6035;0,0491663
1386,5677;0,0484593
1387,5320;0,0477899
1388,4962;0,0472615
1389,4604;0,0469245
1390,4247;0,0467535
1391,3889;0,0466856
1392,3531;0,0466629
1393,3174;0,0466505
1394,2816;0,046637
1395,2458;0,0466269
1396,2101;0,046632
1397,1743;0,0466658
1398,1385;0,0467418
1399,1028;0,0468715
1400,0670;0,0470581
1401,0313;0,0472912
1401,9955;0,0475497
1402,9597;0,0478117
1403,9240;0,0480665
1404,8882;0,048322
1405,8524;0,0486
1406,8167;0,0489196
1407,7809;0,0492836
1408,7451;0,0496813
1409,7094;0,0501017
1410,6736;0,050545
1411,6378;0,0510211
1412,6021;0,0515365
1413,5663;0,0520831
1414,5305;0,0526363
1415,4948;0,0531612
1416,4590;0,0536201
1417,4232;0,0539814
1418,3875;0,0542409
1419,3517;0,0544349
1420,3159;0,0546066
1421,2802;0,0547563
1422,2444;0,0548429
1423,2086;0,0548258
1424,1729;0,0546957
1425,1371;0,0544741
1426,1013;0,0541832
1427,0656;0,0538164
1428,0298;0,0533408
1428,9940;0,0527385
1429,9583;0,0520502
1430,9225;0,0513663
1431,8867;0,0507563
1432,8510;0,0502098
1433,8152;0,0496416
1434,7794;0,0489501
1435,7437;0,0481108
1436,7079;0,0472498
1437,6721;0,0465784
1438,6364;0,0462102
1439,6006;0,0460976
1440,5648;0,0461295
1441,5291;0,0462236
1442,4933;0,0463497
1443,4575;0,046511
1444,4218;0,0467151
1445,3860;0,0469545
1446,3502;0,047206
1447,3145;0,0474476
1448,2787;0,0476785
1449,2429;0,0479205
1450,2072;0,0481983
1451,1714;0,0485153
1452,1356;0,0488477
1453,0999;0,0491504
1454,0641;0,0493537
1455,0283;0,0493483
1455,9926;0,0490042
1456,9568;0,0483353
1457,9210;0,0476558
1458,8853;0,0472838
1459,8495;0,0472181
1460,8137;0,0472724
1461,7780;0,0472586
1462,7422;0,0470289
1463,7064;0,0464917
1464,6707;0,0456716
1465,6349;0,0447376
1466,5991;0,0438819
1467,5634;0,0431661
1468,5276;0,04251
1469,4918;0,041767
1470,4561;0,0407803
1471,4203;0,0394377
1472,3845;0,0377782
1473,3488;0,0360678
1474,3130;0,0346291
1475,2772;0,0335762
1476,2415;0,0328197
1477,2057;0,03223
1478,1699;0,031723
1479,1342;0,0312596
1480,0984;0,0308273
1481,0626;0,0304309
1482,0269;0,0300884
1482,9911;0,0298226
1483,9553;0,0296459
1484,9196;0,029549
1485,8838;0,029501
1486,8480;0,0294588
1487,8123;0,0293877
1488,7765;0,0292967
1489,7407;0,0292572
1490,7050;0,0293485
1491,6692;0,0295875
1492,6334;0,0299357
1493,5977;0,0303465
1494,5619;0,0307903
1495,5261;0,031252
1496,4904;0,0317241
1497,4546;0,0322064
1498,4188;0,0327116
1499,3831;0,0332513
1500,3473;0,0338146
1501,3115;0,0343694
1502,2758;0,0348815
1503,2400;0,0353252
1504,2042;0,0356759
1505,1685;0,0358775
1506,1327;0,0358162
1507,0969;0,035441
1508,0612;0,0349681
1509,0254;0,034658
1509,9896;0,0345362
1510,9539;0,0345064
1511,9181;0,0344846
1512,8823;0,034422
1513,8466;0,0342921
1514,8108;0,0340842
1515,7750;0,0338042
1516,7393;0,0334713
1517,7035;0,0331023
1518,6677;0,0326987
1519,6320;0,0322588
1520,5962;0,0318069
1521,5604;0,0314057
1522,5247;0,0311192
1523,4889;0,0309641
1524,4531;0,0309104
1525,4174;0,0309227
1526,3816;0,0309887
1527,3458;0,0311139
1528,3101;0,031298
1529,2743;0,031524
1530,2385;0,0317683
1531,2028;0,0320174
1532,1670;0,0322788
1533,1312;0,0325764
1534,0955;0,0329291
1535,0597;0,0333287
1536,0239;0,0337433
1536,9882;0,034136
1537,9524;0,0344715
1538,9166;0,0346983
1539,8809;0,0347368
1540,8451;0,0345688
1541,8093;0,0343485
1542,7736;0,0342362
1543,7378;0,0342362
1544,7020;0,034289
1545,6663;0,0343602
1546,6305;0,0344436
1547,5947;0,0345355
1548,5590;0,0346203
1549,5232;0,0346763
1550,4874;0,0346966
1551,4517;0,0347035
1552,4159;0,0347386
1553,3801;0,0348301
1554,3444;0,0349664
1555,3086;0,035091
1556,2728;0,0351
1557,2371;0,0348483
1558,2013;0,0342869
1559,1655;0,0337229
1560,1298;0,0335619
1561,0940;0,0338132
1562,0582;0,0342664
1563,0225;0,0347624
1563,9867;0,0352261
1564,9509;0,0356266
1565,9152;0,0359518
1566,8794;0,0362049
1567,8436;0,0364168
1568,8079;0,0366505
1569,7721;0,0369701
1570,7363;0,0373917
1571,7006;0,0378753
1572,6648;0,0383626
1573,6290;0,0388111
1574,5933;0,0392037
1575,5575;0,0395502
1576,5217;0,0398889
1577,4860;0,0402697
1578,4502;0,0407144
1579,4144;0,0412042
1580,3787;0,0417066
1581,3429;0,0421996
1582,3071;0,042677
1583,2714;0,0431463
1584,2356;0,0436219
1585,1998;0,0441161
1586,1641;0,0446301
1587,1283;0,0451508
1588,0925;0,0456549
1589,0568;0,0461167
1590,0210;0,0465138
1590,9852;0,0468283
1591,9495;0,047044
1592,9137;0,0471466
1593,8779;0,0471306
1594,8422;0,0470071
1595,8064;0,0468043
1596,7706;0,0465562
1597,7349;0,046288
1598,6991;0,0460106
1599,6633;0,0457251
1600,6276;0,0454319
1601,5918;0,0451394
1602,5560;0,0448653
1603,5203;0,0446296
1604,4845;0,0444412
1605,4487;0,0442899
1606,4130;0,0441509
1607,3772;0,0440022
1608,3414;0,0438467
1609,3057;0,0437201
1610,2699;0,043667
1611,2341;0,0437033
1612,1984;0,0438001
1613,1626;0,0438978
1614,1268;0,0439331
1615,0911;0,0438745
1616,0553;0,0437659
1617,0195;0,0437253
1617,9838;0,0438456
1618,9480;0,0441114
1619,9122;0,0444373
1620,8765;0,0447419
1621,8407;0,0449814
1622,8049;0,0451552
1623,7692;0,0452964
1624,7334;0,0454443
1625,6976;0,0456172
1626,6619;0,0458134
1627,6261;0,0460323
1628,5903;0,0462851
1629,5546;0,0465816
1630,5188;0,0469114
1631,4830;0,0472399
1632,4473;0,0475157
1633,4115;0,0476767
1634,3757;0,0476655
1635,3400;0,0474895
1636,3042;0,0472864
1637,2684;0,0472273
1638,2327;0,0473515
1639,1969;0,0475896
1640,1611;0,0478667
1641,1254;0,0481386
1642,0896;0,0483796
1643,0538;0,0485598
1644,0181;0,0486328
1644,9823;0,0485505
1645,9465;0,0483289
1646,9108;0,0481045
1647,8750;0,0480333
1648,8392;0,0481294
1649,8035;0,048267
1650,7677;0,0482522
1651,7319;0,0478545
1652,6962;0,0469473
1653,6604;0,0458544
1654,6246;0,0451596
1655,5889;0,0449776
1656,5531;0,0450406
1657,5173;0,0451052
1658,4816;0,0450388
1659,4458;0,0447723
1660,4100;0,0442735
1661,3743;0,0435732
1662,3385;0,0428005
1663,3027;0,0421279
1664,2670;0,0416465
1665,2312;0,041317
1666,1954;0,0410182
1667,1597;0,0406089
1668,1239;0,0399857
1669,0881;0,0391599
1670,0524;0,038289
1671,0166;0,0375507
1671,9808;0,0369786
1672,9451;0,0364671
1673,9093;0,0358953
1674,8735;0,0352338
1675,8378;0,034576
1676,8020;0,0340619
1677,7662;0,0337563
1678,7305;0,0336102
1679,6947;0,0335095
1680,6589;0,0333167
1681,6232;0,0328806
1682,5874;0,0320767
1683,5516;0,0309647
1684,5159;0,0298865
1685,4801;0,0291612
1686,4443;0,0287852
1687,4086;0,028575
1688,3728;0,028384
1689,3370;0,0281606
1690,3013;0,0279194
1691,2655;0,027694
1692,2297;0,0275015
1693,1940;0,0273319
1694,1582;0,0271564
1695,1224;0,0269444
1696,0867;0,0266753
1697,0509;0,0263436
1698,0151;0,0259607
1698,9794;0,0255694
1699,9436;0,0252503
1700,9078;0,0250847
1701,8721;0,0250962
1702,8363;0,0252396
1703,8005;0,0254401
1704,7648;0,0256353
1705,7290;0,025801
1706,6932;0,0259558
1707,6575;0,0261415
1708,6217;0,0263904
1709,5859;0,0267064
1710,5502;0,0270712
1711,5144;0,0274571
1712,4786;0,0278333
1713,4429;0,0281628
1714,4071;0,0284001
1715,3713;0,0285012
1716,3356;0,0284703
1717,2998;0,028412
1718,2640;0,0284752
1719,2283;0,0287201
1720,1925;0,0290994
1721,1567;0,0295345
1722,1210;0,0299651
1723,0852;0,0303588
1724,0494;0,0307075
1725,0137;0,0310228
1725,9779;0,0313281
1726,9421;0,0316439
1727,9064;0,0319749
1728,8706;0,0323022
1729,8348;0,0325831
1730,7991;0,0327559
1731,7633;0,0327559
1732,7275;0,0325633
1733,6918;0,0322667
1734,6560;0,0320274
1735,6202;0,0319308
1736,5845;0,0319271
1737,5487;0,0319074
1738,5129;0,0317823
1739,4772;0,0315159
1740,4414;0,0311335
1741,4056;0,0307
1742,3699;0,0302721
1743,3341;0,0298635
1744,2983;0,0294515
1745,2626;0,0290017
1746,2268;0,0284759
1747,1910;0,0278242
1748,1553;0,026993
1749,1195;0,0259793
1750,0837;0,0248889
1751,0480;0,0238959
1752,0122;0,0231122
1752,9764;0,0225237
1753,9407;0,0220374
1754,9049;0,0215589
1755,8691;0,0210418
1756,8334;0,020498
1757,7976;0,0199689
1758,7618;0,0194805
1759,7261;0,0190201
1760,6903;0,0185586
1761,6545;0,0180919
1762,6188;0,0176573
1763,5830;0,0173032
1764,5472;0,0170491
1765,5115;0,0168754
1766,4757;0,0167432
1767,4399;0,0166153
1768,4042;0,016464
1769,3684;0,0162671
1770,3326;0,0160067
1771,2969;0,0156845
1772,2611;0,0153472
1773,2253;0,0150758
1774,1896;0,0149282
1775,1538;0,0148993
1776,1180;0,0149386
1777,0823;0,0149881
1778,0465;0,0150077
1779,0107;0,0149835
1779,9750;0,0149246
1780,9392;0,0148489
1781,9034;0,0147674
1782,8677;0,0146821
1783,8319;0,0145988
1784,7961;0,014537
1785,7604;0,0145232
1786,7246;0,0145714
1787,6888;0,0146688
1788,6531;0,014777
1789,6173;0,0148447
1790,5815;0,0148254
1791,5458;0,0147078
1792,5100;0,0145413
1793,4742;0,0144092
1794,4385;0,0143613
1795,4027;0,014386
1796,3669;0,0144388
1797,3312;0,0144774
1798,2954;0,0144767
1799,2596;0,0144325
1800,2239;0,0143584
1801,1881;0,0142784
1802,1523;0,0142148
1803,1166;0,0141805
1804,0808;0,0141786
1805,0450;0,0142054
1806,0093;0,0142515
1806,9735;0,014302
1807,9377;0,0143374
1808,9020;0,0143397
1809,8662;0,014302
1810,8304;0,0142354
1811,7947;0,0141633
1812,7589;0,0141059
1813,7231;0,0140688
1814,6874;0,014045
1815,6516;0,014025
1816,6158;0,0140078
1817,5801;0,0140036
1818,5443;0,0140268
1819,5085;0,0140826
1820,4728;0,0141604
1821,4370;0,0142374
1822,4012;0,0142913
1823,3655;0,0143112
1824,3297;0,0143022
1825,2939;0,0142778
1826,2582;0,0142445
1827,2224;0,0141931
1828,1866;0,0141089
1829,1509;0,013993
1830,1151;0,0138771
1831,0793;0,0138088
1832,0436;0,0138148
1833,0078;0,0138819
1833,9720;0,0139696
1834,9363;0,0140367
1835,9005;0,0140621
1836,8647;0,014054
1837,8290;0,014042
1838,7932;0,014053
1839,7574;0,0140912
1840,7217;0,0141366
1841,6859;0,0141572
1842,6501;0,0141269
1843,6144;0,014044
1844,5786;0,0139413
1845,5428;0,0138671
1846,5071;0,0138469
1847,4713;0,0138714
1848,4355;0,0139129
1849,3998;0,0139468
1850,3640;0,01396
1851,3282;0,013951
1852,2925;0,0139256
1853,2567;0,0138936
1854,2209;0,0138667
1855,1852;0,0138569
1856,1494;0,0138729
1857,1136;0,0139142
1858,0779;0,0139694
1859,0421;0,0140198
1860,0063;0,0140493
1860,9706;0,0140545
1861,9348;0,0140466
1862,8990;0,0140429
1863,8633;0,0140553
1864,8275;0,014083
1865,7917;0,0141114
1866,7560;0,0141167
1867,7202;0,0140781
1868,6844;0,013996
1869,6487;0,0138975
1870,6129;0,0138179
1871,5771;0,0137756
1872,5414;0,0137675
1873,5056;0,0137794
1874,4698;0,013797
1875,4341;0,013811
1876,3983;0,0138191
1877,3625;0,0138247
1878,3268;0,0138319
1879,2910;0,0138417
1880,2552;0,0138516
1881,2195;0,0138583
1882,1837;0,0138623
1883,1479;0,013868
1884,1122;0,0138802
1885,0764;0,0138971
1886,0406;0,0139088
1887,0049;0,0139013
1887,9691;0,0138662
1888,9333;0,0138098
1889,8976;0,0137528
1890,8618;0,0137185
1891,8260;0,0137181
1892,7903;0,0137465
1893,7545;0,0137896
1894,7188;0,0138341
1895,6830;0,0138728
1896,6472;0,0139038
1897,6115;0,0139256
1898,5757;0,0139341
1899,5399;0,0139246
1900,5042;0,0138972
1901,4684;0,0138603
1902,4326;0,0138283
1903,3969;0,0138151
1904,3611;0,0138264
1905,3253;0,0138576
1906,2896;0,0138964
1907,2538;0,0139282
1908,2180;0,0139409
1909,1823;0,0139284
1910,1465;0,0138925
1911,1107;0,0138414
1912,0750;0,013786
1913,0392;0,0137364
1914,0034;0,0137013
1914,9677;0,0136883
1915,9319;0,013702
1916,8961;0,013739
1917,8604;0,0137833
1918,8246;0,0138092
1919,7888;0,0137937
1920,7531;0,0137293
1921,7173;0,0136311
1922,6815;0,0135322
1923,6458;0,0134685
1924,6100;0,0134574
1925,5742;0,0134872
1926,5385;0,0135258
1927,5027;0,013543
1928,4669;0,0135289
1929,4312;0,0134984
1930,3954;0,0134801
1931,3596;0,0134965
1932,3239;0,0135489
1933,2881;0,0136159
1934,2523;0,013666
1935,2166;0,0136759
1936,1808;0,0136418
1937,1450;0,0135804
1938,1093;0,0135194
1939,0735;0,0134838
1940,0377;0,0134842
1941,0020;0,0135099
1941,9662;0,0135298
1942,9304;0,0135072
1943,8947;0,0134214
1944,8589;0,0132814
1945,8231;0,01312
1946,7874;0,0129776
1947,7516;0,0128861
1948,7158;0,012859
1949,6801;0,0128877
1950,6443;0,0129466
1951,6085;0,0130033
1952,5728;0,0130316
1953,5370;0,0130198
1954,5012;0,0129732
1955,4655;0,0129091
1956,4297;0,0128485
1957,3939;0,0128071
1958,3582;0,0127905
1959,3224;0,0127947
1960,2866;0,0128117
1961,2509;0,012834
1962,2151;0,0128542
1963,1793;0,012859
1964,1436;0,0128236
1965,1078;0,0127144
1966,0720;0,0125056
1967,0363;0,0122018
1968,0005;0,0118508
1968,9647;0,0115296
1969,9290;0,011312
1970,8932;0,0112402
1971,8574;0,0113154
1972,8217;0,0115062
1973,7859;0,0117628
1974,7501;0,0120306
1975,7144;0,012262
1976,6786;0,0124259
1977,6428;0,0125165
1978,6071;0,0125539
1979,5713;0,0125713
1980,5355;0,0125946
1981,4998;0,0126265
1982,4640;0,0126475
1983,4282;0,0126323
1984,3925;0,0125754
1985,3567;0,012506
1986,3209;0,0124835
1987,2852;0,012569
1988,2494;0,0127929
1989,2136;0,013134
1990,1779;0,0135223
1991,1421;0,0138646
1992,1063;0,0140809
1993,0706;0,014134
1994,0348;0,0140343
1994,9990;0,013824
1995,9633;0,0135565
1996,9275;0,0132838
1997,8917;0,0130492
1998,8560;0,0128803
1999,8202;0,0127822
2000,7844;0,0127361
2001,7487;0,0127104
2002,7129;0,0126789
2003,6771;0,012637
2004,6414;0,0126048
2005,6056;0,0126138
2006,5698;0,0126834
2007,5341;0,0128014
2008,4983;0,0129264
2009,4625;0,0130092
2010,4268;0,0130194
2011,3910;0,0129571
2012,3552;0,0128458
2013,3195;0,0127163
2014,2837;0,0125963
2015,2479;0,0125127
2016,2122;0,0124997
2017,1764;0,012597
2018,1406;0,0128293
2019,1049;0,0131775
2020,0691;0,0135656
2021,0333;0,013879
2021,9976;0,0140091
2022,9618;0,0139039
2023,9260;0,0135967
2024,8903;0,0131953
2025,8545;0,0128339
2026,8187;0,0126155
2027,7830;0,0125763
2028,7472;0,0126876
2029,7114;0,0128845
2030,6757;0,0131036
2031,6399;0,0133101
2032,6041;0,0135041
2033,5684;0,0137078
2034,5326;0,0139387
2035,4968;0,0141858
2036,4611;0,014405
2037,4253;0,0145367
2038,3895;0,0145388
2039,3538;0,0144115
2040,3180;0,0142011
2041,2822;0,0139775
2042,2465;0,0137987
2043,2107;0,0136874
2044,1749;0,0136357
2045,1392;0,0136293
2046,1034;0,0136689
2047,0676;0,0137681
2048,0320;0,0139326
2048,9961;0,0141412
2049,9604;0,0143504
2050,9246;0,014519
2051,8889;0,0146293
2052,8530;0,014692
2053,8174;0,0147329
2054,7815;0,0147741
2055,7458;0,0148212
2056,7100;0,0148647
2057,6743;0,0148921
2058,6384;0,014901
2059,6028;0,0149014
2060,5669;0,0149091
2061,5313;0,0149347
2062,4954;0,0149785
2063,4597;0,0150327
2064,4238;0,0150876
2065,3882;0,0151351
2066,3523;0,0151688
2067,3167;0,0151804
2068,2808;0,0151613
2069,2451;0,0151078
2070,2092;0,0150273
2071,1736;0,01494
2072,1377;0,0148716
2073,1021;0,0148412
2074,0662;0,0148515
2075,0305;0,0148884
2075,9946;0,0149309
2076,9590;0,0149639
2077,9231;0,0149854
2078,8875;0,015004
2079,8516;0,0150296
2080,8159;0,0150658
2081,7800;0,0151075
2082,7444;0,0151465
2083,7085;0,0151768
2084,6729;0,0151971
2085,6370;0,0152076
2086,6013;0,0152068
2087,5654;0,0151919
2088,5298;0,0151644
2089,4939;0,0151356
2090,4583;0,0151265
2091,4224;0,0151587
2092,3867;0,015241
2093,3508;0,0153606
2094,3152;0,0154858
2095,2793;0,0155798
2096,2437;0,0156189
2097,2078;0,0156026
2098,1721;0,0155505
2099,1362;0,0154881
2100,1006;0,015433
2101,0647;0,0153894
2102,0291;0,0153523
2102,9932;0,0153158
2103,9575;0,015279
2104,9216;0,0152474
2105,8860;0,0152283
2106,8501;0,0152255
2107,8145;0,0152371
2108,7786;0,0152577
2109,7429;0,0152829
2110,7070;0,0153125
2111,6714;0,0153492
2112,6355;0,0153937
2113,5999;0,0154398
2114,5640;0,0154744
2115,5283;0,0154841
2116,4924;0,0154645
2117,4568;0,0154247
2118,4209;0,0153843
2119,3853;0,0153626
2120,3494;0,0153674
2121,3137;0,0153912
2122,2778;0,0154181
2123,2422;0,0154361
2124,2063;0,0154448
2125,1707;0,0154533
2126,1348;0,0154686
2127,0991;0,0154836
2128,0632;0,0154762
2129,0276;0,0154208
2129,9917;0,0153084
2130,9561;0,0151608
2131,9202;0,0150304
2132,8845;0,0149795
2133,8486;0,0150467
2134,8130;0,0152182
2135,7771;0,0154239
2136,7415;0,0155683
2137,7056;0,0155798
2138,6699;0,0154497
2139,6340;0,0152379
2140,5984;0,0150415
2141,5625;0,0149466
2142,5269;0,014988
2143,4910;0,0151399
2144,4553;0,0153368
2145,4194;0,0155124
2146,3838;0,0156287
2147,3479;0,0156834
2148,3123;0,0156964
2149,2764;0,0156904
2150,2407;0,0156791
2151,2048;0,015666
2152,1692;0,0156469
2153,1333;0,0156116
2154,0977;0,0155458
2155,0618;0,015438
2156,0261;0,0152922
2156,9902;0,0151386
2157,9546;0,0150289
2158,9187;0,0150077
2159,8831;0,0150833
2160,8472;0,0152273
2161,8115;0,0154033
2162,7756;0,0155902
2163,7400;0,0157804
2164,7041;0,0159628
2165,6685;0,0161118
2166,6326;0,016195
2167,5969;0,0161954
2168,5610;0,0161267
2169,5254;0,0160279
2170,4895;0,015938
2171,4539;0,0158706
2172,4180;0,015808
2173,3823;0,0157188
2174,3464;0,0155905
2175,3108;0,0154482
2176,2749;0,0153437
2177,2393;0,0153202
2178,2034;0,0153779
2179,1677;0,0154665
2180,1318;0,0155113
2181,0962;0,0154552
2182,0603;0,015293
2183,0247;0,0150764
2183,9888;0,0148862
2184,9531;0,0147937
2185,9172;0,0148336
2186,8816;0,0149983
2187,8457;0,0152489
2188,8101;0,0155286
2189,7742;0,0157756
2190,7385;0,0159351
2191,7026;0,0159724
2192,6670;0,0158864
2193,6311;0,0157139
2194,5955;0,0155195
2195,5596;0,0153696
2196,5239;0,0153047
2197,4880;0,0153242
2198,4524;0,0153937
2199,4165;0,0154691
2200,3809;0,0155224
2201,3450;0,0155527
2202,3093;0,0155778
2203,2734;0,015617
2204,2378;0,0156778
2205,2019;0,0157551
2206,1663;0,0158378
2207,1304;0,0159158
2208,0947;0,0159798
2209,0588;0,0160183
2210,0232;0,0160186
2210,9873;0,0159741
2211,9517;0,0158944
2212,9158;0,0158064
2213,8801;0,0157439
2214,8442;0,0157284
2215,8086;0,0157567
2216,7727;0,0158034
2217,7371;0,0158382
2218,7012;0,0158465
2219,6655;0,0158385
2220,6296;0,0158419
2221,5940;0,0158825
2222,5581;0,0159674
2223,5225;0,0160806
2224,4866;0,0161923
2225,4509;0,0162751
2226,4150;0,0163162
2227,3794;0,0163194
2228,3435;0,0162978
2229,3079;0,016264
2230,2720;0,0162243
2231,2363;0,0161794
2232,2004;0,0161293
2233,1648;0,0160781
2234,1289;0,0160339
2235,0933;0,016006
2236,0574;0,0160006
2237,0217;0,0160184
2237,9858;0,0160547
2238,9502;0,0161007
2239,9143;0,0161449
2240,8787;0,0161757
2241,8428;0,016184
2242,8071;0,0161669
2243,7712;0,0161302
2244,7356;0,0160874
2245,6997;0,0160544
2246,6641;0,0160427
2247,6282;0,0160549
2248,5925;0,0160841
2249,5566;0,0161183
2250,5210;0,0161452
2251,4851;0,016156
2252,4495;0,0161472
2253,4136;0,0161198
2254,3779;0,0160784
2255,3420;0,0160303
2256,3064;0,0159837
2257,2705;0,0159456
2258,2349;0,0159196
2259,1990;0,0159057
2260,1633;0,0159012
2261,1274;0,0159032
2262,0918;0,0159105
2263,0559;0,0159248
2264,0203;0,0159485
2264,9844;0,0159831
2265,9487;0,0160266
2266,9128;0,0160732
2267,8772;0,0161147
2268,8413;0,0161432
2269,8057;0,0161541
2270,7698;0,0161484
2271,7341;0,016132
2272,6982;0,0161132
2273,6626;0,0160996
2274,6267;0,0160946
2275,5911;0,0160967
2276,5552;0,0161018
2277,5195;0,016107
2278,4836;0,0161142
2279,4480;0,0161314
2280,4121;0,0161697
2281,3765;0,0162366
2282,3406;0,0163301
2283,3049;0,0164372
2284,2690;0,0165371
2285,2334;0,0166108
2286,1975;0,0166498
2287,1619;0,0166603
2288,1260;0,0166602
2289,0903;0,0166695
2290,0544;0,0166998
2291,0188;0,0167498
2291,9829;0,0168079
2292,9473;0,0168611
2293,9114;0,0169025
2294,8757;0,0169351
2295,8398;0,0169679
2296,8042;0,0170088
2297,7683;0,0170595
2298,7327;0,0171149
2299,6968;0,0171668
2300,6611;0,0172104
2301,6252;0,0172471
2302,5896;0,0172848
2303,5537;0,0173336
2304,5181;0,0174014
2305,4822;0,0174902
2306,4465;0,0175934
2307,4106;0,0176968
2308,3750;0,0177815
2309,3391;0,0178309
2310,3035;0,0178386
2311,2676;0,0178132
2312,2319;0,0177772
2313,1960;0,0177571
2314,1604;0,0177727
2315,1245;0,0178293
2316,0889;0,017919
2317,0530;0,0180267
2318,0173;0,0181365
2318,9814;0,0182338
2319,9458;0,0183043
2320,9099;0,0183331
2321,8743;0,0183087
2322,8384;0,0182309
2323,8027;0,0181131
2324,7668;0,0179784
2325,7312;0,0178503
2326,6953;0,0177457
2327,6597;0,0176731
2328,6238;0,0176324
2329,5881;0,0176178
2330,5522;0,0176198
2331,5166;0,0176268
2332,4807;0,0176258
2333,4451;0,0176046
2334,4092;0,0175551
2335,3735;0,0174791
2336,3376;0,0173906
2337,3020;0,017313
2338,2661;0,0172672
2339,2305;0,0172562
2340,1946;0,0172572
2341,1589;0,0172313
2342,1230;0,0171504
2343,0874;0,0170317
2344,0515;0,0169442
2345,0159;0,0169636
2345,9800;0,0171141
2346,9443;0,0173619
2347,9084;0,0176511
2348,8728;0,0179326
2349,8369;0,0181735
2350,8013;0,0183547
2351,7654;0,0184652
2352,7297;0,0184998
2353,6938;0,0184605
2354,6582;0,0183582
2355,6223;0,0182104
2356,5867;0,0180347
2357,5508;0,0178478
2358,5151;0,0176665
2359,4792;0,0175046
2360,4436;0,0173671
2361,4077;0,01725
2362,3721;0,0171504
2363,3362;0,017075
2364,3005;0,0170367
2365,2646;0,0170433
2366,2290;0,0170883
2367,1931;0,0171543
2368,1575;0,0172221
2369,1216;0,0172786
2370,0859;0,0173172
2371,0500;0,0173348
2372,0144;0,01733
2372,9785;0,0173042
2373,9429;0,0172648
2374,9070;0,0172252
2375,8713;0,0172
2376,8354;0,0171993
2377,7998;0,0172231
2378,7639;0,0172611
2379,7283;0,0172974
2380,6924;0,0173174
2381,6567;0,0173143
2382,6208;0,0172913
2383,5852;0,0172592
2384,5493;0,017231
2385,5137;0,0172164
2386,4778;0,0172184
2387,4421;0,0172336
2388,4063;0,0172552
2389,3706;0,0172767
2390,3347;0,0172939
2391,2991;0,0173059
2392,2632;0,0173137
2393,2275;0,0173191
2394,1917;0,0173247
2395,1560;0,0173326
2396,1201;0,0173447
2397,0845;0,0173604
2398,0486;0,0173772
2399,0129;0,0173909
2399,9771;0,0173986
2400,9414;0,0174017
2401,9055;0,0174057
2402,8699;0,0174181
2403,8340;0,0174438
2404,7983;0,0174817
2405,7625;0,0175245
2406,7268;0,0175617
2407,6909;0,0175857
2408,6553;0,0175957
2409,6194;0,0175978
2410,5837;0,017602
2411,5479;0,0176158
2412,5122;0,0176409
2413,4763;0,0176725
2414,4407;0,0177026
2415,4048;0,0177252
2416,3691;0,017739
2417,3333;0,017748
2418,2976;0,0177581
2419,2617;0,0177729
2420,2261;0,0177914
2421,1902;0,017808
2422,1545;0,0178158
2423,1187;0,0178105
2424,0830;0,0177933
2425,0471;0,0177715
2426,0115;0,017756
2426,9756;0,0177571
2427,9399;0,0177803
2428,9041;0,017824
2429,8684;0,0178802
2430,8325;0,0179371
2431,7969;0,0179834
2432,7610;0,0180114
2433,7253;0,0180199
2434,6895;0,018014
2435,6538;0,0180041
2436,6179;0,0180019
2437,5823;0,0180157
2438,5464;0,0180464
2439,5107;0,0180868
2440,4749;0,0181249
2441,4392;0,0181505
2442,4033;0,0181611
2443,3677;0,0181629
2444,3318;0,0181676
2445,2961;0,0181841
2446,2603;0,0182138
2447,2246;0,0182497
2448,1887;0,0182811
2449,1531;0,0183001
2450,1172;0,0183066
2451,0815;0,0183068
2452,0457;0,0183098
2453,0100;0,0183215
2453,9741;0,0183414
2454,9385;0,0183634
2455,9026;0,0183791
2456,8669;0,0183825
2457,8311;0,0183732
2458,7954;0,0183562
2459,7595;0,0183399
2460,7239;0,0183321
2461,6880;0,018337
2462,6523;0,0183548
2463,6165;0,0183829
2464,5808;0,0184183
2465,5449;0,0184585
2466,5093;0,0185013
2467,4734;0,0185433
2468,4377;0,0185803
2469,4019;0,0186077
2470,3662;0,0186227
2471,3303;0,0186255
2472,2947;0,0186192
2473,2588;0,018609
2474,2231;0,0186007
2475,1873;0,0185995
2476,1516;0,0186098
2477,1157;0,018634
2478,0801;0,0186714
2479,0442;0,0187177
2480,0085;0,0187655
2480,9727;0,018806
2481,9370;0,0188325
2482,9011;0,0188425
2483,8655;0,0188387
2484,8296;0,0188276
2485,7939;0,0188169
2486,7581;0,0188131
2487,7224;0,018819
2488,6865;0,0188329
2489,6509;0,0188497
2490,6150;0,0188631
2491,5793;0,0188687
2492,5435;0,0188663
2493,5078;0,0188606
2494,4719;0,0188596
2495,4363;0,0188707
2496,4004;0,018897
2497,3647;0,0189356
2498,3289;0,0189781
2499,2932;0,0190145
2500,2573;0,019037
2501,2217;0,0190432
2502,1858;0,0190367
2503,1501;0,0190258
2504,1143;0,0190197
2505,0786;0,0190253
2506,0427;0,0190448
2507,0071;0,019075
2507,9712;0,0191092
2508,9355;0,0191399
2509,8997;0,0191619
2510,8640;0,0191743
2511,8281;0,0191797
2512,7925;0,0191828
2513,7566;0,0191881
2514,7209;0,0191978
2515,6851;0,0192113
2516,6494;0,0192257
2517,6135;0,0192368
2518,5779;0,0192409
2519,5420;0,0192366
2520,5063;0,0192267
2521,4705;0,0192177
2522,4348;0,019217
2523,3989;0,0192295
2524,3633;0,0192537
2525,3274;0,0192824
2526,2917;0,0193063
2527,2559;0,0193198
2528,2202;0,0193241
2529,1843;0,0193253
2530,1487;0,0193298
2531,1128;0,0193394
2532,0771;0,01935
2533,0413;0,0193562
2534,0056;0,0193567
2534,9697;0,0193568
2535,9341;0,0193657
2536,8982;0,0193899
2537,8625;0,0194274
2538,8267;0,0194678
2539,7910;0,0194967
2540,7551;0,0195035
2541,7195;0,0194871
2542,6836;0,0194558
2543,6479;0,0194234
2544,6121;0,0194025
2545,5764;0,0193996
2546,5405;0,0194134
2547,5049;0,0194367
2548,4690;0,0194605
2549,4333;0,0194783
2550,3975;0,019489
2551,3618;0,0194969
2552,3259;0,0195094
2553,2903;0,0195322
2554,2544;0,0195659
2555,2188;0,0196046
2556,1829;0,0196386
2557,1472;0,0196596
2558,1113;0,0196647
2559,0757;0,0196573
2560,0398;0,0196438
2561,0042;0,0196296
2561,9683;0,0196169
2562,9326;0,0196057
2563,8967;0,0195967
2564,8611;0,019594
2565,8252;0,0196028
2566,7896;0,0196257
2567,7537;0,0196585
2568,7180;0,0196915
2569,6821;0,0197133
2570,6465;0,0197178
2571,6106;0,0197068
2572,5750;0,0196883
2573,5391;0,0196716
2574,5034;0,0196626
2575,4675;0,019662
2576,4319;0,0196676
2577,3960;0,0196775
2578,3604;0,0196917
2579,3245;0,0197109
2580,2888;0,0197349
2581,2529;0,0197613
2582,2173;0,0197866
2583,1814;0,0198075
2584,1458;0,0198231
2585,1099;0,0198344
2586,0742;0,0198439
2587,0383;0,0198546
2588,0027;0,0198685
2588,9668;0,0198865
2589,9312;0,0199073
2590,8953;0,019928
2591,8596;0,0199447
2592,8237;0,0199548
2593,7881;0,0199589
2594,7522;0,0199613
2595,7166;0,019968
2596,6807;0,0199836
2597,6450;0,0200089
2598,6091;0,0200402
2599,5735;0,020072
2600,5376;0,0201001
2601,5020;0,0201231
2602,4661;0,0201425
2603,4304;0,0201601
2604,3945;0,0201764
2605,3589;0,0201909
2606,3230;0,0202033
2607,2874;0,0202151
2608,2515;0,0202296
2609,2158;0,0202502
2610,1799;0,0202774
2611,1443;0,0203084
2612,1084;0,0203381
2613,0728;0,0203624
2614,0369;0,0203805
2615,0012;0,0203959
2615,9653;0,0204137
2616,9297;0,0204378
2617,8938;0,0204686
2618,8582;0,0205026
2619,8223;0,0205351
2620,7866;0,0205621
2621,7507;0,020583
2622,7151;0,0205996
2623,6792;0,0206155
2624,6436;0,0206338
2625,6077;0,020656
2626,5720;0,0206823
2627,5361;0,0207112
2628,5005;0,0207413
2629,4646;0,020771
2630,4290;0,0207987
2631,3931;0,0208231
2632,3574;0,0208427
2633,3215;0,0208571
2634,2859;0,0208673
2635,2500;0,0208761
2636,2144;0,0208881
2637,1785;0,0209079
2638,1428;0,0209382
2639,1069;0,0209784
2640,0713;0,0210245
2641,0354;0,02107
2641,9998;0,021109
2642,9639;0,0211379
2643,9282;0,0211573
2644,8923;0,0211708
2645,8567;0,0211841
2646,8208;0,0212019
2647,7852;0,0212263
2648,7493;0,0212564
2649,7136;0,0212887
2650,6777;0,0213197
2651,6421;0,0213472
2652,6062;0,0213714
2653,5706;0,021394
2654,5347;0,0214171
2655,4990;0,0214415
2656,4631;0,0214666
2657,4275;0,0214905
2658,3916;0,0215118
2659,3560;0,0215305
2660,3201;0,0215477
2661,2844;0,0215654
2662,2485;0,0215854
2663,2129;0,0216083
2664,1770;0,0216341
2665,1414;0,0216619
2666,1055;0,0216903
2667,0698;0,021718
2668,0339;0,0217431
2668,9983;0,0217644
2669,9624;0,0217817
2670,9268;0,0217967
2671,8909;0,0218125
2672,8552;0,0218324
2673,8193;0,0218576
2674,7837;0,0218863
2675,7478;0,0219144
2676,7122;0,0219378
2677,6763;0,0219554
2678,6406;0,0219708
2679,6047;0,0219898
2680,5691;0,0220178
2681,5332;0,0220562
2682,4976;0,0221013
2683,4617;0,0221466
2684,4260;0,0221859
2685,3901;0,0222161
2686,3545;0,0222382
2687,3186;0,0222559
2688,2830;0,0222735
2689,2471;0,0222948
2690,2114;0,0223219
2691,1755;0,022355
2692,1399;0,0223924
2693,1040;0,0224305
2694,0684;0,0224651
2695,0325;0,0224935
2695,9968;0,0225156
2696,9609;0,0225353
2697,9253;0,0225579
2698,8894;0,022588
2699,8538;0,0226269
2700,8179;0,022672
2701,7822;0,0227183
2702,7463;0,0227609
2703,7107;0,0227972
2704,6748;0,0228273
2705,6392;0,0228537
2706,6033;0,0228794
2707,5676;0,0229067
2708,5317;0,0229366
2709,4961;0,0229691
2710,4602;0,0230036
2711,4246;0,0230395
2712,3887;0,0230763
2713,3530;0,0231135
2714,3171;0,0231502
2715,2815;0,0231853
2716,2456;0,0232178
2717,2100;0,0232475
2718,1741;0,023275
2719,1384;0,0233016
2720,1025;0,0233281
2721,0669;0,0233542
2722,0310;0,0233787
2722,9954;0,0234005
2723,9595;0,0234197
2724,9238;0,0234382
2725,8879;0,023459
2726,8523;0,023485
2727,8164;0,0235176
2728,7808;0,0235559
2729,7449;0,0235975
2730,7092;0,0236389
2731,6733;0,0236765
2732,6377;0,0237074
2733,6018;0,0237298
2734,5662;0,023744
2735,5303;0,0237522
2736,4946;0,0237583
2737,4587;0,0237668
2738,4231;0,0237815
2739,3872;0,0238042
2740,3516;0,0238347
2741,3157;0,0238705
2742,2800;0,0239083
2743,2441;0,0239441
2744,2085;0,0239742
2745,1726;0,0239964
2746,1370;0,0240108
2747,1011;0,0240199
2748,0654;0,0240283
2749,0295;0,0240407
2749,9939;0,0240606
2750,9580;0,024089
2751,9224;0,0241243
2752,8865;0,0241635
2753,8508;0,0242034
2754,8149;0,0242413
2755,7793;0,0242761
2756,7434;0,0243078
2757,7078;0,0243373
2758,6719;0,0243667
2759,6362;0,024398
2760,6003;0,0244328
2761,5647;0,0244714
2762,5288;0,0245127
2763,4932;0,0245545
2764,4573;0,0245943
2765,4216;0,0246309
2766,3857;0,0246648
2767,3501;0,0246981
2768,3142;0,0247334
2769,2786;0,0247725
2770,2427;0,0248154
2771,2070;0,0248603
2772,1711;0,0249044
2773,1355;0,0249465
2774,0996;0,0249875
2775,0640;0,0250305
2776,0281;0,0250794
2776,9924;0,0251359
2777,9565;0,0251982
2778,9209;0,0252613
2779,8850;0,0253198
2780,8494;0,0253704
2781,8135;0,0254146
2782,7778;0,0254577
2783,7419;0,0255066
2784,7063;0,0255661
2785,6704;0,025636
2786,6348;0,0257116
2787,5989;0,0257857
2788,5632;0,0258524
2789,5273;0,0259101
2790,4917;0,0259622
2791,4558;0,0260158
2792,4202;0,0260772
2793,3843;0,0261496
2794,3486;0,0262313
2795,3127;0,0263173
2796,2771;0,0264026
2797,2412;0,0264849
2798,2056;0,0265659
2799,1697;0,0266491
2800,1340;0,026738
2801,0981;0,0268336
2802,0625;0,0269344
2803,0266;0,0270378
2803,9910;0,0271419
2804,9551;0,0272462
2805,9194;0,0273506
2806,8835;0,0274551
2807,8479;0,0275589
2808,8120;0,0276613
2809,7764;0,0277631
2810,7405;0,0278672
2811,7048;0,0279777
2812,6689;0,028098
2813,6333;0,0282288
2814,5974;0,0283682
2815,5618;0,0285123
2816,5259;0,028658
2817,4902;0,0288045
2818,4543;0,0289536
2819,4187;0,0291075
2820,3828;0,0292677
2821,3472;0,0294332
2822,3113;0,0296017
2823,2756;0,0297723
2824,2397;0,0299472
2825,2041;0,0301311
2826,1682;0,0303291
2827,1326;0,0305429
2828,0967;0,0307702
2829,0610;0,0310064
2830,0251;0,0312486
2830,9895;0,0314987
2831,9536;0,0317637
2832,9180;0,0320509
2833,8821;0,0323642
2834,8464;0,0327011
2835,8105;0,0330561
2836,7749;0,0334266
2837,7390;0,0338178
2838,7034;0,0342442
2839,6675;0,0347253
2840,6318;0,0352796
2841,5959;0,035919
2842,5603;0,0366459
2843,5244;0,0374521
2844,4888;0,0383174
2845,4529;0,0392085
2846,4172;0,0400785
2847,3813;0,0408721
2848,3457;0,0415352
2849,3098;0,0420278
2850,2742;0,0423334
2851,2383;0,0424611
2852,2026;0,0424386
2853,1667;0,0423016
2854,1311;0,0420843
2855,0952;0,0418141
2856,0596;0,0415131
2857,0237;0,041201
2857,9880;0,0408972
2858,9521;0,0406208
2859,9165;0,0403873
2860,8806;0,0402059
2861,8450;0,0400789
2862,8091;0,0400033
2863,7734;0,0399745
2864,7375;0,0399886
2865,7019;0,0400432
2866,6660;0,0401351
2867,6304;0,0402566
2868,5945;0,0403936
2869,5588;0,0405272
2870,5229;0,0406383
2871,4873;0,0407135
2872,4514;0,04075
2873,4158;0,0407557
2874,3799;0,040746
2875,3442;0,040738
2876,3083;0,0407453
2877,2727;0,0407761
2878,2368;0,0408325
2879,2012;0,0409128
2880,1653;0,041013
2881,1296;0,0411285
2882,0938;0,0412553
2883,0581;0,0413912
2884,0222;0,0415365
2884,9866;0,0416933
2885,9507;0,0418638
2886,9150;0,0420481
2887,8792;0,0422435
2888,8435;0,0424448
2889,8076;0,0426465
2890,7720;0,0428446
2891,7361;0,0430381
2892,7004;0,0432279
2893,6646;0,043416
2894,6289;0,0436042
2895,5930;0,043794
2896,5574;0,0439868
2897,5215;0,044184
2898,4858;0,0443855
2899,4500;0,0445896
2900,4143;0,0447918
2901,3784;0,0449871
2902,3428;0,0451728
2903,3069;0,0453511
2904,2712;0,0455301
2905,2354;0,0457225
2906,1997;0,0459423
2907,1638;0,0462027
2908,1282;0,046515
2909,0923;0,0468883
2910,0566;0,0473279
2911,0208;0,0478322
2911,9851;0,0483873
2912,9492;0,0489651
2913,9136;0,0495253
2914,8777;0,0500242
2915,8420;0,0504253
2916,8062;0,0507071
2917,7705;0,0508657
2918,7346;0,0509101
2919,6990;0,050855
2920,6631;0,0507143
2921,6274;0,0504985
2922,5916;0,0502151
2923,5559;0,0498706
2924,5200;0,0494719
2925,4844;0,0490268
2926,4485;0,0485441
2927,4128;0,0480339
2928,3770;0,0475071
2929,3413;0,046974
2930,3054;0,046442
2931,2698;0,0459132
2932,2339;0,0453854
2933,1982;0,0448546
2934,1624;0,0443195
2935,1267;0,0437833
2936,0908;0,0432541
2937,0552;0,0427411
2938,0193;0,0422513
2938,9836;0,0417872
2939,9478;0,0413466
2940,9121;0,0409249
2941,8762;0,040518
2942,8406;0,0401242
2943,8047;0,0397457
2944,7690;0,039388
2945,7332;0,0390585
2946,6975;0,0387646
2947,6616;0,0385105
2948,6260;0,0382956
2949,5901;0,0381134
2950,5544;0,0379525
2951,5186;0,0377998
2952,4829;0,0376436
2953,4470;0,0374766
2954,4114;0,0372966
2955,3755;0,0371052
2956,3398;0,0369047
2957,3040;0,0366957
2958,2683;0,0364757
2959,2324;0,0362412
2960,1968;0,0359894
2961,1609;0,03572
2962,1252;0,035436
2963,0894;0,0351415
2964,0537;0,0348404
2965,0178;0,0345352
2965,9822;0,0342273
2966,9463;0,0339185
2967,9106;0,0336114
2968,8748;0,0333091
2969,8391;0,0330146
2970,8032;0,0327293
2971,7676;0,0324533
2972,7317;0,0321861
2973,6960;0,0319277
2974,6602;0,0316793
2975,6245;0,0314434
2976,5886;0,0312224
2977,5530;0,0310182
2978,5171;0,0308316
2979,4814;0,0306623
2980,4456;0,0305092
2981,4099;0,0303702
2982,3740;0,0302431
2983,3384;0,0301257
2984,3025;0,030016
2985,2668;0,0299135
2986,2310;0,0298182
2987,1953;0,0297307
2988,1594;0,0296511
2989,1238;0,0295789
2990,0879;0,0295137
2991,0522;0,029456
2992,0164;0,0294075
2992,9807;0,0293711
2993,9448;0,0293489
2994,9092;0,029342
2995,8733;0,0293489
2996,8376;0,0293674
2997,8018;0,029394
2998,7661;0,0294254
2999,7302;0,0294587
3000,6946;0,0294912
3001,6587;0,029522
3002,6230;0,0295518
3003,5872;0,0295831
3004,5515;0,0296182
3005,5156;0,0296567
3006,4800;0,0296949
3007,4441;0,0297265
3008,4084;0,0297464
3009,3726;0,029754
3010,3369;0,0297543
3011,3010;0,0297559
3012,2654;0,0297667
3013,2295;0,0297892
3014,1938;0,0298212
3015,1580;0,0298576
3016,1223;0,0298958
3017,0864;0,0299376
3018,0508;0,0299879
3019,0149;0,0300507
3019,9792;0,030125
3020,9434;0,0302044
3021,9077;0,0302803
3022,8718;0,0303468
3023,8362;0,0304048
3024,8003;0,0304613
3025,7646;0,0305256
3026,7288;0,0306035
3027,6931;0,0306942
3028,6572;0,0307905
3029,6216;0,030883
3030,5857;0,0309645
3031,5500;0,0310332
3032,5142;0,0310927
3033,4785;0,03115
3034,4426;0,0312122
3035,4070;0,0312838
3036,3711;0,0313662
3037,3354;0,0314574
3038,2996;0,0315539
3039,2639;0,031652
3040,2280;0,031749
3041,1924;0,031845
3042,1565;0,0319418
3043,1208;0,032042
3044,0850;0,0321467
3045,0493;0,0322548
3046,0134;0,0323631
3046,9778;0,032468
3047,9419;0,0325684
3048,9063;0,0326664
3049,8704;0,0327665
3050,8347;0,0328728
3051,7988;0,0329861
3052,7632;0,033103
3053,7273;0,0332177
3054,6917;0,0333256
3055,6558;0,0334266
3056,6201;0,0335257
3057,5842;0,0336305
3058,5486;0,0337468
3059,5127;0,0338748
3060,4771;0,0340089
3061,4412;0,0341399
3062,4055;0,0342598
3063,3696;0,0343655
3064,3340;0,0344591
3065,2981;0,0345462
3066,2625;0,0346325
3067,2266;0,0347213
3068,1909;0,0348137
3069,1550;0,0349102
3070,1194;0,0350126
3071,0835;0,0351234
3072,0479;0,0352437
3073,0120;0,0353708
3073,9763;0,0354976
3074,9404;0,0356157
3075,9048;0,0357189
3076,8689;0,0358064
3077,8333;0,0358828
3078,7974;0,0359558
3079,7617;0,0360326
3080,7258;0,0361176
3081,6902;0,0362131
3082,6543;0,0363194
3083,6187;0,0364359
3084,5828;0,0365602
3085,5471;0,0366874
3086,5112;0,0368109
3087,4756;0,0369244
3088,4397;0,037025
3089,4041;0,0371149
3090,3682;0,0371999
3091,3325;0,0372873
3092,2966;0,0373831
3093,2610;0,0374898
3094,2251;0,0376066
3095,1895;0,0377297
3096,1536;0,0378535
3097,1179;0,0379715
3098,0820;0,0380795
3099,0464;0,0381768
3100,0105;0,0382687
3100,9749;0,0383641
3101,9390;0,0384724
3102,9033;0,0385983
3103,8674;0,038739
3104,8318;0,0388858
3105,7959;0,0390291
3106,7603;0,0391626
3107,7244;0,0392863
3108,6887;0,0394047
3109,6528;0,0395231
3110,6172;0,039644
3111,5813;0,039766
3112,5457;0,0398863
3113,5098;0,0400028
3114,4741;0,0401167
3115,4382;0,0402314
3116,4026;0,0403507
3117,3667;0,0404765
3118,3311;0,0406082
3119,2952;0,0407434
3120,2595;0,0408791
3121,2236;0,0410131
3122,1880;0,0411451
3123,1521;0,041276
3124,1165;0,0414074
3125,0806;0,0415403
3126,0449;0,0416746
3127,0090;0,0418089
3127,9734;0,0419418
3128,9375;0,0420732
3129,9019;0,0422059
3130,8660;0,0423445
3131,8303;0,0424932
3132,7944;0,0426528
3133,7588;0,0428192
3134,7229;0,0429846
3135,6873;0,0431418
3136,6514;0,0432874
3137,6157;0,0434235
3138,5798;0,043556
3139,5442;0,0436915
3140,5083;0,0438341
3141,4727;0,0439846
3142,4368;0,0441419
3143,4011;0,044305
3144,3652;0,0444738
3145,3296;0,0446483
3146,2937;0,0448264
3147,2581;0,045003
3148,2222;0,0451711
3149,1865;0,045325
3150,1506;0,0454634
3151,1150;0,0455906
3152,0791;0,0457155
3153,0435;0,0458478
3154,0076;0,0459935
3154,9719;0,0461536
3155,9360;0,0463244
3156,9004;0,0465007
3157,8645;0,0466782
3158,8289;0,0468556
3159,7930;0,0470334
3160,7573;0,0472126
3161,7214;0,0473919
3162,6858;0,0475685
3163,6499;0,0477384
3164,6143;0,0478992
3165,5784;0,0480511
3166,5427;0,0481965
3167,5068;0,0483401
3168,4712;0,0484869
3169,4353;0,0486265
3170,3997;0,0487932
3171,3638;0,048973
3172,3281;0,049163
3173,2922;0,0493559
3174,2566;0,0495426
3175,2207;0,0497154
3176,1851;0,0498722
3177,1492;0,0500185
3178,1135;0,0501644
3179,0776;0,0503197
3180,0420;0,050488
3181,0061;0,0506662
3181,9705;0,0508463
3182,9346;0,0510208
3183,8989;0,0511868
3184,8630;0,051346
3185,8274;0,0515027
3186,7915;0,0516609
3187,7559;0,0518223
3188,7200;0,0519876
3189,6843;0,0521568
3190,6484;0,0523298
3191,6128;0,0525057
3192,5769;0,0526818
3193,5413;0,0528545
3194,5054;0,0530211
3195,4697;0,0531811
3196,4338;0,0533368
3197,3982;0,0534916
3198,3623;0,0536479
3199,3267;0,0538058
3200,2908;0,0539644
3201,2551;0,0541223
3202,2192;0,0542791
3203,1836;0,0544351
3204,1477;0,0545906
3205,1121;0,0547465
3206,0762;0,0549044
3207,0405;0,0550671
3208,0046;0,0552372
3208,9690;0,0554142
3209,9331;0,0555934
3210,8975;0,0557676
3211,8616;0,0559302
3212,8259;0,0560796
3213,7900;0,0562198
3214,7544;0,0563572
3215,7185;0,0564961
3216,6829;0,0566359
3217,6470;0,056774
3218,6113;0,0569099
3219,5754;0,0570489
3220,5398;0,0572008
3221,5039;0,0573731
3222,4683;0,0575656
3223,4324;0,0577685
3224,3967;0,0579673
3225,3608;0,0581509
3226,3252;0,0583169
3227,2893;0,0584714
3228,2537;0,058624
3229,2178;0,0587804
3230,1821;0,0589398
3231,1462;0,0590965
3232,1106;0,0592458
3233,0747;0,0593878
3234,0391;0,0595282
3235,0032;0,0596747
3235,9675;0,059833
3236,9316;0,0600043
3237,8960;0,0601853
3238,8601;0,0603716
3239,8245;0,0605594
3240,7886;0,0607459
3241,7529;0,060929
3242,7170;0,0611063
3243,6814;0,061276
3244,6455;0,0614396
3245,6099;0,0616034
3246,5740;0,0617779
3247,5383;0,0619723
3248,5024;0,0621898
3249,4668;0,0624242
3250,4309;0,062662
3251,3953;0,0628892
3252,3594;0,063099
3253,3237;0,0632949
3254,2878;0,0634888
3255,2522;0,0636933
3256,2163;0,0639141
3257,1807;0,0641475
3258,1448;0,0643825
3259,1091;0,064608
3260,0732;0,0648179
3261,0376;0,065013
3262,0017;0,0651993
3262,9661;0,0653837
3263,9302;0,0655714
3264,8945;0,0657641
3265,8586;0,06596
3266,8230;0,0661551
3267,7871;0,0663443
3268,7515;0,0665228
3269,7156;0,0666866
3270,6799;0,0668332
3271,6440;0,0669615
3272,6084;0,0670711
3273,5725;0,0671627
3274,5369;0,0672385
3275,5010;0,0673037
3276,4653;0,067365
3277,4294;0,06743
3278,3938;0,0675033
3279,3579;0,0675841
3280,3223;0,0676671
3281,2864;0,0677442
3282,2507;0,06781
3283,2148;0,067865
3284,1792;0,0679151
3285,1433;0,0679682
3286,1077;0,0680282
3287,0718;0,068092
3288,0361;0,0681507
3289,0002;0,0681944
3289,9646;0,0682175
3290,9287;0,068222
3291,8931;0,0682148
3292,8572;0,0682035
3293,8215;0,0681921
3294,7856;0,0681803
3295,7500;0,0681663
3296,7141;0,0681497
3297,6785;0,0681329
3298,6426;0,0681199
3299,6069;0,0681129
3300,5710;0,0681114
3301,5354;0,0681119
3302,4995;0,0681102
3303,4639;0,068103
3304,4280;0,0680881
3305,3923;0,0680645
3306,3564;0,0680316
3307,3208;0,0679905
3308,2849;0,0679442
3309,2493;0,0678986
3310,2134;0,0678613
3311,1777;0,0678391
3312,1418;0,0678361
3313,1062;0,0678522
3314,0703;0,0678848
3315,0347;0,0679305
3315,9988;0,067987
3316,9631;0,0680542
3317,9272;0,0681324
3318,8916;0,0682201
3319,8557;0,0683131
3320,8201;0,068405
3321,7842;0,0684906
3322,7485;0,0685687
3323,7126;0,0686431
3324,6770;0,0687205
3325,6411;0,0688067
3326,6055;0,0689032
3327,5696;0,0690069
3328,5339;0,0691116
3329,4980;0,0692109
3330,4624;0,0692999
3331,4265;0,0693747
3332,3909;0,0694318
3333,3550;0,0694675
3334,3193;0,0694791
3335,2834;0,069466
3336,2478;0,0694298
3337,2119;0,069373
3338,1763;0,0692968
3339,1404;0,0692007
3340,1047;0,0690834
3341,0688;0,068946
3342,0332;0,0687939
3342,9973;0,0686355
3343,9617;0,0684793
3344,9258;0,0683298
3345,8901;0,0681851
3346,8542;0,0680386
3347,8186;0,0678822
3348,7827;0,0677102
3349,7471;0,0675205
3350,7112;0,067315
3351,6755;0,0670972
3352,6396;0,0668723
3353,6040;0,0666464
3354,5681;0,0664265
3355,5325;0,0662194
3356,4966;0,0660292
3357,4609;0,0658562
3358,4250;0,0656962
3359,3894;0,0655431
3360,3535;0,0653906
3361,3179;0,0652354
3362,2820;0,0650767
3363,2463;0,0649155
3364,2104;0,0647529
3365,1748;0,0645893
3366,1389;0,0644235
3367,1033;0,064254
3368,0674;0,0640789
3369,0317;0,0638977
3369,9958;0,0637118
3370,9602;0,0635249
3371,9243;0,0633427
3372,8887;0,0631704
3373,8528;0,0630109
3374,8171;0,0628633
3375,7813;0,0627229
3376,7456;0,062584
3377,7097;0,0624412
3378,6741;0,0622914
3379,6382;0,062133
3380,6025;0,0619647
3381,5667;0,0617858
3382,5310;0,0615982
3383,4951;0,0614085
3384,4595;0,0612288
3385,4236;0,0610727
3386,3879;0,0609489
3387,3521;0,060856
3388,3164;0,0607816
3389,2805;0,0607069
3390,2449;0,0606151
3391,2090;0,0604977
3392,1733;0,0603565
3393,1375;0,0602007
3394,1018;0,0600401
3395,0659;0,0598809
3396,0303;0,0597241
3396,9944;0,0595679
3397,9587;0,0594103
3398,9229;0,0592511
3399,8872;0,0590918
3400,8513;0,0589347
3401,8157;0,0587825
3402,7798;0,058636
3403,7441;0,0584939
3404,7083;0,0583521
3405,6726;0,0582054
3406,6367;0,0580499
3407,6011;0,0578843
3408,5652;0,0577097
3409,5295;0,0575277
3410,4937;0,0573384
3411,4580;0,0571419
3412,4221;0,0569401
3413,3865;0,0567383
3414,3506;0,0565428
3415,3149;0,0563561
3416,2791;0,0561736
3417,2434;0,0559842
3418,2075;0,0557765
3419,1719;0,055546
3420,1360;0,0552991
3421,1003;0,0550503
3422,0645;0,054815
3423,0288;0,0546016
3423,9929;0,054409
3424,9573;0,054229
3425,9214;0,0540509
3426,8857;0,0538652
3427,8499;0,0536667
3428,8142;0,053456
3429,7783;0,0532379
3430,7427;0,0530192
3431,7068;0,0528045
3432,6711;0,0525936
3433,6353;0,0523826
3434,5996;0,0521673
3435,5637;0,0519472
3436,5281;0,0517262
3437,4922;0,0515113
3438,4565;0,0513088
3439,4207;0,0511218
3440,3850;0,0509488
3441,3491;0,0507827
3442,3135;0,0506109
3443,2776;0,0504169
3444,2419;0,0501857
3445,2061;0,0499129
3446,1704;0,0496112
3447,1345;0,0493087
3448,0989;0,0490359
3449,0630;0,0488086
3450,0273;0,0486196
3450,9915;0,0484453
3451,9558;0,0482608
3452,9199;0,0480536
3453,8843;0,0478286
3454,8484;0,0476015
3455,8127;0,0473857
3456,7769;0,0471829
3457,7412;0,0469829
3458,7053;0,0467719
3459,6697;0,0465429
3460,6338;0,0462998
3461,5981;0,046054
3462,5623;0,0458158
3463,5266;0,0455874
3464,4907;0,0453625
3465,4551;0,0451331
3466,4192;0,0448962
3467,3835;0,0446572
3468,3477;0,0444261
3469,3120;0,0442091
3470,2761;0,0440027
3471,2405;0,0437953
3472,2046;0,0435757
3473,1689;0,0433421
3474,1331;0,043106
3475,0974;0,0428843
3476,0615;0,042687
3477,0259;0,0425083
3477,9900;0,0423289
3478,9543;0,0421288
3479,9185;0,0419018
3480,8828;0,0416607
3481,8469;0,0414292
3482,8113;0,0412242
3483,7754;0,0410416
3484,7397;0,0408591
3485,7039;0,0406515
3486,6682;0,0404079
3487,6323;0,0401408
3488,5967;0,0398796
3489,5608;0,0396522
3490,5251;0,0394668
3491,4893;0,0393069
3492,4536;0,0391429
3493,4177;0,0389512
3494,3821;0,0387308
3495,3462;0,0385063
3496,3105;0,0383127
3497,2747;0,0381694
3498,2390;0,038063
3499,2031;0,0379507
3500,1675;0,0377817
3501,1316;0,0375273
3502,0959;0,0372025
3503,0601;0,0368622
3504,0244;0,0365676
3504,9885;0,0363474
3505,9529;0,0361849
3506,9170;0,0360374
3507,8813;0,0358648
3508,8455;0,0356524
3509,8098;0,0354149
3510,7739;0,0351818
3511,7383;0,0349746
3512,7024;0,0347954
3513,6667;0,0346319
3514,6309;0,034471
3515,5952;0,0343086
3516,5593;0,0341498
3517,5237;0,0340015
3518,4878;0,0338647
3519,4521;0,033732
3520,4163;0,0335928
3521,3806;0,0334392
3522,3447;0,0332694
3523,3091;0,0330852
3524,2732;0,0328855
3525,2375;0,0326638
3526,2017;0,0324134
3527,1660;0,0321381
3528,1301;0,031858
3529,0945;0,0316041
3530,0586;0,0314011
3531,0229;0,0312523
3531,9871;0,0311364
3532,9514;0,0310182
3533,9155;0,0308656
3534,8799;0,0306649
3535,8440;0,030429
3536,8083;0,0301928
3537,7725;0,0299965
3538,7368;0,0298656
3539,7009;0,0297994
3540,6653;0,0297703
3541,6294;0,0297307
3542,5938;0,0296267
3543,5579;0,0294193
3544,5222;0,029111
3545,4863;0,0287559
3546,4507;0,0284326
3547,4148;0,0281941
3548,3792;0,0280377
3549,3433;0,0279161
3550,3076;0,0277718
3551,2717;0,0275722
3552,2361;0,0273293
3553,2002;0,0270914
3554,1646;0,0269066
3555,1287;0,0267893
3556,0930;0,0267145
3557,0571;0,026641
3558,0215;0,0265423
3558,9856;0,0264262
3559,9500;0,0263305
3560,9141;0,0262924
3561,8784;0,0263138
3562,8425;0,0263445
3563,8069;0,0262903
3564,7710;0,0260488
3565,7354;0,0255775
3566,6995;0,024965
3567,6638;0,0244032
3568,6279;0,0240401
3569,5923;0,0238867
3570,5564;0,0238593
3571,5208;0,0238612
3572,4849;0,0238273
3573,4492;0,0237355
3574,4133;0,0235976
3575,3777;0,0234386
3576,3418;0,0232751
3577,3062;0,0231093
3578,2703;0,0229416
3579,2346;0,0227876
3580,1987;0,0226795
3581,1631;0,0226452
3582,1272;0,0226812
3583,0916;0,0227391
3584,0557;0,0227325
3585,0200;0,022567
3585,9841;0,0221998
3586,9485;0,0217067
3587,9126;0,0212633
3588,8770;0,0210102
3589,8411;0,0209541
3590,8054;0,0210007
3591,7695;0,0210366
3592,7339;0,0209848
3593,6980;0,0208291
3594,6624;0,0206121
3595,6265;0,0203954
3596,5908;0,0202094
3597,5549;0,0200377
3598,5193;0,0198496
3599,4834;0,0196443
3600,4478;0,0194645
3601,4119;0,0193659
3602,3762;0,019369
3603,3403;0,0194388
3604,3047;0,0195038
3605,2688;0,0194912
3606,2332;0,0193615
3607,1973;0,0191302
3608,1616;0,01886
3609,1257;0,0186184
3610,0901;0,0184368
3611,0542;0,0183102
3612,0186;0,018225
3612,9827;0,0181775
3613,9470;0,0181669
3614,9111;0,018173
3615,8755;0,018144
3616,8396;0,0180096
3617,8040;0,0177236
3618,7681;0,0173206
3619,7324;0,0169303
3620,6965;0,0167026
3621,6609;0,0167056
3622,6250;0,0169024
3623,5894;0,0171938
3624,5535;0,0174568
3625,5178;0,0175563
3626,4819;0,0173613
3627,4463;0,0168228
3628,4104;0,0160928
3629,3748;0,0154792
3630,3389;0,0151757
3631,3032;0,0151365
3632,2673;0,0152091
3633,2317;0,0152726
3634,1958;0,0152781
3635,1602;0,0152351
3636,1243;0,0151776
3637,0886;0,0151305
3638,0527;0,0150961
3639,0171;0,0150658
3639,9812;0,0150431
3640,9456;0,0150534
3641,9097;0,0151314
3642,8740;0,0152955
3643,8381;0,0155261
3644,8025;0,0157534
3645,7666;0,0158501
3646,7310;0,0156417
3647,6951;0,0150084
3648,6594;0,0141027
3649,6235;0,0133559
3650,5879;0,0130587
3651,5520;0,0131427
3652,5164;0,0133825
3653,4805;0,0135834
3654,4448;0,0136337
3655,4089;0,0135178
3656,3733;0,0133122
3657,3374;0,0131322
3658,3018;0,013044
3659,2659;0,0130311
3660,2302;0,0130392
3661,1943;0,0130385
3662,1587;0,0130487
3663,1228;0,0131163
3664,0872;0,013265
3665,0513;0,0134616
3666,0156;0,0136221
3666,9797;0,0136495
3667,9441;0,0134981
3668,9082;0,0132374
3669,8726;0,0130336
3670,8367;0,013005
3671,8010;0,0131116
3672,7651;0,0131966
3673,7295;0,0130954
3674,6936;0,0127477
3675,6580;0,0122773
3676,6221;0,0119128
3677,5864;0,0117778
3678,5505;0,0118269
3679,5149;0,0119561
3680,4790;0,0120998
3681,4434;0,0122507
3682,4075;0,0124326
3683,3718;0,0126616
3684,3359;0,012917
3685,3003;0,0131346
3686,2644;0,013219
3687,2288;0,0130794
3688,1929;0,0127024
3689,1572;0,0122217
3690,1213;0,0118514
3691,0857;0,0117101
3692,0498;0,0117649
3693,0142;0,0119211
3693,9783;0,0121042
3694,9426;0,0122794
3695,9067;0,012437
3696,8711;0,0125699
3697,8352;0,0126578
3698,7996;0,0126666
3699,7637;0,0125681
3700,7280;0,0123729
3701,6921;0,0121495
3702,6565;0,0119978
3703,6206;0,0119899
3704,5850;0,012132
3705,5491;0,0123744
3706,5134;0,0126358
3707,4775;0,0128172
3708,4419;0,0128124
3709,4060;0,012548
3710,3704;0,0120662
3711,3345;0,0115611
3712,2988;0,0112509
3713,2629;0,0112133
3714,2273;0,0113838
3715,1914;0,0116507
3716,1558;0,0119194
3717,1199;0,0121313
3718,0842;0,0122648
3719,0483;0,0123293
3720,0127;0,0123511
3720,9768;0,0123498
3721,9412;0,0123213
3722,9053;0,0122467
3723,8696;0,0121214
3724,8337;0,0119801
3725,7981;0,0118877
3726,7622;0,0119001
3727,7266;0,0120325
3728,6907;0,01226
3729,6550;0,0125346
3730,6191;0,0127971
3731,5835;0,0129738
3732,5476;0,0129751
3733,5120;0,0127296
3734,4761;0,0122719
3735,4404;0,0117926
3736,4045;0,0115218
3737,3689;0,0115566
3738,3330;0,0118379
3739,2974;0,0122332
3740,2615;0,0125985
3741,2258;0,0128021
3742,1899;0,0127507
3743,1543;0,0124609
3744,1184;0,0121197
3745,0828;0,011975
3746,0469;0,0121078
3747,0112;0,0123816
3747,9753;0,0125693
3748,9397;0,0124742
3749,9038;0,0120465
3750,8682;0,011486
3751,8323;0,0111214
3752,7966;0,0111072
3753,7607;0,0113515
3754,7251;0,0116736
3755,6892;0,011923
3756,6536;0,0120143
3757,6177;0,0119424
3758,5820;0,0117856
3759,5461;0,0116596
3760,5105;0,0116387
3761,4746;0,0117206
3762,4390;0,0118536
3763,4031;0,0119811
3764,3674;0,0120649
3765,3315;0,0120886
3766,2959;0,0120483
3767,2600;0,0119434
3768,2244;0,0117791
3769,1885;0,0115821
3770,1528;0,0114103
3771,1169;0,011332
3772,0813;0,011386
3773,0454;0,0115581
3774,0098;0,0117897
3774,9739;0,0120031
3775,9382;0,0121266
3776,9023;0,01212
3777,8667;0,0119986
3778,8308;0,011834
3779,7952;0,0117112
3780,7593;0,0116719
3781,7236;0,0116993
3782,6877;0,0117465
3783,6521;0,011771
3784,6162;0,0117542
3785,5806;0,0117046
3786,5447;0,0116496
3787,5090;0,0116207
3788,4731;0,0116417
3789,4375;0,0117198
3790,4016;0,0118428
3791,3660;0,0119829
3792,3301;0,0121085
3793,2944;0,0122002
3794,2585;0,0122626
3795,2229;0,0123197
3796,1870;0,0123887
3797,1514;0,0124517
3798,1155;0,0124517
3799,0798;0,0123286
3800,0439;0,0120814
3801,0083;0,0118059
3801,9724;0,0116367
3802,9368;0,0116278
3803,9009;0,0117085
3804,8652;0,0117526
3805,8293;0,0116772
3806,7937;0,0115107
3807,7578;0,0113832
3808,7222;0,011422
3809,6863;0,0116489
3810,6506;0,0119824
3811,6147;0,0123022
3812,5791;0,0125053
3813,5432;0,0125444
3814,5076;0,0124571
3815,4717;0,0123523
3816,4360;0,0123223
3817,4001;0,0123567
3818,3645;0,0123556
3819,3286;0,0122228
3820,2930;0,0119608
3821,2571;0,0116894
3822,2214;0,0115456
3823,1855;0,0115704
3824,1499;0,011707
3825,1140;0,011872
3826,0784;0,0120077
3827,0425;0,012097
3828,0068;0,012152
3828,9709;0,0121939
3829,9353;0,0122383
3830,8994;0,0122925
3831,8638;0,0123602
3832,8279;0,0124422
3833,7922;0,0125285
3834,7563;0,0125896
3835,7207;0,0125811
3836,6848;0,0124677
3837,6492;0,0122579
3838,6133;0,0120132
3839,5776;0,0118072
3840,5417;0,0116732
3841,5061;0,0115985
3842,4702;0,0115606
3843,4346;0,0115615
3844,3987;0,0116329
3845,3630;0,0118138
3846,3271;0,0121199
3847,2915;0,0125289
3848,2556;0,0129798
3849,2200;0,0133723
3850,1841;0,013558
3851,1484;0,01335
3852,1125;0,0126475
3853,0769;0,0116824
3854,0410;0,0109624
3855,0054;0,0107628
3855,9695;0,0109741
3856,9338;0,0113793
3857,8979;0,0118217
3858,8623;0,0122104
3859,8264;0,0124885
3860,7908;0,0126209
3861,7549;0,0126069
3862,7192;0,0124995
3863,6833;0,0123905
3864,6477;0,0123538
3865,6118;0,0124003
3866,5762;0,0124835
3867,5403;0,0125368
3868,5046;0,0125063
3869,4688;0,0123749
3870,4331;0,0121728
3871,3972;0,0119662
3872,3616;0,0118261
3873,3257;0,0117967
3874,2900;0,0118826
3875,2542;0,0120533
3876,2185;0,0122551
3877,1826;0,012429
3878,1470;0,0125298
3879,1111;0,0125461
3880,0754;0,0125038
3881,0396;0,0124415
3882,0039;0,0123741
3882,9680;0,0122872
3883,9324;0,0121723
3884,8965;0,0120609
3885,8608;0,0120142
3886,8250;0,0120683
3887,7893;0,0121927
3888,7534;0,012302
3889,7178;0,0123086
3890,6819;0,0121876
3891,6462;0,012014
3892,6104;0,01192
3893,5747;0,0119907
3894,5388;0,0122108
3895,5032;0,0124997
3896,4673;0,0127674
3897,4316;0,0129472
3898,3958;0,0130086
3899,3601;0,0129552
3900,3242;0,0128074
3901,2886;0,012583
3902,2527;0,0123019
3903,2170;0,0120091
3904,1812;0,0117737
3905,1455;0,0116508
3906,1096;0,0116473
3907,0740;0,0117264
3908,0381;0,0118394
3909,0024;0,0119519
3909,9666;0,0120544
3910,9309;0,0121565
3911,8950;0,0122694
3912,8594;0,0123882
3913,8235;0,0124855
3914,7878;0,0125225
3915,7520;0,0124753
3916,7163;0,012362
3917,6804;0,0122427
3918,6448;0,0121826
3919,6089;0,0122054
3920,5732;0,0122813
3921,5374;0,0123522
3922,5017;0,0123701
3923,4658;0,0123279
3924,4302;0,0122654
3925,3943;0,0122404
3926,3586;0,0122846
3927,3228;0,0123815
3928,2871;0,0124778
3929,2512;0,0125143
3930,2156;0,012458
3931,1797;0,0123238
3932,1440;0,0121679
3933,1082;0,0120537
3934,0725;0,0120162
3935,0366;0,0120551
3936,0010;0,0121491
3936,9651;0,01227
3937,9294;0,0123893
3938,8936;0,0124797
3939,8579;0,0125201
3940,8220;0,0125055
3941,7864;0,0124554
3942,7505;0,0124074
3943,7148;0,0123944
3944,6790;0,0124226
3945,6433;0,0124672
3946,6074;0,0124885
3947,5718;0,0124573
3948,5359;0,0123737
3949,5002;0,0122694
3950,4644;0,0121869
3951,4287;0,0121539
3952,3928;0,0121712
3953,3572;0,0122203
3954,3213;0,0122784
3955,2856;0,0123292
3956,2498;0,0123652
3957,2141;0,0123844
3958,1782;0,0123863
3959,1426;0,0123708
3960,1067;0,012341
3961,0710;0,0123051
3962,0352;0,0122754
3962,9995;0,012262
3963,9636;0,0122683
3964,9280;0,0122895
3965,8921;0,0123164
3966,8564;0,0123405
3967,8206;0,0123581
3968,7849;0,0123698
3969,7490;0,0123784
3970,7134;0,0123848
3971,6775;0,0123872
3972,6418;0,0123823
3973,6060;0,0123693
3974,5703;0,0123522
3975,5344;0,0123384
3976,4988;0,0123347
3977,4629;0,0123426
3978,4272;0,012357
3979,3914;0,012369
3980,3557;0,0123711
3981,3198;0,0123615
3982,2842;0,0123458
3983,2483;0,0123339
3984,2126;0,012335
3985,1768;0,0123526
3986,1411;0,0123833
3987,1052;0,0124185
3988,0696;0,0124478
3989,0337;0,0124627
3989,9980;0,0124594
3990,9622;0,0124395
3991,9265;0,0124091
3992,8906;0,0123766
3993,8550;0,0123509
3994,8191;0,0123388
3995,7834;0,0123427
3996,7476;0,0123602
3997,7119;0,0123847
3998,6760;0,0124086
3999,6404;0,0124265
4000,6045;0,0124347

##### Extended Information
[Comments]
Sample name
Comment
Username
Division
Organization;UNIVERSIDAD INDUSTRIAL DE SANTANDER

[Detailed Information]
Creation date;4/02/2025 12:36 p.m.

Data array type;Linear data array
Horizontal axis;Wavenumber [cm-1]
Vertical axis;Abs
Start;399,193 cm-1
End;4000,6 cm-1
Data interval;0,964233 cm-1
Data points;3736    

[Measurement Information]
Model name;FT/IR-4X1typeA
Serial No.;A035162111

Accessory;ATR PRO 4X
Accessory S/N;A021162126
Incident angle;45 deg

Measurement date;4/02/2025 12:36 p.m.

Light source;Standard
Detector;TGS
Accumulation;Auto (74)
Resolution;4 cm-1
Zero filling;On
Apodization;Cosine
Gain;Auto (8)
Aperture;Auto (7 mm)
Scan speed;Auto (2 mm/sec)
Filter;Auto (12800 Hz)

