TITLE;
DATA TYPE;INFRARED SPECTRUM
ORIGIN;JASCO
OWNER;
DATE;25/02/04
TIME;11:19:04
SPECTROMETER/DATA SYSTEM;
LOCALE;9226
RESOLUTION;
DELTAX;0,964233
XUNITS;1/CM
YUNITS;ABSORBANCE
FIRSTX;  399,1927
LASTX; 4000,6047
NPOINTS;    3736
FIRSTY;     0,09456
MAXY;     0,12815
MINY;     0,00314
XYDATA
399,1927;0,0945636
400,1569;0,0951991
401,1211;0,0955888
402,0854;0,0955957
403,0496;0,0952488
404,0138;0,0946858
404,9781;0,094086
405,9423;0,0935958
406,9065;0,0932677
407,8708;0,0930628
408,8350;0,0929277
409,7992;0,0928814
410,7635;0,0930287
411,7277;0,093473
412,6919;0,0941971
413,6562;0,0950275
414,6204;0,0957013
415,5846;0,0959597
416,5489;0,0956362
417,5131;0,094806
418,4773;0,0939577
419,4416;0,0938057
420,4058;0,0946423
421,3700;0,0961277
422,3343;0,0977518
423,2985;0,0991713
424,2627;0,100229
425,2270;0,100891
426,1912;0,101215
427,1554;0,101308
428,1197;0,101289
429,0839;0,101253
430,0481;0,101269
431,0124;0,101391
431,9766;0,101655
432,9408;0,102063
433,9051;0,10256
434,8693;0,103033
435,8335;0,103348
436,7978;0,103417
437,7620;0,103255
438,7262;0,102978
439,6905;0,10275
440,6547;0,102715
441,6189;0,102944
442,5832;0,103407
443,5474;0,103983
444,5116;0,104521
445,4759;0,104907
446,4401;0,105095
447,4043;0,10509
448,3686;0,104936
449,3328;0,104705
450,2970;0,10449
451,2613;0,104386
452,2255;0,104438
453,1897;0,104612
454,1540;0,104812
455,1182;0,104927
456,0824;0,104903
457,0467;0,104791
458,0109;0,104732
458,9751;0,104851
459,9394;0,105158
460,9036;0,105545
461,8678;0,105882
462,8321;0,106091
463,7963;0,106164
464,7605;0,106145
465,7248;0,106088
466,6890;0,106021
467,6532;0,105941
468,6175;0,105841
469,5817;0,10573
470,5459;0,105648
471,5102;0,105637
472,4744;0,105711
473,4386;0,105833
474,4029;0,105943
475,3671;0,105995
476,3313;0,105984
477,2956;0,105928
478,2598;0,10585
479,2240;0,105763
480,1883;0,105675
481,1525;0,105592
482,1167;0,10553
483,0810;0,105506
484,0452;0,105525
485,0094;0,105568
485,9737;0,105599
486,9379;0,105583
487,9021;0,10551
488,8664;0,105402
489,8306;0,105313
490,7948;0,105305
491,7591;0,10542
492,7233;0,105646
493,6875;0,105905
494,6518;0,106077
495,6160;0,106055
496,5802;0,105793
497,5445;0,105331
498,5087;0,104792
499,4729;0,104339
500,4372;0,10412
501,4014;0,104192
502,3656;0,10449
503,3299;0,104855
504,2941;0,10513
505,2583;0,105233
506,2226;0,105185
507,1868;0,105063
508,1510;0,104947
509,1153;0,104882
510,0795;0,104877
511,0437;0,104933
512,0080;0,105059
512,9722;0,105278
513,9365;0,105594
514,9007;0,105976
515,8649;0,106353
516,8292;0,106643
517,7934;0,106797
518,7576;0,106819
519,7219;0,106749
520,6861;0,106628
521,6503;0,106468
522,6146;0,106271
523,5788;0,106049
524,5430;0,105837
525,5073;0,105676
526,4715;0,105582
527,4357;0,105527
528,4000;0,10546
529,3642;0,105343
530,3284;0,105176
531,2927;0,104986
532,2569;0,104804
533,2211;0,104641
534,1854;0,10449
535,1496;0,10434
536,1138;0,104191
537,0781;0,10406
538,0423;0,10397
539,0065;0,103932
539,9708;0,103945
540,9350;0,103996
541,8992;0,104071
542,8635;0,104157
543,8277;0,104249
544,7919;0,10435
545,7562;0,10448
546,7204;0,104666
547,6846;0,10493
548,6489;0,105271
549,6131;0,105653
550,5773;0,106024
551,5416;0,106332
552,5058;0,106554
553,4700;0,106698
554,4343;0,106784
555,3985;0,106824
556,3627;0,106803
557,3270;0,10668
558,2912;0,106407
559,2554;0,105948
560,2197;0,105291
561,1839;0,104454
562,1481;0,103485
563,1124;0,102455
564,0766;0,101448
565,0408;0,100543
566,0051;0,0997965
566,9693;0,0992252
567,9335;0,0988037
568,8978;0,0984755
569,8620;0,0981787
570,8262;0,0978742
571,7905;0,0975582
572,7547;0,0972541
573,7189;0,0969924
574,6832;0,0967901
575,6474;0,0966412
576,6116;0,0965233
577,5759;0,0964138
578,5401;0,0963044
579,5043;0,0962011
580,4686;0,0961132
581,4328;0,0960412
582,3970;0,0959747
583,3613;0,0959022
584,3255;0,0958239
585,2897;0,0957555
586,2540;0,095719
587,2182;0,0957268
588,1824;0,0957702
589,1467;0,0958218
590,1109;0,0958489
591,0751;0,095831
592,0394;0,0957716
593,0036;0,0956951
593,9678;0,0956302
594,9321;0,0955909
595,8963;0,0955668
596,8605;0,0955271
597,8248;0,0954351
598,7890;0,0952658
599,7532;0,095019
600,7175;0,0947201
601,6817;0,0944075
602,6459;0,0941155
603,6102;0,093862
604,5744;0,093647
605,5386;0,0934572
606,5029;0,0932736
607,4671;0,0930772
608,4313;0,0928539
609,3956;0,0925975
610,3598;0,0923141
611,3240;0,0920203
612,2883;0,0917368
613,2525;0,091477
614,2167;0,0912361
615,1810;0,0909881
616,1452;0,0906934
617,1094;0,0903146
618,0737;0,0898348
619,0379;0,0892639
620,0021;0,0886302
620,9664;0,0879667
621,9306;0,0873023
622,8948;0,086663
623,8591;0,086075
624,8233;0,0855614
625,7875;0,0851431
626,7518;0,0848221
627,7160;0,0845815
628,6802;0,0843892
629,6445;0,0842063
630,6087;0,0839965
631,5729;0,0837362
632,5372;0,0834221
633,5014;0,0830723
634,4656;0,0827187
635,4299;0,0823926
636,3941;0,0821102
637,3583;0,0818674
638,3226;0,0816472
639,2868;0,0814341
640,2510;0,0812241
641,2153;0,0810261
642,1795;0,0808536
643,1437;0,0807138
644,1080;0,0806009
645,0722;0,0804974
646,0364;0,0803815
647,0007;0,0802375
647,9649;0,0800629
648,9291;0,079872
649,8934;0,0796912
650,8576;0,0795485
651,8218;0,0794615
652,7861;0,0794331
653,7503;0,0794555
654,7145;0,0795191
655,6788;0,0796204
656,6430;0,0797614
657,6072;0,0799398
658,5715;0,0801341
659,5357;0,0802968
660,4999;0,0803686
661,4642;0,0803144
662,4284;0,0801503
663,3926;0,0799346
664,3569;0,0797374
665,3211;0,0796181
666,2853;0,0795988
667,2496;0,0795988
668,2138;0,0793859
669,1780;0,0787764
670,1423;0,0778941
671,1065;0,0769685
672,0707;0,0760889
673,0350;0,0752407
673,9992;0,0743953
674,9634;0,0735454
675,9277;0,0727037
676,8919;0,0718859
677,8561;0,071099
678,8204;0,0703468
679,7846;0,0696438
680,7488;0,0690183
681,7131;0,0684988
682,6773;0,068093
683,6415;0,0677806
684,6058;0,0675238
685,5700;0,0672858
686,5342;0,0670433
687,4985;0,0667899
688,4627;0,0665328
689,4269;0,0662846
690,3912;0,066057
691,3554;0,0658552
692,3196;0,0656759
693,2839;0,0655097
694,2481;0,0653456
695,2123;0,065176
696,1766;0,0649989
697,1408;0,0648168
698,1050;0,0646343
699,0693;0,0644543
700,0335;0,064275
700,9977;0,0640875
701,9620;0,0638754
702,9262;0,0636186
703,8904;0,0633013
704,8547;0,0629227
705,8189;0,0625005
706,7831;0,0620671
707,7474;0,0616562
708,7116;0,0612878
709,6758;0,0609593
710,6401;0,0606485
711,6043;0,0603272
712,5685;0,0599776
713,5328;0,0596031
714,4970;0,0592248
715,4612;0,0588246
716,4255;0,0584966
717,3897;0,0581729
718,3539;0,0578087
719,3182;0,0573597
720,2824;0,0568099
721,2466;0,0561846
722,2109;0,0555374
723,1751;0,05492
724,1393;0,0543596
725,1036;0,0538553
726,0678;0,0533891
727,0320;0,0529419
727,9963;0,0525028
728,9605;0,0520725
729,9247;0,051659
730,8890;0,0512726
731,8532;0,0509205
732,8174;0,0506039
733,7817;0,0503169
734,7459;0,0500477
735,7101;0,0497843
736,6744;0,0495193
737,6386;0,0492532
738,6028;0,0489923
739,5671;0,0487431
740,5313;0,0485077
741,4955;0,0482827
742,4598;0,048063
743,4240;0,0478458
744,3882;0,0476315
745,3525;0,0474218
746,3167;0,0472159
747,2809;0,0470097
748,2452;0,0467974
749,2094;0,0465744
750,1736;0,0463393
751,1379;0,0460935
752,1021;0,0458405
753,0663;0,0455842
754,0306;0,04533
754,9948;0,0450842
755,9590;0,0448527
756,9233;0,0446384
757,8875;0,0444396
758,8517;0,0442502
759,8160;0,0440638
760,7802;0,0438767
761,7444;0,0436904
762,7087;0,0435099
763,6729;0,0433385
764,6371;0,0431747
765,6014;0,043011
766,5656;0,0428374
767,5298;0,0426472
768,4941;0,0424419
769,4583;0,0422318
770,4225;0,0420317
771,3868;0,0418548
772,3510;0,0417051
773,3152;0,0415758
774,2795;0,0414519
775,2437;0,0413173
776,2079;0,0411624
777,1722;0,0409874
778,1364;0,0408011
779,1006;0,0406139
780,0649;0,040432
781,0291;0,040256
781,9933;0,0400832
782,9576;0,0399131
783,9218;0,0397495
784,8860;0,039599
785,8503;0,0394654
786,8145;0,0393461
787,7787;0,0392332
788,7430;0,0391176
789,7072;0,0389941
790,6714;0,0388634
791,6357;0,0387296
792,5999;0,0385965
793,5641;0,0384662
794,5284;0,0383398
795,4926;0,0382206
796,4568;0,0381138
797,4211;0,0380238
798,3853;0,0379502
799,3495;0,0378856
800,3138;0,0378185
801,2780;0,0377395
802,2422;0,0376473
803,2065;0,03755
804,1707;0,0374612
805,1349;0,037393
806,0992;0,0373484
807,0634;0,0373201
808,0276;0,0372938
808,9919;0,0372552
809,9561;0,0371973
810,9203;0,0371227
811,8846;0,037042
812,8488;0,036968
813,8130;0,0369104
814,7773;0,0368731
815,7415;0,036855
816,7057;0,0368531
817,6700;0,0368647
818,6342;0,0368866
819,5984;0,0369136
820,5627;0,0369371
821,5269;0,0369467
822,4911;0,0369342
823,4554;0,0368975
824,4196;0,036843
825,3839;0,0367828
826,3481;0,0367298
827,3123;0,0366917
828,2766;0,036668
829,2408;0,0366517
830,2050;0,0366327
831,1693;0,0366028
832,1335;0,0365581
833,0977;0,0364985
834,0620;0,0364248
835,0262;0,0363374
835,9904;0,0362353
836,9547;0,0361175
837,9189;0,0359845
838,8831;0,0358398
839,8474;0,0356897
840,8116;0,0355431
841,7758;0,0354105
842,7401;0,035302
843,7043;0,0352247
844,6685;0,0351789
845,6328;0,0351571
846,5970;0,0351459
847,5612;0,0351311
848,5255;0,0351038
849,4897;0,035062
850,4539;0,0350097
851,4182;0,0349519
852,3824;0,034893
853,3466;0,0348376
854,3109;0,0347925
855,2751;0,0347678
856,2393;0,0347726
857,2036;0,0348088
858,1678;0,0348688
859,1320;0,034938
860,0963;0,0350035
861,0605;0,0350612
862,0247;0,0351175
862,9890;0,035184
863,9532;0,035269
864,9174;0,0353725
865,8817;0,0354869
866,8459;0,0356039
867,8101;0,0357204
868,7744;0,035841
869,7386;0,0359745
870,7028;0,0361281
871,6671;0,0363022
872,6313;0,0364895
873,5955;0,0366783
874,5598;0,0368583
875,5240;0,0370254
876,4882;0,0371833
877,4525;0,0373424
878,4167;0,0375157
879,3809;0,037715
880,3452;0,0379488
881,3094;0,0382227
882,2736;0,0385397
883,2379;0,0389009
884,2021;0,0393062
885,1663;0,0397535
886,1306;0,0402395
887,0948;0,0407598
888,0590;0,0413088
889,0233;0,0418786
889,9875;0,0424574
890,9517;0,0430285
891,9160;0,043571
892,8802;0,0440626
893,8444;0,0444824
894,8087;0,0448151
895,7729;0,0450527
896,7371;0,0451958
897,7014;0,0452506
898,6656;0,045226
899,6298;0,0451294
900,5941;0,0449654
901,5583;0,0447393
902,5225;0,0444614
903,4868;0,0441507
904,4510;0,0438332
905,4152;0,0435352
906,3795;0,0432744
907,3437;0,0430565
908,3079;0,0428768
909,2722;0,0427284
910,2364;0,0426086
911,2007;0,0425214
912,1649;0,0424741
913,1292;0,0424724
914,0934;0,0425171
915,0576;0,0426051
916,0219;0,0427316
916,9861;0,0428925
917,9503;0,0430838
918,9146;0,0433001
919,8788;0,0435339
920,8430;0,0437764
921,8073;0,0440199
922,7715;0,0442595
923,7357;0,0444931
924,7000;0,0447196
925,6642;0,0449378
926,6284;0,0451447
927,5927;0,0453373
928,5569;0,045514
929,5211;0,0456772
930,4854;0,0458342
931,4496;0,0459967
932,4138;0,0461779
933,3781;0,0463884
934,3423;0,0466342
935,3065;0,046917
936,2708;0,0472361
937,2350;0,0475918
938,1992;0,047986
939,1635;0,0484211
940,1277;0,0488979
941,0919;0,0494137
942,0562;0,0499649
943,0204;0,0505492
943,9846;0,0511685
944,9489;0,0518285
945,9131;0,052536
946,8773;0,0532956
947,8416;0,0541071
948,8058;0,0549662
949,7700;0,0558664
950,7343;0,0568015
951,6985;0,0577676
952,6627;0,0587633
953,6270;0,0597892
954,5912;0,0608467
955,5554;0,0619363
956,5197;0,0630575
957,4839;0,0642082
958,4481;0,0653855
959,4124;0,0665867
960,3766;0,0678093
961,3408;0,0690504
962,3051;0,0703052
963,2693;0,0715672
964,2335;0,0728286
965,1978;0,0740838
966,1620;0,0753324
967,1262;0,0765821
968,0905;0,0778491
969,0547;0,0791549
970,0189;0,0805219
970,9832;0,0819679
971,9474;0,0835028
972,9116;0,0851284
973,8759;0,0868411
974,8401;0,0886361
975,8043;0,0905081
976,7686;0,0924498
977,7328;0,0944456
978,6970;0,0964658
979,6613;0,0984638
980,6255;0,10038
981,5897;0,102153
982,5540;0,103729
983,5182;0,105078
984,4824;0,106195
985,4467;0,107104
986,4109;0,107849
987,3751;0,108478
988,3394;0,109038
989,3036;0,109559
990,2678;0,110057
991,2321;0,110532
992,1963;0,110978
993,1605;0,111389
994,1248;0,111765
995,0890;0,112112
996,0532;0,112437
997,0175;0,112743
997,9817;0,11303
998,9459;0,113298
999,9102;0,113549
1000,8744;0,113799
1001,8386;0,114069
1002,8029;0,114387
1003,7671;0,114775
1004,7313;0,115248
1005,6956;0,11581
1006,6598;0,116459
1007,6240;0,11719
1008,5883;0,117995
1009,5525;0,118863
1010,5167;0,119775
1011,4810;0,120705
1012,4452;0,121623
1013,4094;0,122499
1014,3737;0,123308
1015,3379;0,124036
1016,3021;0,124672
1017,2664;0,125215
1018,2306;0,125669
1019,1948;0,126045
1020,1591;0,126362
1021,1233;0,126641
1022,0875;0,1269
1023,0518;0,127148
1024,0160;0,127386
1024,9802;0,127608
1025,9445;0,127804
1026,9087;0,127966
1027,8729;0,128086
1028,8372;0,128152
1029,8014;0,128144
1030,7656;0,128028
1031,7299;0,127763
1032,6941;0,127309
1033,6583;0,12664
1034,6226;0,125762
1035,5868;0,124717
1036,5510;0,12358
1037,5153;0,122446
1038,4795;0,121412
1039,4437;0,120552
1040,4080;0,119913
1041,3722;0,119504
1042,3364;0,119304
1043,3007;0,11927
1044,2649;0,11935
1045,2291;0,119487
1046,1934;0,119636
1047,1576;0,119761
1048,1218;0,119843
1049,0861;0,119865
1050,0503;0,119813
1051,0145;0,119668
1051,9788;0,119406
1052,9430;0,119013
1053,9072;0,118481
1054,8715;0,117813
1055,8357;0,117008
1056,7999;0,116058
1057,7642;0,114938
1058,7284;0,113624
1059,6926;0,112108
1060,6569;0,110413
1061,6211;0,108593
1062,5853;0,106724
1063,5496;0,10488
1064,5138;0,103116
1065,4780;0,101467
1066,4423;0,0999472
1067,4065;0,0985562
1068,3707;0,0972872
1069,3350;0,0961253
1070,2992;0,0950473
1071,2634;0,0940221
1072,2277;0,0930144
1073,1919;0,0919901
1074,1561;0,0909226
1075,1204;0,0897968
1076,0846;0,0886132
1077,0488;0,0873884
1078,0131;0,0861547
1078,9773;0,0849543
1079,9415;0,0838315
1080,9058;0,0828228
1081,8700;0,0819498
1082,8342;0,0812171
1083,7985;0,0806151
1084,7627;0,0801266
1085,7269;0,0797319
1086,6912;0,079413
1087,6554;0,0791553
1088,6196;0,0789482
1089,5839;0,0787854
1090,5481;0,0786657
1091,5123;0,0785921
1092,4766;0,0785703
1093,4408;0,0786056
1094,4050;0,0786992
1095,3693;0,078846
1096,3335;0,0790341
1097,2977;0,0792456
1098,2620;0,0794602
1099,2262;0,0796563
1100,1904;0,0798141
1101,1547;0,0799163
1102,1189;0,0799508
1103,0831;0,0799126
1104,0474;0,0798061
1105,0116;0,0796438
1105,9758;0,0794414
1106,9401;0,079209
1107,9043;0,0789419
1108,8685;0,0786166
1109,8328;0,0781939
1110,7970;0,0776302
1111,7612;0,0768944
1112,7255;0,0759817
1113,6897;0,0749201
1114,6539;0,0737663
1115,6182;0,0725914
1116,5824;0,0714626
1117,5466;0,0704258
1118,5109;0,0694959
1119,4751;0,0686556
1120,4393;0,067863
1121,4036;0,0670652
1122,3678;0,066213
1123,3320;0,0652718
1124,2963;0,0642271
1125,2605;0,0630833
1126,2247;0,0618576
1127,1890;0,060574
1128,1532;0,0592578
1129,1174;0,0579331
1130,0817;0,056621
1131,0459;0,0553389
1132,0101;0,0541013
1132,9744;0,0529206
1133,9386;0,051811
1134,9028;0,0507905
1135,8671;0,0498817
1136,8313;0,049109
1137,7955;0,0484941
1138,7598;0,0480501
1139,7240;0,0477796
1140,6882;0,0476736
1141,6525;0,047714
1142,6167;0,047876
1143,5809;0,0481315
1144,5452;0,0484529
1145,5094;0,0488182
1146,4736;0,0492133
1147,4379;0,0496334
1148,4021;0,0500791
1149,3663;0,0505509
1150,3306;0,0510437
1151,2948;0,0515448
1152,2590;0,0520355
1153,2233;0,0524947
1154,1875;0,0529022
1155,1517;0,053238
1156,1160;0,0534803
1157,0802;0,0536016
1158,0444;0,053568
1159,0087;0,0533401
1159,9729;0,0528784
1160,9371;0,0521498
1161,9014;0,0511351
1162,8656;0,0498356
1163,8298;0,0482767
1164,7941;0,0465081
1165,7583;0,0445995
1166,7225;0,0426313
1167,6868;0,0406838
1168,6510;0,0388249
1169,6152;0,0371028
1170,5795;0,0355431
1171,5437;0,034152
1172,5079;0,0329238
1173,4722;0,0318473
1174,4364;0,0309099
1175,4006;0,0300985
1176,3649;0,0293995
1177,3291;0,0287985
1178,2933;0,0282819
1179,2576;0,0278382
1180,2218;0,0274586
1181,1860;0,0271363
1182,1503;0,0268664
1183,1145;0,0266459
1184,0787;0,0264745
1185,0430;0,0263548
1186,0072;0,0262912
1186,9714;0,0262871
1187,9357;0,0263428
1188,8999;0,0264555
1189,8641;0,0266205
1190,8284;0,0268335
1191,7926;0,0270921
1192,7568;0,0273951
1193,7211;0,0277413
1194,6853;0,0281281
1195,6495;0,0285499
1196,6138;0,0289974
1197,5780;0,0294581
1198,5422;0,0299168
1199,5065;0,0303686
1200,4707;0,0307816
1201,4349;0,0311604
1202,3992;0,0315033
1203,3634;0,0318104
1204,3276;0,0320809
1205,2919;0,0323126
1206,2561;0,0325048
1207,2203;0,032662
1208,1846;0,0327966
1209,1488;0,0329287
1210,1130;0,0330822
1211,0773;0,0332792
1212,0415;0,0335356
1213,0057;0,0338587
1213,9700;0,0342462
1214,9342;0,034688
1215,8984;0,0351684
1216,8627;0,0356696
1217,8269;0,0361757
1218,7911;0,0366752
1219,7554;0,037163
1220,7196;0,0376386
1221,6838;0,0381033
1222,6481;0,0385569
1223,6123;0,0389957
1224,5765;0,0394135
1225,5408;0,0398044
1226,5050;0,0401651
1227,4692;0,040496
1228,4335;0,0407997
1229,3977;0,0410784
1230,3619;0,0413317
1231,3262;0,0415553
1232,2904;0,0417428
1233,2546;0,0418882
1234,2189;0,0419899
1235,1831;0,0420515
1236,1473;0,0420813
1237,1116;0,0420884
1238,0758;0,0420794
1239,0400;0,042056
1240,0043;0,0420161
1240,9685;0,0419565
1241,9327;0,0418755
1242,8970;0,0417738
1243,8612;0,0416531
1244,8254;0,0415147
1245,7897;0,0413583
1246,7539;0,0411828
1247,7181;0,0409872
1248,6824;0,0407728
1249,6466;0,0405429
1250,6108;0,0403033
1251,5751;0,0400621
1252,5393;0,0398284
1253,5035;0,039611
1254,4678;0,0394147
1255,4320;0,0392385
1256,3962;0,0390753
1257,3605;0,0389141
1258,3247;0,0387445
1259,2889;0,0385597
1260,2532;0,0383575
1261,2174;0,0381382
1262,1816;0,0379017
1263,1459;0,0376471
1264,1101;0,0373734
1265,0743;0,0370822
1266,0386;0,0367776
1267,0028;0,0364653
1267,9670;0,0361495
1268,9313;0,0358309
1269,8955;0,0355074
1270,8597;0,0351764
1271,8240;0,0348373
1272,7882;0,0344922
1273,7524;0,0341458
1274,7167;0,0338039
1275,6809;0,0334721
1276,6451;0,0331543
1277,6094;0,0328509
1278,5736;0,0325585
1279,5378;0,0322697
1280,5021;0,0319764
1281,4663;0,0316734
1282,4305;0,0313613
1283,3948;0,031047
1284,3590;0,0307419
1285,3232;0,0304584
1286,2875;0,0302072
1287,2517;0,0299961
1288,2159;0,0298288
1289,1802;0,0297048
1290,1444;0,029621
1291,1086;0,0295727
1292,0729;0,0295563
1293,0371;0,0295715
1294,0013;0,0296212
1294,9656;0,0297099
1295,9298;0,0298415
1296,8940;0,0300179
1297,8583;0,0302384
1298,8225;0,0305009
1299,7867;0,0308021
1300,7510;0,0311386
1301,7152;0,0315067
1302,6794;0,0319034
1303,6437;0,0323269
1304,6079;0,032777
1305,5721;0,0332528
1306,5364;0,0337509
1307,5006;0,0342639
1308,4648;0,0347822
1309,4291;0,0352954
1310,3933;0,0357941
1311,3575;0,0362681
1312,3218;0,0367049
1313,2860;0,0370877
1314,2502;0,0373972
1315,2145;0,0376149
1316,1787;0,037727
1317,1429;0,0377291
1318,1072;0,0376299
1319,0714;0,0374526
1320,0356;0,0372296
1320,9999;0,0369933
1321,9641;0,0367675
1322,9283;0,0365648
1323,8926;0,0363904
1324,8568;0,0362468
1325,8210;0,0361361
1326,7853;0,03606
1327,7495;0,0360169
1328,7137;0,0360001
1329,6780;0,0359982
1330,6422;0,0359965
1331,6064;0,0359817
1332,5707;0,035944
1333,5349;0,035878
1334,4991;0,0357786
1335,4634;0,0356359
1336,4276;0,0354323
1337,3918;0,0351473
1338,3561;0,0347729
1339,3203;0,0343294
1340,2845;0,0338646
1341,2488;0,0334307
1342,2130;0,0330601
1343,1772;0,0327598
1344,1415;0,0325212
1345,1057;0,032333
1346,0699;0,0321889
1347,0342;0,0320911
1347,9984;0,0320482
1348,9626;0,0320692
1349,9269;0,0321565
1350,8911;0,0323013
1351,8553;0,0324853
1352,8196;0,0326881
1353,7838;0,0328963
1354,7480;0,03311
1355,7123;0,0333403
1356,6765;0,0335996
1357,6407;0,0338913
1358,6050;0,0342051
1359,5692;0,0345197
1360,5334;0,0348084
1361,4977;0,0350501
1362,4619;0,0352401
1363,4261;0,0353925
1364,3904;0,0355295
1365,3546;0,0356664
1366,3188;0,035807
1367,2831;0,0359457
1368,2473;0,0360716
1369,2115;0,0361699
1370,1758;0,0362216
1371,1400;0,0362026
1372,1042;0,0360876
1373,0685;0,0358618
1374,0327;0,035536
1374,9969;0,0351483
1375,9612;0,0347401
1376,9254;0,0343259
1377,8896;0,0338891
1378,8539;0,033405
1379,8181;0,0328699
1380,7823;0,0323142
1381,7466;0,0317862
1382,7108;0,0313188
1383,6750;0,0309068
1384,6393;0,0305115
1385,6035;0,0300897
1386,5677;0,0296332
1387,5320;0,0291868
1388,4962;0,0288184
1389,4604;0,0285664
1390,4247;0,0284226
1391,3889;0,0283525
1392,3531;0,0283194
1393,3174;0,0282966
1394,2816;0,0282711
1395,2458;0,0282417
1396,2101;0,0282151
1397,1743;0,028202
1398,1385;0,0282169
1399,1028;0,0282742
1400,0670;0,0283813
1401,0313;0,0285332
1401,9955;0,0287133
1402,9597;0,0289013
1403,9240;0,0290836
1404,8882;0,0292612
1405,8524;0,0294488
1406,8167;0,0296635
1407,7809;0,0299121
1408,7451;0,0301902
1409,7094;0,0304903
1410,6736;0,03081
1411,6378;0,0311536
1412,6021;0,031527
1413,5663;0,0319295
1414,5305;0,0323506
1415,4948;0,0327688
1416,4590;0,0331529
1417,4232;0,0334691
1418,3875;0,0337
1419,3517;0,0338578
1420,3159;0,0339686
1421,2802;0,0340423
1422,2444;0,034068
1423,2086;0,0340311
1424,1729;0,0339295
1425,1371;0,0337734
1426,1013;0,0335707
1427,0656;0,0333115
1428,0298;0,0329727
1428,9940;0,0325469
1429,9583;0,0320692
1430,9225;0,0316067
1431,8867;0,0312076
1432,8510;0,0308611
1433,8152;0,0305006
1434,7794;0,0300456
1435,7437;0,0294712
1436,7079;0,0288643
1437,6721;0,0283747
1438,6364;0,0280851
1439,6006;0,0279693
1440,5648;0,0279593
1441,5291;0,0280031
1442,4933;0,0280786
1443,4575;0,0281829
1444,4218;0,0283159
1445,3860;0,0284687
1446,3502;0,0286243
1447,3145;0,0287674
1448,2787;0,0288975
1449,2429;0,0290302
1450,2072;0,0291864
1451,1714;0,0293773
1452,1356;0,0295964
1453,0999;0,0298154
1454,0641;0,0299748
1455,0283;0,0299748
1455,9926;0,0297121
1456,9568;0,0292212
1457,9210;0,0287473
1458,8853;0,0284932
1459,8495;0,0284381
1460,8137;0,0284604
1461,7780;0,0284419
1462,7422;0,0282826
1463,7064;0,0279178
1464,6707;0,0273693
1465,6349;0,0267621
1466,5991;0,0262308
1467,5634;0,0258153
1468,5276;0,0254591
1469,4918;0,0250575
1470,4561;0,024493
1471,4203;0,0236781
1472,3845;0,0226387
1473,3488;0,0215613
1474,3130;0,0206598
1475,2772;0,0199984
1476,2415;0,0195128
1477,2057;0,0191223
1478,1699;0,0187779
1479,1342;0,0184578
1480,0984;0,0181552
1481,0626;0,0178744
1482,0269;0,0176306
1482,9911;0,0174449
1483,9553;0,0173316
1484,9196;0,0172861
1485,8838;0,0172805
1486,8480;0,0172684
1487,8123;0,017208
1488,7765;0,0171031
1489,7407;0,0170213
1490,7050;0,0170385
1491,6692;0,0171769
1492,6334;0,0174121
1493,5977;0,0177077
1494,5619;0,0180294
1495,5261;0,018349
1496,4904;0,0186513
1497,4546;0,0189461
1498,4188;0,0192605
1499,3831;0,0196115
1500,3473;0,0199928
1501,3115;0,0203864
1502,2758;0,020771
1503,2400;0,0211184
1504,2042;0,0213786
1505,1685;0,0214648
1506,1327;0,0212847
1507,0969;0,0208814
1508,0612;0,0204793
1509,0254;0,020225
1509,9896;0,0200903
1510,9539;0,020004
1511,9181;0,0199129
1512,8823;0,0197783
1513,8466;0,0195723
1514,8108;0,019287
1515,7750;0,0189445
1516,7393;0,0185853
1517,7035;0,0182354
1518,6677;0,0178838
1519,6320;0,0174997
1520,5962;0,0170786
1521,5604;0,0166717
1522,5247;0,0163521
1523,4889;0,0161525
1524,4531;0,0160511
1525,4174;0,0160077
1526,3816;0,0160008
1527,3458;0,0160331
1528,3101;0,0161127
1529,2743;0,0162327
1530,2385;0,0163676
1531,2028;0,0164857
1532,1670;0,0165721
1533,1312;0,0166497
1534,0955;0,0167677
1535,0597;0,016957
1536,0239;0,0172044
1536,9882;0,0174586
1537,9524;0,0176402
1538,9166;0,0176515
1539,8809;0,0174441
1540,8451;0,0171455
1541,8093;0,016982
1542,7736;0,0170031
1543,7378;0,0171073
1544,7020;0,0172149
1545,6663;0,0173059
1546,6305;0,0173901
1547,5947;0,0174764
1548,5590;0,0175591
1549,5232;0,0176226
1550,4874;0,0176579
1551,4517;0,0176788
1552,4159;0,017719
1553,3801;0,0178075
1554,3444;0,0179426
1555,3086;0,0180774
1556,2728;0,0181112
1557,2371;0,0179126
1558,2013;0,0174726
1559,1655;0,0170741
1560,1298;0,0169871
1561,0940;0,0171661
1562,0582;0,0174674
1563,0225;0,0178068
1563,9867;0,0181457
1564,9509;0,0184575
1565,9152;0,0187164
1566,8794;0,0189055
1567,8436;0,0190387
1568,8079;0,0191716
1569,7721;0,0193703
1570,7363;0,019658
1571,7006;0,0200054
1572,6648;0,0203626
1573,6290;0,0206861
1574,5933;0,020951
1575,5575;0,0211668
1576,5217;0,0213842
1577,4860;0,0216571
1578,4502;0,0219947
1579,4144;0,0223715
1580,3787;0,0227601
1581,3429;0,0231431
1582,3071;0,0235131
1583,2714;0,0238728
1584,2356;0,0242331
1585,1998;0,0246064
1586,1641;0,0249976
1587,1283;0,0253992
1588,0925;0,0257943
1589,0568;0,0261625
1590,0210;0,0264854
1590,9852;0,026748
1591,9495;0,026936
1592,9137;0,0270366
1593,8779;0,0270431
1594,8422;0,0269632
1595,8064;0,0268203
1596,7706;0,0266445
1597,7349;0,0264606
1598,6991;0,0262813
1599,6633;0,0261084
1600,6276;0,0259393
1601,5918;0,0257733
1602,5560;0,0256153
1603,5203;0,0254724
1604,4845;0,0253466
1605,4487;0,0252306
1606,4130;0,0251108
1607,3772;0,0249793
1608,3414;0,0248492
1609,3057;0,0247544
1610,2699;0,024728
1611,2341;0,0247743
1612,1984;0,0248603
1613,1626;0,0249279
1614,1268;0,0249154
1615,0911;0,0247953
1616,0553;0,0246228
1617,0195;0,0245224
1617,9838;0,0245762
1618,9480;0,024756
1619,9122;0,0249777
1620,8765;0,025167
1621,8407;0,0252842
1622,8049;0,0253325
1623,7692;0,0253514
1624,7334;0,0253851
1625,6976;0,02545
1626,6619;0,025539
1627,6261;0,0256473
1628,5903;0,0257853
1629,5546;0,025967
1630,5188;0,0261896
1631,4830;0,0264243
1632,4473;0,0266159
1633,4115;0,0266892
1634,3757;0,0265808
1635,3400;0,0263209
1636,3042;0,026074
1637,2684;0,0259917
1638,2327;0,0260774
1639,1969;0,0262568
1640,1611;0,0264709
1641,1254;0,0266899
1642,0896;0,0268912
1643,0538;0,027037
1644,0181;0,0270657
1644,9823;0,0269208
1645,9465;0,0266336
1646,9108;0,0263669
1647,8750;0,0262833
1648,8392;0,0263922
1649,8035;0,0265749
1650,7677;0,0266552
1651,7319;0,0264315
1652,6962;0,0258159
1653,6604;0,0250912
1654,6246;0,0246785
1655,5889;0,0246194
1656,5531;0,0247224
1657,5173;0,0248357
1658,4816;0,0248747
1659,4458;0,024782
1660,4100;0,0245217
1661,3743;0,0241131
1662,3385;0,0236577
1663,3027;0,0232852
1664,2670;0,0230551
1665,2312;0,0229289
1666,1954;0,0228108
1667,1597;0,0225927
1668,1239;0,0222021
1669,0881;0,0216653
1670,0524;0,0211208
1671,0166;0,0207055
1671,9808;0,0204321
1672,9451;0,0202081
1673,9093;0,0199324
1674,8735;0,0195718
1675,8378;0,0191874
1676,8020;0,0188846
1677,7662;0,0187254
1678,7305;0,0186923
1679,6947;0,0187112
1680,6589;0,0186731
1681,6232;0,0184397
1682,5874;0,0178937
1683,5516;0,0170885
1684,5159;0,0163167
1685,4801;0,0158313
1686,4443;0,0156189
1687,4086;0,0155384
1688,3728;0,0154842
1689,3370;0,0154198
1690,3013;0,0153523
1691,2655;0,0152998
1692,2297;0,0152653
1693,1940;0,0152296
1694,1582;0,0151592
1695,1224;0,0150234
1696,0867;0,0148116
1697,0509;0,0145388
1698,0151;0,0142399
1698,9794;0,0139645
1699,9436;0,0137684
1700,9078;0,0136895
1701,8721;0,0137251
1702,8363;0,0138362
1703,8005;0,0139737
1704,7648;0,0141006
1705,7290;0,0142078
1706,6932;0,014317
1707,6575;0,0144635
1708,6217;0,0146713
1709,5859;0,0149417
1710,5502;0,0152593
1711,5144;0,0156023
1712,4786;0,0159446
1713,4429;0,0162524
1714,4071;0,0164835
1715,3713;0,0166014
1716,3356;0,0166184
1717,2998;0,0166246
1718,2640;0,0167241
1719,2283;0,016944
1720,1925;0,0172446
1721,1567;0,0175754
1722,1210;0,0178986
1723,0852;0,0181909
1724,0494;0,0184437
1725,0137;0,0186645
1725,9779;0,0188733
1726,9421;0,0190911
1727,9064;0,0193271
1728,8706;0,0195695
1729,8348;0,0197801
1730,7991;0,0198948
1731,7633;0,0198391
1732,7275;0,0195835
1733,6918;0,0192101
1734,6560;0,0188753
1735,6202;0,0186671
1736,5845;0,0185556
1737,5487;0,0184619
1738,5129;0,018322
1739,4772;0,0181133
1740,4414;0,0178562
1741,4056;0,0175921
1742,3699;0,0173459
1743,3341;0,017109
1744,2983;0,0168566
1745,2626;0,0165686
1746,2268;0,0162323
1747,1910;0,0158309
1748,1553;0,0153426
1749,1195;0,014767
1750,0837;0,0141581
1751,0480;0,0136059
1752,0122;0,0131705
1752,9764;0,0128476
1753,9407;0,0125901
1754,9049;0,0123465
1755,8691;0,0120862
1756,8334;0,0118056
1757,7976;0,0115129
1758,7618;0,0112069
1759,7261;0,0108717
1760,6903;0,0104991
1761,6545;0,0101151
1762,6188;0,00977748
1763,5830;0,00953707
1764,5472;0,00940284
1765,5115;0,00934117
1766,4757;0,00929928
1767,4399;0,00922743
1768,4042;0,00908962
1769,3684;0,00886611
1770,3326;0,008558
1771,2969;0,00820071
1772,2611;0,00786956
1773,2253;0,00764624
1774,1896;0,0075644
1775,1538;0,00759539
1776,1180;0,00767863
1777,0823;0,00775452
1778,0465;0,00778299
1779,0107;0,00775333
1779,9750;0,00768462
1780,9392;0,00760994
1781,9034;0,00755211
1782,8677;0,00751349
1783,8319;0,00748809
1784,7961;0,0074789
1785,7604;0,00750032
1786,7246;0,00756306
1787,6888;0,00765691
1788,6531;0,00774459
1789,6173;0,00777033
1790,5815;0,00768602
1791,5458;0,00749474
1792,5100;0,00727496
1793,4742;0,00713023
1794,4385;0,00710641
1795,4027;0,0071762
1796,3669;0,00728118
1797,3312;0,00736783
1798,2954;0,00740184
1799,2596;0,00737324
1800,2239;0,00729657
1801,1881;0,00720222
1802,1523;0,00712098
1803,1166;0,00707281
1804,0808;0,00706481
1805,0450;0,00709296
1806,0093;0,00714303
1806,9735;0,00719211
1807,9377;0,00721461
1808,9020;0,00719382
1809,8662;0,0071336
1810,8304;0,00705923
1811,7947;0,00700146
1812,7589;0,00697577
1813,7231;0,0069752
1814,6874;0,00697994
1815,6516;0,00697347
1816,6158;0,0069547
1817,5801;0,0069394
1818,5443;0,00694832
1819,5085;0,00698971
1820,4728;0,00705099
1821,4370;0,0071056
1822,4012;0,00712846
1823,3655;0,00711038
1824,3297;0,00706241
1825,2939;0,00700494
1826,2582;0,00694908
1827,2224;0,00688858
1828,1866;0,00681144
1829,1509;0,00672195
1830,1151;0,00665055
1831,0793;0,00663451
1832,0436;0,00668547
1833,0078;0,00677909
1833,9720;0,00687164
1834,9363;0,0069241
1835,9005;0,00692175
1836,8647;0,00688344
1837,8290;0,00685033
1838,7932;0,00685683
1839,7574;0,00690754
1840,7217;0,00697663
1841,6859;0,00702347
1842,6501;0,00701457
1843,6144;0,00694659
1844,5786;0,00685342
1845,5428;0,00677976
1846,5071;0,00674509
1847,4713;0,00673844
1848,4355;0,00673846
1849,3998;0,00673084
1850,3640;0,00671334
1851,3282;0,00669188
1852,2925;0,00667376
1853,2567;0,0066632
1854,2209;0,00666175
1855,1852;0,00667046
1856,1494;0,00668984
1857,1136;0,00671662
1858,0779;0,00674183
1859,0421;0,00675467
1860,0063;0,00675145
1860,9706;0,00674225
1861,9348;0,00674736
1862,8990;0,00678371
1863,8633;0,00685062
1864,8275;0,0069241
1865,7917;0,00696291
1866,7560;0,00692693
1867,7202;0,00680537
1868,6844;0,00663609
1869,6487;0,00648596
1870,6129;0,00640276
1871,5771;0,00639099
1872,5414;0,00642682
1873,5056;0,0064824
1874,4698;0,00653897
1875,4341;0,00658881
1876,3983;0,00663072
1877,3625;0,00666365
1878,3268;0,00668289
1879,2910;0,00668189
1880,2552;0,00665785
1881,2195;0,00661686
1882,1837;0,00657382
1883,1479;0,00654562
1884,1122;0,00654093
1885,0764;0,00655368
1886,0406;0,00656538
1887,0049;0,00655592
1887,9691;0,00651801
1888,9333;0,0064662
1889,8976;0,00643084
1890,8618;0,00643752
1891,8260;0,00648873
1892,7903;0,00656276
1893,7545;0,00662736
1894,7188;0,00665681
1895,6830;0,00664299
1896,6472;0,00659534
1897,6115;0,00653098
1898,5757;0,00646406
1899,5399;0,00640339
1900,5042;0,00635724
1901,4684;0,00633727
1902,4326;0,00635489
1903,3969;0,00641171
1904,3611;0,00649258
1905,3253;0,00656851
1906,2896;0,00660844
1907,2538;0,00659307
1908,2180;0,00652425
1909,1823;0,00642522
1910,1465;0,00633022
1911,1107;0,00626801
1912,0750;0,00624944
1913,0392;0,00626561
1914,0034;0,00629452
1914,9677;0,00631068
1915,9319;0,00629579
1916,8961;0,00624831
1917,8604;0,00618539
1918,8246;0,0061317
1919,7888;0,00610195
1920,7531;0,00609224
1921,7173;0,00608584
1922,6815;0,00606653
1923,6458;0,00602976
1924,6100;0,00598436
1925,5742;0,00594458
1926,5385;0,00592017
1927,5027;0,00591264
1928,4669;0,00591817
1929,4312;0,00593168
1930,3954;0,0059478
1931,3596;0,00595912
1932,3239;0,00595578
1933,2881;0,0059295
1934,2523;0,00588064
1935,2166;0,00582243
1936,1808;0,00577682
1937,1450;0,00576306
1938,1093;0,00578609
1939,0735;0,00583268
1940,0377;0,00587672
1941,0020;0,00589099
1941,9662;0,00586046
1942,9304;0,00578964
1943,8947;0,00569776
1944,8589;0,00560497
1945,8231;0,00552186
1946,7874;0,00544906
1947,7516;0,00538336
1948,7158;0,00532356
1949,6801;0,00527236
1950,6443;0,00523464
1951,6085;0,00521437
1952,5728;0,00521236
1953,5370;0,00522412
1954,5012;0,00523709
1955,4655;0,00522792
1956,4297;0,00516417
1957,3939;0,00501468
1958,3582;0,00476845
1959,3224;0,00445347
1960,2866;0,00414013
1961,2509;0,00391832
1962,2151;0,0038552
1963,1793;0,00395885
1964,1436;0,00416968
1965,1078;0,00438443
1966,0720;0,00450296
1967,0363;0,00447786
1968,0005;0,00433692
1968,9647;0,00415821
1969,9290;0,00401424
1970,8932;0,00392809
1971,8574;0,00387024
1972,8217;0,00379213
1973,7859;0,0036713
1974,7501;0,00353795
1975,7144;0,00346145
1976,6786;0,00350118
1977,6428;0,00365873
1978,6071;0,00387438
1979,5713;0,00407232
1980,5355;0,00421297
1981,4998;0,0043106
1982,4640;0,00441156
1983,4282;0,00455659
1984,3925;0,00475309
1985,3567;0,00497192
1986,3209;0,00516677
1987,2852;0,00530034
1988,2494;0,00535881
1989,2136;0,00534903
1990,1779;0,00528693
1991,1421;0,00518906
1992,1063;0,0050714
1993,0706;0,00495084
1994,0348;0,00484311
1994,9990;0,00475758
1995,9633;0,00469492
1996,9275;0,00465132
1997,8917;0,00462631
1998,8560;0,00462628
1999,8202;0,00465771
2000,7844;0,00471273
2001,7487;0,00475927
2002,7129;0,00474766
2003,6771;0,00463491
2004,6414;0,00441441
2005,6056;0,00413163
2006,5698;0,00386933
2007,5341;0,00370563
2008,4983;0,00367232
2009,4625;0,00374414
2010,4268;0,00386356
2011,3910;0,00397724
2012,3552;0,00405786
2013,3195;0,00410362
2014,2837;0,0041253
2015,2479;0,00413494
2016,2122;0,00414209
2017,1764;0,00415379
2018,1406;0,00417174
2019,1049;0,00418671
2020,0691;0,00417783
2021,0333;0,0041223
2021,9976;0,00401154
2022,9618;0,00386221
2023,9260;0,00371187
2024,8903;0,00359973
2025,8545;0,00354582
2026,8187;0,0035444
2027,7830;0,00357609
2028,7472;0,00362707
2029,7114;0,00369856
2030,6757;0,00379976
2031,6399;0,00393234
2032,6041;0,00408208
2033,5684;0,00422625
2034,5326;0,0043505
2035,4968;0,0044597
2036,4611;0,00457263
2037,4253;0,00470512
2038,3895;0,00485516
2039,3538;0,00500006
2040,3180;0,00510713
2041,2822;0,00515193
2042,2465;0,00513447
2043,2107;0,00508473
2044,1749;0,00505439
2045,1392;0,00509793
2046,1034;0,00524909
2047,0676;0,0055009
2048,0320;0,00580105
2048,9961;0,00607112
2049,9604;0,00624095
2050,9246;0,00627723
2051,8889;0,00619229
2052,8530;0,00603549
2053,8174;0,00587459
2054,7815;0,00577223
2055,7458;0,00576271
2056,7100;0,00583891
2057,6743;0,00595813
2058,6384;0,00606567
2059,6028;0,00612387
2060,5669;0,00613064
2061,5313;0,00611765
2062,4954;0,00612964
2063,4597;0,00619653
2064,4238;0,00631477
2065,3882;0,0064495
2066,3523;0,0065558
2067,3167;0,00660444
2068,2808;0,0065954
2069,2451;0,00655249
2070,2092;0,00650564
2071,1736;0,00647318
2072,1377;0,00645456
2073,1021;0,00643631
2074,0662;0,00640593
2075,0305;0,00636338
2075,9946;0,00632259
2076,9590;0,00630197
2077,9231;0,00631143
2078,8875;0,00634517
2079,8516;0,00638606
2080,8159;0,00641843
2081,7800;0,0064397
2082,7444;0,00646177
2083,7085;0,00650052
2084,6729;0,00656108
2085,6370;0,00663024
2086,6013;0,00668281
2087,5654;0,00669813
2088,5298;0,00667534
2089,4939;0,00663565
2090,4583;0,00660951
2091,4224;0,00661736
2092,3867;0,00665745
2093,3508;0,00670838
2094,3152;0,0067438
2095,2793;0,00674834
2096,2437;0,00672388
2097,2078;0,00668325
2098,1721;0,00663836
2099,1362;0,00659388
2100,1006;0,00655016
2101,0647;0,00651079
2102,0291;0,00648508
2102,9932;0,00648323
2103,9575;0,00650727
2104,9216;0,00654697
2105,8860;0,00658578
2106,8501;0,00661338
2107,8145;0,00663531
2108,7786;0,00667067
2109,7429;0,00673831
2110,7070;0,00684049
2111,6714;0,0069562
2112,6355;0,0070497
2113,5999;0,00708919
2114,5640;0,00706327
2115,5283;0,00698523
2116,4924;0,00688381
2117,4568;0,00678823
2118,4209;0,00671732
2119,3853;0,00667815
2120,3494;0,00667151
2121,3137;0,00669698
2122,2778;0,00675272
2123,2422;0,00683039
2124,2063;0,00691138
2125,1707;0,00696959
2126,1348;0,00698084
2127,0991;0,00693309
2128,0632;0,00683088
2129,0276;0,00669177
2129,9917;0,00653847
2130,9561;0,00639284
2131,9202;0,00627453
2132,8845;0,00620168
2133,8486;0,00618827
2134,8130;0,00623626
2135,7771;0,00632766
2136,7415;0,00642504
2137,7056;0,00648444
2138,6699;0,0064742
2139,6340;0,00638889
2140,5984;0,00625126
2141,5625;0,00610265
2142,5269;0,00598759
2143,4910;0,00593877
2144,4553;0,00596645
2145,4194;0,00605406
2146,3838;0,00616157
2147,3479;0,00623754
2148,3123;0,00623732
2149,2764;0,00613993
2150,2407;0,0059551
2151,2048;0,00571707
2152,1692;0,00547015
2153,1333;0,00525522
2154,0977;0,00510342
2155,0618;0,00503497
2156,0261;0,00505587
2156,9902;0,00514968
2157,9546;0,00527424
2158,9187;0,00537935
2159,8831;0,00544042
2160,8472;0,0054751
2161,8115;0,00552212
2162,7756;0,00560376
2163,7400;0,00570644
2164,7041;0,0057924
2165,6685;0,00583048
2166,6326;0,00582091
2167,5969;0,00579431
2168,5610;0,00578712
2169,5254;0,00581552
2170,4895;0,00586909
2171,4539;0,00592589
2172,4180;0,00597305
2173,3823;0,00601403
2174,3464;0,00605683
2175,3108;0,00609584
2176,2749;0,00610657
2177,2393;0,00606085
2178,2034;0,00595048
2179,1677;0,00579949
2180,1318;0,00565494
2181,0962;0,00556289
2182,0603;0,00554616
2183,0247;0,00559883
2183,9888;0,00569874
2184,9531;0,00582548
2185,9172;0,00596942
2186,8816;0,00612689
2187,8457;0,00628853
2188,8101;0,00643155
2189,7742;0,00652327
2190,7385;0,00653529
2191,7026;0,00646084
2192,6670;0,00632489
2193,6311;0,00617909
2194,5955;0,00608153
2195,5596;0,00607052
2196,5239;0,00614653
2197,4880;0,00627359
2198,4524;0,00639972
2199,4165;0,00648463
2200,3809;0,0065182
2201,3450;0,00651965
2202,3093;0,00651987
2203,2734;0,0065401
2204,2378;0,00658082
2205,2019;0,00662655
2206,1663;0,00666033
2207,1304;0,00667632
2208,0947;0,00668148
2209,0588;0,00668689
2210,0232;0,00669679
2210,9873;0,00670466
2211,9517;0,0066998
2212,9158;0,00667882
2213,8801;0,0066526
2214,8442;0,00664208
2215,8086;0,00666463
2216,7727;0,00672021
2217,7371;0,00678716
2218,7012;0,00683133
2219,6655;0,00682347
2220,6296;0,00675536
2221,5940;0,00664666
2222,5581;0,00653961
2223,5225;0,006484
2224,4866;0,00651753
2225,4509;0,00664804
2226,4150;0,00684523
2227,3794;0,00704778
2228,3435;0,00718744
2229,3079;0,00722025
2230,2720;0,00714943
2231,2363;0,00702499
2232,2004;0,0069172
2233,1648;0,00687787
2234,1289;0,00691265
2235,0933;0,00698182
2236,0574;0,00702845
2237,0217;0,00701515
2237,9858;0,00694564
2238,9502;0,00685888
2239,9143;0,00680241
2240,8787;0,00680417
2241,8428;0,00686028
2242,8071;0,0069437
2243,7712;0,00702401
2244,7356;0,00708362
2245,6997;0,00712095
2246,6641;0,00714211
2247,6282;0,00715073
2248,5925;0,00714457
2249,5566;0,00712078
2250,5210;0,00708403
2251,4851;0,00704917
2252,4495;0,0070351
2253,4136;0,00705344
2254,3779;0,00710057
2255,3420;0,00715963
2256,3064;0,00721167
2257,2705;0,00724775
2258,2349;0,0072727
2259,1990;0,00729813
2260,1633;0,00733063
2261,1274;0,00736493
2262,0918;0,00738758
2263,0559;0,00738849
2264,0203;0,00737088
2264,9844;0,00735104
2265,9487;0,00734722
2266,9128;0,00736585
2267,8772;0,00739609
2268,8413;0,00741737
2269,8057;0,00741438
2270,7698;0,00738854
2271,7341;0,00735734
2272,6982;0,00734255
2273,6626;0,00735578
2274,6267;0,00739181
2275,5911;0,00743383
2276,5552;0,00746608
2277,5195;0,00748447
2278,4836;0,00749768
2279,4480;0,00751918
2280,4121;0,00755658
2281,3765;0,00760656
2282,3406;0,00765834
2283,3049;0,00770205
2284,2690;0,00773565
2285,2334;0,00776564
2286,1975;0,0078023
2287,1619;0,00785341
2288,1260;0,00792118
2289,0903;0,00800348
2290,0544;0,00809751
2291,0188;0,00820185
2291,9829;0,0083156
2292,9473;0,00843556
2293,9114;0,0085547
2294,8757;0,00866349
2295,8398;0,00875366
2296,8042;0,00882141
2297,7683;0,00886827
2298,7327;0,00889964
2299,6968;0,00892306
2300,6611;0,00894756
2301,6252;0,00898396
2302,5896;0,00904382
2303,5537;0,0091359
2304,5181;0,00926061
2305,4822;0,0094056
2306,4465;0,00954642
2307,4106;0,00965406
2308,3750;0,00970702
2309,3391;0,00970182
2310,3035;0,0096554
2311,2676;0,00959702
2312,2319;0,00955416
2313,1960;0,00954061
2314,1604;0,00955369
2315,1245;0,00958063
2316,0889;0,00960818
2317,0530;0,00962892
2318,0173;0,00964141
2318,9814;0,00964636
2319,9458;0,00964359
2320,9099;0,0096337
2321,8743;0,00962238
2322,8384;0,00962
2323,8027;0,00963305
2324,7668;0,0096547
2325,7312;0,00966442
2326,6953;0,00963787
2327,6597;0,00956039
2328,6238;0,00943704
2329,5881;0,0092939
2330,5522;0,00916813
2331,5166;0,0090894
2332,4807;0,0090635
2333,4451;0,00907065
2334,4092;0,00907959
2335,3735;0,00906788
2336,3376;0,00903648
2337,3020;0,00901085
2338,2661;0,00902624
2339,2305;0,00910177
2340,1946;0,00921732
2341,1589;0,00930987
2342,1230;0,00930284
2343,0874;0,0091724
2344,0515;0,00900935
2345,0159;0,00897813
2345,9800;0,00917649
2346,9443;0,00955994
2347,9084;0,0099978
2348,8728;0,010364
2349,8369;0,0105869
2350,8013;0,0106557
2351,7654;0,0106026
2352,7297;0,0104746
2353,6938;0,0103148
2354,6582;0,0101623
2355,6223;0,0100524
2356,5867;0,00999936
2357,5508;0,0099782
2358,5151;0,00993664
2359,4792;0,00983245
2360,4436;0,00966259
2361,4077;0,0094575
2362,3721;0,00925169
2363,3362;0,00906324
2364,3005;0,00889463
2365,2646;0,00874335
2366,2290;0,00860856
2367,1931;0,00849081
2368,1575;0,00838975
2369,1216;0,00830347
2370,0859;0,00822935
2371,0500;0,0081652
2372,0144;0,00811074
2372,9785;0,00806868
2373,9429;0,00804457
2374,9070;0,00804459
2375,8713;0,00807217
2376,8354;0,00812565
2377,7998;0,00819795
2378,7639;0,00827824
2379,7283;0,00835414
2380,6924;0,00841375
2381,6567;0,00844741
2382,6208;0,00844941
2383,5852;0,00841942
2384,5493;0,00836295
2385,5137;0,00829022
2386,4778;0,0082132
2387,4421;0,00814211
2388,4063;0,00808271
2389,3706;0,00803602
2390,3347;0,00800021
2391,2991;0,00797382
2392,2632;0,00795791
2393,2275;0,00795591
2394,1917;0,00797118
2395,1560;0,00800378
2396,1201;0,00804852
2397,0845;0,00809561
2398,0486;0,00813401
2399,0129;0,00815486
2399,9771;0,00815499
2400,9414;0,00813817
2401,9055;0,00811334
2402,8699;0,0080912
2403,8340;0,00807995
2404,7983;0,00808227
2405,7625;0,0080951
2406,7268;0,00811203
2407,6909;0,00812758
2408,6553;0,00814032
2409,6194;0,00815289
2410,5837;0,00816927
2411,5479;0,00819073
2412,5122;0,0082137
2413,4763;0,008231
2414,4407;0,00823607
2415,4048;0,0082275
2416,3691;0,00821085
2417,3333;0,00819668
2418,2976;0,0081956
2419,2617;0,00821334
2420,2261;0,00824818
2421,1902;0,00829185
2422,1545;0,00833323
2423,1187;0,00836233
2424,0830;0,00837318
2425,0471;0,00836491
2426,0115;0,00834137
2426,9756;0,00830998
2427,9399;0,00827997
2428,9041;0,00826008
2429,8684;0,00825594
2430,8325;0,00826807
2431,7969;0,00829167
2432,7610;0,00831871
2433,7253;0,00834168
2434,6895;0,00835703
2435,6538;0,00836662
2436,6179;0,00837621
2437,5823;0,00839205
2438,5464;0,00841742
2439,5107;0,00845069
2440,4749;0,00848581
2441,4392;0,00851483
2442,4033;0,00853118
2443,3677;0,00853263
2444,3318;0,00852262
2445,2961;0,00850933
2446,2603;0,00850243
2447,2246;0,0085088
2448,1887;0,00852913
2449,1531;0,00855742
2450,1172;0,00858404
2451,0815;0,00860105
2452,0457;0,00860681
2453,0100;0,00860723
2453,9741;0,00861246
2454,9385;0,00863066
2455,9026;0,00866243
2456,8669;0,0086992
2457,8311;0,00872702
2458,7954;0,00873399
2459,7595;0,00871721
2460,7239;0,00868522
2461,6880;0,00865401
2462,6523;0,00863875
2463,6165;0,00864588
2464,5808;0,00867039
2465,5449;0,00869985
2466,5093;0,00872231
2467,4734;0,00873307
2468,4377;0,00873591
2469,4019;0,00873851
2470,3662;0,00874595
2471,3303;0,00875697
2472,2947;0,00876568
2473,2588;0,00876701
2474,2231;0,00876161
2475,1873;0,00875641
2476,1516;0,00876043
2477,1157;0,00877884
2478,0801;0,00880932
2479,0442;0,00884314
2480,0085;0,00886996
2480,9727;0,00888318
2481,9370;0,00888272
2482,9011;0,00887408
2483,8655;0,00886468
2484,8296;0,00885986
2485,7939;0,00886053
2486,7581;0,00886337
2487,7224;0,00886303
2488,6865;0,00885536
2489,6509;0,00884037
2490,6150;0,00882342
2491,5793;0,00881393
2492,5435;0,00882148
2493,5078;0,008851
2494,4719;0,00889935
2495,4363;0,00895574
2496,4004;0,00900623
2497,3647;0,00904005
2498,3289;0,00905424
2499,2932;0,00905384
2500,2573;0,00904798
2501,2217;0,00904433
2502,1858;0,0090458
2503,1501;0,00905082
2504,1143;0,00905638
2505,0786;0,00906102
2506,0427;0,00906591
2507,0071;0,00907373
2507,9712;0,0090868
2508,9355;0,0091057
2509,8997;0,00912883
2510,8640;0,00915269
2511,8281;0,0091725
2512,7925;0,00918341
2513,7566;0,00918227
2514,7209;0,00916921
2515,6851;0,00914795
2516,6494;0,0091243
2517,6135;0,0091037
2518,5779;0,00908955
2519,5420;0,00908323
2520,5063;0,0090853
2521,4705;0,00909628
2522,4348;0,00911596
2523,3989;0,00914201
2524,3633;0,00916955
2525,3274;0,00919277
2526,2917;0,00920761
2527,2559;0,00921356
2528,2202;0,00921318
2529,1843;0,00921001
2530,1487;0,00920677
2531,1128;0,00920514
2532,0771;0,00920666
2533,0413;0,00921327
2534,0056;0,00922642
2534,9697;0,00924552
2535,9341;0,00926741
2536,8982;0,0092877
2537,8625;0,00930323
2538,8267;0,00931345
2539,7910;0,00931975
2540,7551;0,00932337
2541,7195;0,00932394
2542,6836;0,00931995
2543,6479;0,00931084
2544,6121;0,0092987
2545,5764;0,00928805
2546,5405;0,0092836
2547,5049;0,0092876
2548,4690;0,00929869
2549,4333;0,00931285
2550,3975;0,00932568
2551,3618;0,00933449
2552,3259;0,00933908
2553,2903;0,00934112
2554,2544;0,00934292
2555,2188;0,0093463
2556,1829;0,00935219
2557,1472;0,00936059
2558,1113;0,0093708
2559,0757;0,00938157
2560,0398;0,00939134
2561,0042;0,00939856
2561,9683;0,00940231
2562,9326;0,0094026
2563,8967;0,00940026
2564,8611;0,0093962
2565,8252;0,00939069
2566,7896;0,00938324
2567,7537;0,00937371
2568,7180;0,00936382
2569,6821;0,00935797
2570,6465;0,00936213
2571,6106;0,00938093
2572,5750;0,00941441
2573,5391;0,00945649
2574,5034;0,00949666
2575,4675;0,00952427
2576,4319;0,00953359
2577,3960;0,00952671
2578,3604;0,00951282
2579,3245;0,00950383
2580,2888;0,0095085
2581,2529;0,00952801
2582,2173;0,00955547
2583,1814;0,00957986
2584,1458;0,00959241
2585,1099;0,009592
2586,0742;0,00958616
2587,0383;0,00958695
2588,0027;0,00960384
2588,9668;0,00963795
2589,9312;0,00968104
2590,8953;0,00971985
2591,8596;0,00974292
2592,8237;0,00974577
2593,7881;0,00973198
2594,7522;0,0097103
2595,7166;0,00969033
2596,6807;0,00967919
2597,6450;0,00968025
2598,6091;0,00969327
2599,5735;0,00971522
2600,5376;0,00974135
2601,5020;0,00976686
2602,4661;0,00978872
2603,4304;0,00980662
2604,3945;0,00982214
2605,3589;0,00983634
2606,3230;0,00984782
2607,2874;0,00985315
2608,2515;0,00984981
2609,2158;0,00983951
2610,1799;0,00982893
2611,1443;0,00982666
2612,1084;0,00983827
2613,0728;0,00986303
2614,0369;0,00989481
2615,0012;0,0099265
2615,9653;0,00995453
2616,9297;0,00998024
2617,8938;0,0100075
2618,8582;0,0100387
2619,8223;0,0100728
2620,7866;0,0101058
2621,7507;0,0101335
2622,7151;0,010154
2623,6792;0,0101673
2624,6436;0,0101742
2625,6077;0,0101748
2626,5720;0,0101695
2627,5361;0,0101607
2628,5005;0,0101535
2629,4646;0,0101552
2630,4290;0,0101713
2631,3931;0,010203
2632,3574;0,0102452
2633,3215;0,0102882
2634,2859;0,0103215
2635,2500;0,0103388
2636,2144;0,01034
2637,1785;0,0103317
2638,1428;0,0103239
2639,1069;0,0103258
2640,0713;0,0103421
2641,0354;0,0103712
2641,9998;0,0104065
2642,9639;0,0104402
2643,9282;0,0104667
2644,8923;0,0104847
2645,8567;0,0104971
2646,8208;0,0105081
2647,7852;0,0105217
2648,7493;0,0105394
2649,7136;0,010561
2650,6777;0,0105851
2651,6421;0,0106104
2652,6062;0,0106358
2653,5706;0,0106598
2654,5347;0,0106812
2655,4990;0,0106991
2656,4631;0,0107139
2657,4275;0,0107273
2658,3916;0,0107416
2659,3560;0,0107582
2660,3201;0,0107767
2661,2844;0,0107951
2662,2485;0,0108102
2663,2129;0,0108201
2664,1770;0,010825
2665,1414;0,0108277
2666,1055;0,0108316
2667,0698;0,0108396
2668,0339;0,0108525
2668,9983;0,010869
2669,9624;0,0108868
2670,9268;0,0109042
2671,8909;0,0109211
2672,8552;0,0109382
2673,8193;0,0109559
2674,7837;0,0109733
2675,7478;0,010988
2676,7122;0,0109982
2677,6763;0,0110039
2678,6406;0,0110083
2679,6047;0,011016
2680,5691;0,0110312
2681,5332;0,0110555
2682,4976;0,011087
2683,4617;0,0111216
2684,4260;0,0111547
2685,3901;0,0111829
2686,3545;0,0112049
2687,3186;0,0112212
2688,2830;0,0112332
2689,2471;0,0112431
2690,2114;0,0112536
2691,1755;0,0112676
2692,1399;0,0112877
2693,1040;0,0113151
2694,0684;0,0113484
2695,0325;0,0113838
2695,9968;0,0114163
2696,9609;0,0114423
2697,9253;0,0114606
2698,8894;0,0114729
2699,8538;0,0114834
2700,8179;0,0114957
2701,7822;0,0115124
2702,7463;0,0115336
2703,7107;0,0115583
2704,6748;0,0115845
2705,6392;0,0116104
2706,6033;0,0116349
2707,5676;0,0116579
2708,5317;0,0116802
2709,4961;0,0117035
2710,4602;0,0117289
2711,4246;0,0117565
2712,3887;0,0117849
2713,3530;0,0118115
2714,3171;0,0118344
2715,2815;0,0118535
2716,2456;0,0118706
2717,2100;0,0118881
2718,1741;0,0119073
2719,1384;0,0119274
2720,1025;0,0119464
2721,0669;0,0119626
2722,0310;0,0119757
2722,9954;0,0119869
2723,9595;0,011998
2724,9238;0,0120104
2725,8879;0,012025
2726,8523;0,0120426
2727,8164;0,0120649
2728,7808;0,0120938
2729,7449;0,0121293
2730,7092;0,0121684
2731,6733;0,0122047
2732,6377;0,0122307
2733,6018;0,012242
2734,5662;0,0122401
2735,5303;0,0122321
2736,4946;0,0122274
2737,4587;0,0122331
2738,4231;0,0122505
2739,3872;0,0122755
2740,3516;0,0123021
2741,3157;0,0123254
2742,2800;0,0123442
2743,2441;0,0123596
2744,2085;0,0123724
2745,1726;0,0123817
2746,1370;0,0123859
2747,1011;0,0123848
2748,0654;0,0123815
2749,0295;0,0123821
2749,9939;0,0123927
2750,9580;0,012416
2751,9224;0,0124494
2752,8865;0,0124867
2753,8508;0,0125215
2754,8149;0,0125498
2755,7793;0,0125717
2756,7434;0,0125899
2757,7078;0,0126081
2758,6719;0,0126284
2759,6362;0,0126515
2760,6003;0,0126769
2761,5647;0,0127036
2762,5288;0,0127303
2763,4932;0,0127555
2764,4573;0,0127773
2765,4216;0,0127949
2766,3857;0,0128089
2767,3501;0,0128226
2768,3142;0,0128403
2769,2786;0,0128649
2770,2427;0,0128962
2771,2070;0,0129303
2772,1711;0,0129622
2773,1355;0,0129888
2774,0996;0,0130108
2775,0640;0,0130324
2776,0281;0,0130588
2776,9924;0,0130924
2777,9565;0,0131319
2778,9209;0,0131731
2779,8850;0,0132121
2780,8494;0,0132474
2781,8135;0,0132806
2782,7778;0,0133144
2783,7419;0,0133503
2784,7063;0,0133876
2785,6704;0,013424
2786,6348;0,0134572
2787,5989;0,013487
2788,5632;0,0135154
2789,5273;0,0135462
2790,4917;0,0135831
2791,4558;0,0136281
2792,4202;0,0136811
2793,3843;0,0137398
2794,3486;0,0138007
2795,3127;0,01386
2796,2771;0,0139145
2797,2412;0,0139632
2798,2056;0,0140072
2799,1697;0,0140495
2800,1340;0,0140937
2801,0981;0,0141426
2802,0625;0,0141974
2803,0266;0,014258
2803,9910;0,0143242
2804,9551;0,0143954
2805,9194;0,0144706
2806,8835;0,0145471
2807,8479;0,014621
2808,8120;0,0146888
2809,7764;0,01475
2810,7405;0,0148081
2811,7048;0,01487
2812,6689;0,0149421
2813,6333;0,015027
2814,5974;0,015122
2815,5618;0,015221
2816,5259;0,015318
2817,4902;0,0154104
2818,4543;0,0154998
2819,4187;0,01559
2820,3828;0,0156848
2821,3472;0,0157854
2822,3113;0,0158911
2823,2756;0,0160004
2824,2397;0,0161126
2825,2041;0,0162282
2826,1682;0,0163487
2827,1326;0,0164755
2828,0967;0,0166093
2829,0610;0,0167506
2830,0251;0,0168993
2830,9895;0,0170556
2831,9536;0,0172194
2832,9180;0,0173899
2833,8821;0,0175662
2834,8464;0,017747
2835,8105;0,0179324
2836,7749;0,0181239
2837,7390;0,0183252
2838,7034;0,0185414
2839,6675;0,0187775
2840,6318;0,0190375
2841,5959;0,019324
2842,5603;0,0196377
2843,5244;0,0199769
2844,4888;0,0203358
2845,4529;0,0207025
2846,4172;0,0210572
2847,3813;0,0213744
2848,3457;0,0216274
2849,3098;0,0217966
2850,2742;0,0218752
2851,2383;0,021873
2852,2026;0,0218124
2853,1667;0,0217222
2854,1311;0,0216286
2855,0952;0,02155
2856,0596;0,021495
2857,0237;0,0214651
2857,9880;0,0214584
2858,9521;0,0214735
2859,9165;0,0215105
2860,8806;0,0215703
2861,8450;0,0216527
2862,8091;0,0217542
2863,7734;0,0218689
2864,7375;0,0219891
2865,7019;0,0221085
2866,6660;0,0222232
2867,6304;0,0223319
2868,5945;0,0224347
2869,5588;0,022531
2870,5229;0,0226188
2871,4873;0,0226961
2872,4514;0,0227624
2873,4158;0,0228206
2874,3799;0,0228762
2875,3442;0,022935
2876,3083;0,0230006
2877,2727;0,0230728
2878,2368;0,0231489
2879,2012;0,0232257
2880,1653;0,0233017
2881,1296;0,023377
2882,0938;0,0234521
2883,0581;0,0235265
2884,0222;0,0235983
2884,9866;0,0236655
2885,9507;0,0237279
2886,9150;0,0237882
2887,8792;0,0238505
2888,8435;0,0239181
2889,8076;0,023991
2890,7720;0,024065
2891,7361;0,0241346
2892,7004;0,0241963
2893,6646;0,0242516
2894,6289;0,0243068
2895,5930;0,0243689
2896,5574;0,0244416
2897,5215;0,0245217
2898,4858;0,024601
2899,4500;0,02467
2900,4143;0,024723
2901,3784;0,0247607
2902,3428;0,0247891
2903,3069;0,0248161
2904,2712;0,0248479
2905,2354;0,0248881
2906,1997;0,0249379
2907,1638;0,0249984
2908,1282;0,025072
2909,0923;0,0251627
2910,0566;0,0252746
2911,0208;0,0254095
2911,9851;0,0255636
2912,9492;0,0257249
2913,9136;0,0258744
2914,8777;0,0259887
2915,8420;0,0260476
2916,8062;0,0260393
2917,7705;0,0259642
2918,7346;0,0258326
2919,6990;0,0256602
2920,6631;0,0254618
2921,6274;0,0252491
2922,5916;0,0250299
2923,5559;0,0248101
2924,5200;0,0245943
2925,4844;0,0243866
2926,4485;0,0241897
2927,4128;0,0240054
2928,3770;0,0238351
2929,3413;0,0236794
2930,3054;0,0235367
2931,2698;0,0234018
2932,2339;0,0232662
2933,1982;0,0231217
2934,1624;0,0229645
2935,1267;0,0227978
2936,0908;0,0226305
2937,0552;0,0224721
2938,0193;0,022327
2938,9836;0,0221919
2939,9478;0,0220568
2940,9121;0,0219111
2941,8762;0,0217487
2942,8406;0,021571
2943,8047;0,0213864
2944,7690;0,0212061
2945,7332;0,0210385
2946,6975;0,0208864
2947,6616;0,0207463
2948,6260;0,0206116
2949,5901;0,0204759
2950,5544;0,0203366
2951,5186;0,0201948
2952,4829;0,0200542
2953,4470;0,0199178
2954,4114;0,0197874
2955,3755;0,019663
2956,3398;0,0195444
2957,3040;0,0194314
2958,2683;0,0193235
2959,2324;0,0192189
2960,1968;0,0191144
2961,1609;0,0190059
2962,1252;0,0188908
2963,0894;0,0187685
2964,0537;0,0186409
2965,0178;0,0185113
2965,9822;0,0183828
2966,9463;0,0182576
2967,9106;0,0181362
2968,8748;0,0180169
2969,8391;0,0178965
2970,8032;0,0177712
2971,7676;0,0176392
2972,7317;0,0175024
2973,6960;0,0173668
2974,6602;0,0172398
2975,6245;0,0171262
2976,5886;0,0170263
2977,5530;0,0169353
2978,5171;0,0168479
2979,4814;0,0167607
2980,4456;0,0166752
2981,4099;0,0165952
2982,3740;0,0165238
2983,3384;0,0164609
2984,3025;0,0164032
2985,2668;0,0163468
2986,2310;0,0162893
2987,1953;0,0162316
2988,1594;0,0161764
2989,1238;0,0161267
2990,0879;0,0160848
2991,0522;0,0160516
2992,0164;0,0160276
2992,9807;0,016012
2993,9448;0,0160032
2994,9092;0,0159987
2995,8733;0,0159964
2996,8376;0,0159957
2997,8018;0,0159984
2998,7661;0,0160069
2999,7302;0,0160221
3000,6946;0,0160415
3001,6587;0,0160604
3002,6230;0,0160748
3003,5872;0,016085
3004,5515;0,0160955
3005,5156;0,0161121
3006,4800;0,0161374
3007,4441;0,0161684
3008,4084;0,0161972
3009,3726;0,0162163
3010,3369;0,016223
3011,3010;0,0162208
3012,2654;0,0162175
3013,2295;0,0162206
3014,1938;0,0162346
3015,1580;0,0162605
3016,1223;0,0162973
3017,0864;0,0163437
3018,0508;0,0163986
3019,0149;0,0164592
3019,9792;0,0165211
3020,9434;0,0165791
3021,9077;0,0166301
3022,8718;0,0166745
3023,8362;0,0167165
3024,8003;0,016761
3025,7646;0,0168112
3026,7288;0,0168669
3027,6931;0,0169254
3028,6572;0,0169834
3029,6216;0,0170389
3030,5857;0,0170916
3031,5500;0,0171422
3032,5142;0,0171911
3033,4785;0,0172389
3034,4426;0,0172863
3035,4070;0,0173344
3036,3711;0,0173848
3037,3354;0,0174382
3038,2996;0,0174943
3039,2639;0,0175518
3040,2280;0,0176101
3041,1924;0,0176704
3042,1565;0,0177357
3043,1208;0,0178086
3044,0850;0,017889
3045,0493;0,0179731
3046,0134;0,0180545
3046,9778;0,0181275
3047,9419;0,0181907
3048,9063;0,0182483
3049,8704;0,018307
3050,8347;0,0183724
3051,7988;0,0184454
3052,7632;0,0185225
3053,7273;0,0185987
3054,6917;0,0186715
3055,6558;0,0187432
3056,6201;0,0188191
3057,5842;0,018904
3058,5486;0,0189984
3059,5127;0,0190977
3060,4771;0,0191943
3061,4412;0,0192808
3062,4055;0,019354
3063,3696;0,0194158
3064,3340;0,0194727
3065,2981;0,0195322
3066,2625;0,0195999
3067,2266;0,0196771
3068,1909;0,0197605
3069,1550;0,0198452
3070,1194;0,0199272
3071,0835;0,0200058
3072,0479;0,0200825
3073,0120;0,0201593
3073,9763;0,020236
3074,9404;0,0203104
3075,9048;0,0203801
3076,8689;0,0204453
3077,8333;0,0205094
3078,7974;0,0205771
3079,7617;0,0206511
3080,7258;0,0207304
3081,6902;0,0208108
3082,6543;0,0208886
3083,6187;0,0209629
3084,5828;0,0210365
3085,5471;0,0211128
3086,5112;0,0211937
3087,4756;0,0212781
3088,4397;0,0213624
3089,4041;0,0214434
3090,3682;0,0215195
3091,3325;0,0215923
3092,2966;0,021665
3093,2610;0,0217414
3094,2251;0,0218241
3095,1895;0,0219139
3096,1536;0,0220081
3097,1179;0,022102
3098,0820;0,0221902
3099,0464;0,0222692
3100,0105;0,0223394
3100,9749;0,0224061
3101,9390;0,0224767
3102,9033;0,0225575
3103,8674;0,0226508
3104,8318;0,0227539
3105,7959;0,0228605
3106,7603;0,0229646
3107,7244;0,0230622
3108,6887;0,0231535
3109,6528;0,0232412
3110,6172;0,023329
3111,5813;0,0234188
3112,5457;0,0235104
3113,5098;0,0236017
3114,4741;0,0236901
3115,4382;0,0237741
3116,4026;0,0238541
3117,3667;0,023932
3118,3311;0,0240106
3119,2952;0,024092
3120,2595;0,0241779
3121,2236;0,024269
3122,1880;0,0243653
3123,1521;0,0244664
3124,1165;0,0245716
3125,0806;0,0246801
3126,0449;0,024791
3127,0090;0,0249026
3127,9734;0,0250125
3128,9375;0,0251181
3129,9019;0,0252172
3130,8660;0,0253096
3131,8303;0,0253979
3132,7944;0,0254868
3133,7588;0,0255812
3134,7229;0,0256838
3135,6873;0,0257934
3136,6514;0,0259062
3137,6157;0,0260178
3138,5798;0,0261252
3139,5442;0,0262282
3140,5083;0,0263284
3141,4727;0,0264276
3142,4368;0,0265272
3143,4011;0,0266278
3144,3652;0,0267308
3145,3296;0,0268384
3146,2937;0,0269533
3147,2581;0,0270762
3148,2222;0,0272048
3149,1865;0,0273338
3150,1506;0,0274566
3151,1150;0,0275687
3152,0791;0,0276687
3153,0435;0,0277597
3154,0076;0,0278469
3154,9719;0,0279364
3155,9360;0,0280328
3156,9004;0,0281388
3157,8645;0,0282542
3158,8289;0,0283769
3159,7930;0,0285032
3160,7573;0,0286293
3161,7214;0,0287523
3162,6858;0,0288709
3163,6499;0,0289848
3164,6143;0,0290941
3165,5784;0,0291993
3166,5427;0,0293018
3167,5068;0,0294046
3168,4712;0,0295127
3169,4353;0,0296219
3170,3997;0,0297542
3171,3638;0,0298969
3172,3281;0,030041
3173,2922;0,0301754
3174,2566;0,0302914
3175,2207;0,0303877
3176,1851;0,0304718
3177,1492;0,0305556
3178,1135;0,03065
3179,0776;0,0307589
3180,0420;0,0308783
3181,0061;0,0310004
3181,9705;0,0311188
3182,9346;0,0312333
3183,8989;0,0313481
3184,8630;0,0314686
3185,8274;0,0315961
3186,7915;0,031727
3187,7559;0,031855
3188,7200;0,0319759
3189,6843;0,03209
3190,6484;0,0322008
3191,6128;0,0323114
3192,5769;0,0324211
3193,5413;0,0325257
3194,5054;0,0326214
3195,4697;0,0327085
3196,4338;0,0327927
3197,3982;0,0328828
3198,3623;0,0329855
3199,3267;0,0331022
3200,2908;0,0332287
3201,2551;0,0333578
3202,2192;0,0334821
3203,1836;0,0335963
3204,1477;0,0336982
3205,1121;0,0337893
3206,0762;0,033874
3207,0405;0,0339591
3208,0046;0,0340507
3208,9690;0,0341513
3209,9331;0,0342582
3210,8975;0,0343653
3211,8616;0,0344679
3212,8259;0,0345659
3213,7900;0,0346641
3214,7544;0,0347681
3215,7185;0,0348792
3216,6829;0,0349928
3217,6470;0,0351014
3218,6113;0,035201
3219,5754;0,0352949
3220,5398;0,0353918
3221,5039;0,0355004
3222,4683;0,0356224
3223,4324;0,0357513
3224,3967;0,0358765
3225,3608;0,0359892
3226,3252;0,0360871
3227,2893;0,0361737
3228,2537;0,036255
3229,2178;0,0363358
3230,1821;0,0364187
3231,1462;0,0365053
3232,1106;0,0365984
3233,0747;0,0367012
3234,0391;0,0368155
3235,0032;0,0369393
3235,9675;0,0370676
3236,9316;0,0371942
3237,8960;0,0373156
3238,8601;0,0374319
3239,8245;0,0375457
3240,7886;0,0376593
3241,7529;0,0377724
3242,7170;0,0378824
3243,6814;0,0379864
3244,6455;0,0380846
3245,6099;0,0381814
3246,5740;0,0382838
3247,5383;0,0383973
3248,5024;0,0385227
3249,4668;0,0386551
3250,4309;0,0387868
3251,3953;0,0389115
3252,3594;0,0390278
3253,3237;0,0391393
3254,2878;0,0392518
3255,2522;0,0393691
3256,2163;0,0394907
3257,1807;0,0396131
3258,1448;0,0397326
3259,1091;0,0398478
3260,0732;0,0399607
3261,0376;0,0400748
3262,0017;0,0401937
3262,9661;0,0403194
3263,9302;0,0404516
3264,8945;0,0405879
3265,8586;0,0407233
3266,8230;0,0408515
3267,7871;0,0409662
3268,7515;0,0410627
3269,7156;0,0411395
3270,6799;0,0411979
3271,6440;0,0412413
3272,6084;0,0412735
3273,5725;0,041299
3274,5369;0,0413236
3275,5010;0,0413541
3276,4653;0,041397
3277,4294;0,0414552
3278,3938;0,0415259
3279,3579;0,041601
3280,3223;0,04167
3281,2864;0,0417251
3282,2507;0,0417642
3283,2148;0,0417909
3284,1792;0,0418118
3285,1433;0,0418325
3286,1077;0,0418551
3287,0718;0,0418784
3288,0361;0,0419005
3289,0002;0,0419211
3289,9646;0,0419418
3290,9287;0,0419648
3291,8931;0,0419899
3292,8572;0,0420141
3293,8215;0,0420321
3294,7856;0,04204
3295,7500;0,0420379
3296,7141;0,0420299
3297,6785;0,0420229
3298,6426;0,0420224
3299,6069;0,0420303
3300,5710;0,0420441
3301,5354;0,0420584
3302,4995;0,0420683
3303,4639;0,0420705
3304,4280;0,0420643
3305,3923;0,0420508
3306,3564;0,0420323
3307,3208;0,0420112
3308,2849;0,0419911
3309,2493;0,0419761
3310,2134;0,0419711
3311,1777;0,0419801
3312,1418;0,0420048
3313,1062;0,0420432
3314,0703;0,0420905
3315,0347;0,0421408
3315,9988;0,0421908
3316,9631;0,042241
3317,9272;0,0422956
3318,8916;0,0423589
3319,8557;0,0424323
3320,8201;0,0425122
3321,7842;0,0425913
3322,7485;0,042662
3323,7126;0,0427194
3324,6770;0,0427638
3325,6411;0,0427998
3326,6055;0,0428345
3327,5696;0,0428751
3328,5339;0,0429271
3329,4980;0,0429923
3330,4624;0,0430673
3331,4265;0,0431431
3332,3909;0,0432077
3333,3550;0,0432498
3334,3193;0,0432629
3335,2834;0,0432478
3336,2478;0,0432111
3337,2119;0,0431613
3338,1763;0,0431043
3339,1404;0,0430413
3340,1047;0,0429702
3341,0688;0,0428885
3342,0332;0,042796
3342,9973;0,0426961
3343,9617;0,042594
3344,9258;0,0424947
3345,8901;0,042401
3346,8542;0,0423115
3347,8186;0,0422218
3348,7827;0,0421261
3349,7471;0,0420203
3350,7112;0,041904
3351,6755;0,0417809
3352,6396;0,0416576
3353,6040;0,0415401
3354,5681;0,0414319
3355,5325;0,0413326
3356,4966;0,0412392
3357,4609;0,0411476
3358,4250;0,041055
3359,3894;0,0409603
3360,3535;0,0408642
3361,3179;0,0407686
3362,2820;0,0406748
3363,2463;0,0405829
3364,2104;0,0404911
3365,1748;0,0403961
3366,1389;0,0402956
3367,1033;0,0401897
3368,0674;0,0400826
3369,0317;0,0399805
3369,9958;0,0398891
3370,9602;0,0398101
3371,9243;0,0397396
3372,8887;0,0396698
3373,8528;0,0395916
3374,8171;0,0394996
3375,7813;0,0393941
3376,7456;0,039282
3377,7097;0,0391733
3378,6741;0,0390761
3379,6382;0,0389919
3380,6025;0,0389141
3381,5667;0,0388312
3382,5310;0,0387342
3383,4951;0,0386231
3384,4595;0,0385089
3385,4236;0,0384085
3386,3879;0,0383353
3387,3521;0,0382913
3388,3164;0,0382661
3389,2805;0,0382421
3390,2449;0,0382033
3391,2090;0,0381415
3392,1733;0,0380579
3393,1375;0,0379601
3394,1018;0,0378568
3395,0659;0,0377542
3396,0303;0,0376553
3396,9944;0,0375598
3397,9587;0,0374659
3398,9229;0,0373707
3399,8872;0,0372722
3400,8513;0,0371701
3401,8157;0,0370667
3402,7798;0,036966
3403,7441;0,0368711
3404,7083;0,0367823
3405,6726;0,0366967
3406,6367;0,0366097
3407,6011;0,0365164
3408,5652;0,0364134
3409,5295;0,0362989
3410,4937;0,0361736
3411,4580;0,0360414
3412,4221;0,0359092
3413,3865;0,0357843
3414,3506;0,03567
3415,3149;0,0355619
3416,2791;0,0354482
3417,2434;0,0353157
3418,2075;0,0351577
3419,1719;0,0349801
3420,1360;0,0348
3421,1003;0,0346376
3422,0645;0,0345057
3423,0288;0,0344035
3423,9929;0,0343187
3424,9573;0,0342351
3425,9214;0,034139
3426,8857;0,0340239
3427,8499;0,0338903
3428,8142;0,0337437
3429,7783;0,0335917
3430,7427;0,0334411
3431,7068;0,033297
3432,6711;0,0331614
3433,6353;0,0330341
3434,5996;0,0329129
3435,5637;0,0327946
3436,5281;0,0326758
3437,4922;0,0325541
3438,4565;0,0324295
3439,4207;0,0323042
3440,3850;0,0321809
3441,3491;0,0320596
3442,3135;0,0319353
3443,2776;0,0317982
3444,2419;0,0316391
3445,2061;0,0314558
3446,1704;0,0312574
3447,1345;0,031062
3448,0989;0,0308878
3449,0630;0,0307437
3450,0273;0,0306264
3450,9915;0,0305246
3451,9558;0,0304259
3452,9199;0,0303217
3453,8843;0,0302072
3454,8484;0,0300805
3455,8127;0,0299408
3456,7769;0,0297889
3457,7412;0,0296283
3458,7053;0,0294657
3459,6697;0,0293085
3460,6338;0,0291624
3461,5981;0,0290281
3462,5623;0,028902
3463,5266;0,0287779
3464,4907;0,0286493
3465,4551;0,0285119
3466,4192;0,0283638
3467,3835;0,0282056
3468,3477;0,0280403
3469,3120;0,0278718
3470,2761;0,027704
3471,2405;0,0275405
3472,2046;0,0273852
3473,1689;0,0272432
3474,1331;0,0271188
3475,0974;0,027012
3476,0615;0,0269149
3477,0259;0,0268122
3477,9900;0,0266872
3478,9543;0,0265311
3479,9185;0,0263492
3480,8828;0,0261609
3481,8469;0,0259886
3482,8113;0,0258446
3483,7754;0,0257233
3484,7397;0,0256063
3485,7039;0,025475
3486,6682;0,025322
3487,6323;0,0251549
3488,5967;0,0249906
3489,5608;0,0248445
3490,5251;0,0247206
3491,4893;0,02461
3492,4536;0,0244977
3493,4177;0,024372
3494,3821;0,0242324
3495,3462;0,0240907
3496,3105;0,0239635
3497,2747;0,0238595
3498,2390;0,023772
3499,2031;0,0236801
3500,1675;0,0235597
3501,1316;0,0233988
3502,0959;0,0232075
3503,0601;0,0230145
3504,0244;0,0228481
3504,9885;0,0227167
3505,9529;0,0226051
3506,9170;0,0224865
3507,8813;0,0223411
3508,8455;0,022168
3509,8098;0,0219858
3510,7739;0,0218194
3511,7383;0,0216831
3512,7024;0,0215737
3513,6667;0,0214766
3514,6309;0,021378
3515,5952;0,0212735
3516,5593;0,0211689
3517,5237;0,0210729
3518,4878;0,0209893
3519,4521;0,0209131
3520,4163;0,0208332
3521,3806;0,0207381
3522,3447;0,020621
3523,3091;0,0204804
3524,2732;0,0203164
3525,2375;0,0201289
3526,2017;0,01992
3527,1660;0,0197006
3528,1301;0,0194925
3529,0945;0,0193212
3530,0586;0,0192024
3531,0229;0,019131
3531,9871;0,019082
3532,9514;0,0190218
3533,9155;0,0189228
3534,8799;0,0187763
3535,8440;0,0185973
3536,8083;0,0184191
3537,7725;0,0182772
3538,7368;0,0181931
3539,7009;0,018165
3540,6653;0,0181692
3541,6294;0,0181659
3542,5938;0,0181111
3543,5579;0,017973
3544,5222;0,0177526
3545,4863;0,0174905
3546,4507;0,0172465
3547,4148;0,017062
3548,3792;0,0169382
3549,3433;0,0168436
3550,3076;0,0167384
3551,2717;0,0165982
3552,2361;0,0164286
3553,2002;0,0162593
3554,1646;0,0161218
3555,1287;0,0160267
3556,0930;0,0159605
3557,0571;0,0158999
3558,0215;0,0158317
3558,9856;0,0157653
3559,9500;0,0157275
3560,9141;0,0157406
3561,8784;0,015797
3562,8425;0,0158472
3563,8069;0,0158081
3564,7710;0,0155948
3565,7354;0,0151821
3566,6995;0,0146625
3567,6638;0,0142078
3568,6279;0,0139387
3569,5923;0,0138535
3570,5564;0,013874
3571,5208;0,0139149
3572,4849;0,0139194
3573,4492;0,0138677
3574,4133;0,0137709
3575,3777;0,0136533
3576,3418;0,0135331
3577,3062;0,0134151
3578,2703;0,0133015
3579,2346;0,0132066
3580,1987;0,0131589
3581,1631;0,0131825
3582,1272;0,0132731
3583,0916;0,0133845
3584,0557;0,0134331
3585,0200;0,0133267
3585,9841;0,0130244
3586,9485;0,0126015
3587,9126;0,0122286
3588,8770;0,0120394
3589,8411;0,0120394
3590,8054;0,012138
3591,7695;0,0122244
3592,7339;0,012219
3593,6980;0,0121024
3594,6624;0,0119172
3595,6265;0,0117311
3596,5908;0,0115815
3597,5549;0,0114544
3598,5193;0,0113155
3599,4834;0,0111554
3600,4478;0,0110086
3601,4119;0,0109276
3602,3762;0,010936
3603,3403;0,0110057
3604,3047;0,0110713
3605,2688;0,0110636
3606,2332;0,0109437
3607,1973;0,0107253
3608,1616;0,0104664
3609,1257;0,0102274
3610,0901;0,0100359
3611,0542;0,00989056
3612,0186;0,00978846
3612,9827;0,0097372
3613,9470;0,00974097
3614,9111;0,00977688
3615,8755;0,00978742
3616,8396;0,00970096
3617,8040;0,00947803
3618,7681;0,00916163
3619,7324;0,00887817
3620,6965;0,0087585
3621,6609;0,0088518
3622,6250;0,00911711
3623,5894;0,00946421
3624,5535;0,00978018
3625,5178;0,00993203
3626,4819;0,00978388
3627,4463;0,00928268
3628,4104;0,00858223
3629,3748;0,00799005
3630,3389;0,00769403
3631,3032;0,00764716
3632,2673;0,00770263
3633,2317;0,00774349
3634,1958;0,0077202
3635,1602;0,00764073
3636,1243;0,00754168
3637,0886;0,00745498
3638,0527;0,0073899
3639,0171;0,00734084
3639,9812;0,00730877
3640,9456;0,00731396
3641,9097;0,00738707
3642,8740;0,00754436
3643,8381;0,00776321
3644,8025;0,00796565
3645,7666;0,00800984
3646,7310;0,0077138
3647,6951;0,00698563
3648,6594;0,00604261
3649,6235;0,00534642
3650,5879;0,0051449
3651,5520;0,00531909
3652,5164;0,00562851
3653,4805;0,00588185
3654,4448;0,0059696
3655,4089;0,00587401
3656,3733;0,00567382
3657,3374;0,00549455
3658,3018;0,00541637
3659,2659;0,00543224
3660,2302;0,00548796
3661,1943;0,00554405
3662,1587;0,00560649
3663,1228;0,00571209
3664,0872;0,00588401
3665,0513;0,00609362
3666,0156;0,00625693
3666,9797;0,0062686
3667,9441;0,00607359
3668,9082;0,00574875
3669,8726;0,00548632
3670,8367;0,00542826
3671,8010;0,00553663
3672,7651;0,00563725
3673,7295;0,00554273
3674,6936;0,00518215
3675,6580;0,0046915
3676,6221;0,00432032
3677,5864;0,00420057
3678,5505;0,00428347
3679,5149;0,00445987
3680,4790;0,00465876
3681,4434;0,00486654
3682,4075;0,00510231
3683,3718;0,00537917
3684,3359;0,0056732
3685,3003;0,00591294
3686,2644;0,00599228
3687,2288;0,00581667
3688,1929;0,0053924
3689,1572;0,00489047
3690,1213;0,00454408
3691,0857;0,00445512
3692,0498;0,00456626
3693,0142;0,00477445
3693,9783;0,0050094
3694,9426;0,00524229
3695,9067;0,00546415
3696,8711;0,00566173
3697,8352;0,00580415
3698,7996;0,00584827
3699,7637;0,00576439
3700,7280;0,00557164
3701,6921;0,00535222
3702,6565;0,00521399
3703,6206;0,0052247
3704,5850;0,00538
3705,5491;0,00561937
3706,5134;0,00585277
3707,4775;0,00597452
3708,4419;0,00587898
3709,4060;0,00551125
3710,3704;0,0049509
3711,3345;0,00442018
3712,2988;0,00412809
3713,2629;0,00412364
3714,2273;0,00432714
3715,1914;0,00463067
3716,1558;0,00494949
3717,1199;0,00523033
3718,0842;0,00544894
3719,0483;0,00560649
3720,0127;0,00571891
3720,9768;0,00579816
3721,9412;0,00583862
3722,9053;0,00582481
3723,8696;0,00575736
3724,8337;0,0056726
3725,7981;0,00563073
3726,7622;0,00567894
3727,7266;0,00582471
3728,6907;0,00603816
3729,6550;0,00626893
3730,6191;0,00645677
3731,5835;0,00653187
3732,5476;0,00641797
3733,5120;0,00606527
3734,4761;0,00552198
3735,4404;0,00496659
3736,4045;0,00460531
3737,3689;0,00453496
3738,3330;0,00472536
3739,2974;0,00507845
3740,2615;0,00546797
3741,2258;0,00574953
3742,1899;0,00578437
3743,1543;0,00552381
3744,1184;0,00510984
3745,0828;0,00480348
3746,0469;0,00474176
3747,0112;0,00483957
3747,9753;0,00489295
3748,9397;0,00471042
3749,9038;0,00424749
3750,8682;0,00370621
3751,8323;0,00339329
3752,7966;0,00342704
3753,7607;0,00369806
3754,7251;0,00403011
3755,6892;0,00428061
3756,6536;0,00436751
3757,6177;0,00428815
3758,5820;0,00412604
3759,5461;0,00400214
3760,5105;0,00399197
3761,4746;0,00409125
3762,4390;0,00424675
3763,4031;0,00439972
3764,3674;0,00450882
3765,3315;0,00455308
3766,2959;0,00452436
3767,2600;0,00442006
3768,2244;0,00424771
3769,1885;0,00404059
3770,1528;0,00386346
3771,1169;0,00378789
3772,0813;0,00385082
3773,0454;0,00403352
3774,0098;0,00427269
3774,9739;0,00448576
3775,9382;0,00459716
3776,9023;0,00456766
3777,8667;0,00442176
3778,8308;0,0042434
3779,7952;0,00412133
3780,7593;0,00408881
3781,7236;0,00411697
3782,6877;0,00415339
3783,6521;0,0041607
3784,6162;0,00413261
3785,5806;0,00408843
3786,5447;0,00405631
3787,5090;0,00405844
3788,4731;0,00410553
3789,4375;0,00419691
3790,4016;0,00432058
3791,3660;0,00445377
3792,3301;0,0045691
3793,2944;0,00464799
3794,2585;0,00469394
3795,2229;0,00473058
3796,1870;0,00477632
3797,1514;0,00481245
3798,1155;0,00477701
3799,0798;0,00460407
3800,0439;0,00429595
3801,0083;0,00396615
3801,9724;0,00377037
3802,9368;0,00376946
3803,9009;0,00388441
3804,8652;0,00397381
3805,8293;0,00393944
3806,7937;0,00379919
3807,7578;0,00368177
3808,7222;0,00372236
3809,6863;0,00395629
3810,6506;0,00431302
3811,6147;0,00467304
3812,5791;0,00491913
3813,5432;0,00497984
3814,5076;0,00487391
3815,4717;0,00471023
3816,4360;0,00459791
3817,4001;0,0045448
3818,3645;0,00446197
3819,3286;0,00426149
3820,2930;0,00395767
3821,2571;0,00367885
3822,2214;0,00355695
3823,1855;0,00361838
3824,1499;0,00379577
3825,1140;0,00400223
3826,0784;0,00417948
3827,0425;0,00430829
3828,0068;0,00439764
3828,9709;0,00446606
3829,9353;0,00452709
3830,8994;0,00458665
3831,8638;0,00464744
3832,8279;0,00470926
3833,7922;0,00476114
3834,7563;0,00477405
3835,7207;0,00470826
3836,6848;0,00454131
3837,6492;0,0043003
3838,6133;0,00405906
3839,5776;0,00388654
3840,5417;0,0037996
3841,5061;0,00377068
3842,4702;0,00376952
3843,4346;0,00379506
3844,3987;0,00387873
3845,3630;0,00406325
3846,3271;0,0043749
3847,2915;0,00480619
3848,2556;0,00530868
3849,2200;0,00578262
3850,1841;0,00605894
3851,1484;0,00591175
3852,1125;0,00520853
3853,0769;0,00419108
3854,0410;0,00340308
3855,0054;0,00313873
3855,9695;0,0032969
3856,9338;0,00367096
3857,8979;0,00410839
3858,8623;0,00450821
3859,8264;0,00479328
3860,7908;0,00490904
3861,7549;0,00485087
3862,7192;0,00469002
3863,6833;0,00454706
3864,6477;0,00451227
3865,6118;0,00459025
3866,5762;0,00471447
3867,5403;0,00479538
3868,5046;0,00476371
3869,4688;0,00460188
3870,4331;0,00435612
3871,3972;0,0041151
3872,3616;0,00396367
3873,3257;0,00394678
3874,2900;0,00406213
3875,2542;0,00427062
3876,2185;0,00451072
3877,1826;0,00471439
3878,1470;0,00482807
3879,1111;0,00483643
3880,0754;0,00477053
3881,0396;0,00468103
3882,0039;0,00459447
3882,9680;0,00450161
3883,9324;0,00439179
3884,8965;0,00429167
3885,8608;0,00425845
3886,8250;0,00432754
3887,7893;0,00446973
3888,7534;0,00459919
3889,7178;0,00462326
3890,6819;0,00450938
3891,6462;0,00432873
3892,6104;0,00421652
3893,5747;0,00426638
3894,5388;0,00447325
3895,5032;0,00476319
3896,4673;0,00504586
3897,4316;0,0052486
3898,3958;0,00533428
3899,3601;0,00530249
3900,3242;0,00516929
3901,2886;0,00494502
3902,2527;0,0046431
3903,2170;0,00431023
3904,1812;0,00402719
3905,1455;0,00386379
3906,1096;0,0038366
3907,0740;0,00391159
3908,0381;0,00403604
3909,0024;0,00416766
3909,9666;0,00428843
3910,9309;0,00440257
3911,8950;0,00452163
3912,8594;0,00464519
3913,8235;0,00475033
3914,7878;0,00479927
3915,7520;0,00476463
3916,7163;0,00465778
3917,6804;0,00453311
3918,6448;0,00445408
3919,6089;0,00444849
3920,5732;0,00449408
3921,5374;0,00453911
3922,5017;0,0045377
3923,4658;0,00448079
3924,4302;0,00440496
3925,3943;0,00436751
3926,3586;0,00440425
3927,3228;0,00450529
3928,2871;0,0046221
3929,2512;0,00469339
3930,2156;0,00467607
3931,1797;0,00456998
3932,1440;0,0044193
3933,1082;0,0042851
3934,0725;0,00421158
3935,0366;0,00421266
3936,0010;0,00427833
3936,9651;0,00438472
3937,9294;0,00450046
3938,8936;0,00459189
3939,8579;0,00463257
3940,8220;0,00461664
3941,7864;0,00456685
3942,7505;0,00452484
3943,7148;0,00452469
3944,6790;0,00456983
3945,6433;0,0046311
3946,6074;0,00466526
3947,5718;0,00464106
3948,5359;0,00455899
3949,5002;0,00445181
3950,4644;0,00436294
3951,4287;0,00431969
3952,3928;0,00432241
3953,3572;0,00435319
3954,3213;0,00439142
3955,2856;0,00442461
3956,2498;0,00444973
3957,2141;0,00446792
3958,1782;0,00447843
3959,1426;0,00447744
3960,1067;0,0044619
3961,0710;0,00443422
3962,0352;0,00440321
3962,9995;0,00438015
3963,9636;0,00437303
3964,9280;0,00438326
3965,8921;0,00440635
3966,8564;0,0044348
3967,8206;0,00446107
3968,7849;0,00447934
3969,7490;0,00448611
3970,7134;0,00448036
3971,6775;0,00446374
3972,6418;0,00444062
3973,6060;0,00441738
3974,5703;0,00440041
3975,5344;0,00439352
3976,4988;0,00439637
3977,4629;0,00440471
3978,4272;0,0044126
3979,3914;0,00441512
3980,3557;0,00441038
3981,3198;0,00440009
3982,2842;0,00438856
3983,2483;0,0043807
3984,2126;0,00437987
3985,1768;0,00438666
3986,1411;0,00439897
3987,1052;0,00441325
3988,0696;0,00442605
3989,0337;0,0044351
3989,9980;0,00443955
3990,9622;0,00443931
3991,9265;0,00443447
3992,8906;0,00442543
3993,8550;0,00441351
3994,8191;0,00440122
3995,7834;0,0043914
3996,7476;0,00438566
3997,7119;0,00438345
3998,6760;0,00438281
3999,6404;0,00438215
4000,6045;0,00432201

##### Extended Information
[Comments]
Sample name
Comment
Username
Division
Organization;UNIVERSIDAD INDUSTRIAL DE SANTANDER

[Detailed Information]
Creation date;4/02/2025 11:19 a.m.

Data array type;Linear data array
Horizontal axis;Wavenumber [cm-1]
Vertical axis;Abs
Start;399,193 cm-1
End;4000,6 cm-1
Data interval;0,964233 cm-1
Data points;3736    

[Measurement Information]
Model name;FT/IR-4X1typeA
Serial No.;A035162111

Accessory;ATR PRO 4X
Accessory S/N;A021162126
Incident angle;45 deg

Measurement date;4/02/2025 11:19 a.m.

Light source;Standard
Detector;TGS
Accumulation;Auto (72)
Resolution;4 cm-1
Zero filling;On
Apodization;Cosine
Gain;Auto (8)
Aperture;Auto (7 mm)
Scan speed;Auto (2 mm/sec)
Filter;Auto (12800 Hz)

