TITLE;
DATA TYPE;INFRARED SPECTRUM
ORIGIN;JASCO
OWNER;
DATE;25/01/29
TIME;13:57:17
SPECTROMETER/DATA SYSTEM;
LOCALE;9226
RESOLUTION;
DELTAX;0,964233
XUNITS;1/CM
YUNITS;ABSORBANCE
FIRSTX;  399,1927
LASTX; 4000,6047
NPOINTS;    3736
FIRSTY;     0,14283
MAXY;     0,17323
MINY;     0,00766
XYDATA
399,1927;0,142829
400,1569;0,142804
401,1211;0,142041
402,0854;0,140872
403,0496;0,139623
404,0138;0,138574
404,9781;0,137953
405,9423;0,137882
406,9065;0,138318
407,8708;0,139057
408,8350;0,139821
409,7992;0,140372
410,7635;0,140604
411,7277;0,140562
412,6919;0,140391
413,6562;0,140233
414,6204;0,140169
415,5846;0,140225
416,5489;0,140418
417,5131;0,140784
418,4773;0,14133
419,4416;0,141937
420,4058;0,142396
421,3700;0,142589
422,3343;0,142556
423,2985;0,14244
424,2627;0,142415
425,2270;0,14262
426,1912;0,143089
427,1554;0,143733
428,1197;0,144396
429,0839;0,144957
430,0481;0,145395
431,0124;0,145783
431,9766;0,146222
432,9408;0,14675
433,9051;0,147289
434,8693;0,14768
435,8335;0,14778
436,7978;0,147572
437,7620;0,147186
438,7262;0,146826
439,6905;0,146648
440,6547;0,146699
441,6189;0,146899
442,5832;0,147096
443,5474;0,147148
444,5116;0,147001
445,4759;0,146705
446,4401;0,146363
447,4043;0,146071
448,3686;0,145883
449,3328;0,145813
450,2970;0,145843
451,2613;0,14593
452,2255;0,146014
453,1897;0,146034
454,1540;0,145958
455,1182;0,145805
456,0824;0,145663
457,0467;0,145665
458,0109;0,145917
458,9751;0,1464
459,9394;0,146957
460,9036;0,147391
461,8678;0,147579
462,8321;0,147507
463,7963;0,147263
464,7605;0,146988
465,7248;0,146813
466,6890;0,146796
467,6532;0,146906
468,6175;0,14706
469,5817;0,147184
470,5459;0,14725
471,5102;0,147272
472,4744;0,147278
473,4386;0,147285
474,4029;0,147293
475,3671;0,1473
476,3313;0,147307
477,2956;0,1473
478,2598;0,147242
479,2240;0,147084
480,1883;0,146794
481,1525;0,146398
482,1167;0,145989
483,0810;0,145699
484,0452;0,145627
485,0094;0,145795
485,9737;0,146132
486,9379;0,146524
487,9021;0,146865
488,8664;0,147079
489,8306;0,147112
490,7948;0,146933
491,7591;0,146555
492,7233;0,14606
493,6875;0,145595
494,6518;0,14531
495,6160;0,145291
496,5802;0,145513
497,5445;0,145856
498,5087;0,146154
499,4729;0,146267
500,4372;0,146141
501,4014;0,145829
502,3656;0,145465
503,3299;0,145196
504,2941;0,145114
505,2583;0,145226
506,2226;0,145477
507,1868;0,145782
508,1510;0,146061
509,1153;0,146256
510,0795;0,146347
511,0437;0,146359
512,0080;0,146345
512,9722;0,146371
513,9365;0,14649
514,9007;0,146718
515,8649;0,147027
516,8292;0,147346
517,7934;0,147587
518,7576;0,14769
519,7219;0,147647
520,6861;0,147495
521,6503;0,147276
522,6146;0,147016
523,5788;0,146727
524,5430;0,146429
525,5073;0,146161
526,4715;0,145972
527,4357;0,145888
528,4000;0,145883
529,3642;0,145883
530,3284;0,145804
531,2927;0,14559
532,2569;0,145238
533,2211;0,144802
534,1854;0,144362
535,1496;0,143982
536,1138;0,143689
537,0781;0,143475
538,0423;0,143324
539,0065;0,143231
539,9708;0,143207
540,9350;0,143264
541,8992;0,143399
542,8635;0,143599
543,8277;0,14384
544,7919;0,144104
545,7562;0,144372
546,7204;0,14462
547,6846;0,144814
548,6489;0,144924
549,6131;0,144947
550,5773;0,144928
551,5416;0,144945
552,5058;0,14508
553,4700;0,145366
554,4343;0,145758
555,3985;0,14613
556,3627;0,146315
557,3270;0,146171
558,2912;0,145634
559,2554;0,144739
560,2197;0,143608
561,1839;0,142398
562,1481;0,141252
563,1124;0,140252
564,0766;0,139409
565,0408;0,138678
566,0051;0,137995
566,9693;0,137319
567,9335;0,13665
568,8978;0,136023
569,8620;0,135479
570,8262;0,135035
571,7905;0,134675
572,7547;0,134361
573,7189;0,134061
574,6832;0,133763
575,6474;0,133481
576,6116;0,133239
577,5759;0,133054
578,5401;0,132926
579,5043;0,132834
580,4686;0,132749
581,4328;0,132647
582,3970;0,132522
583,3613;0,132384
584,3255;0,132263
585,2897;0,13219
586,2540;0,132184
587,2182;0,132239
588,1824;0,132323
589,1467;0,132389
590,1109;0,132393
591,0751;0,132315
592,0394;0,13217
593,0036;0,131999
593,9678;0,131841
594,9321;0,131708
595,8963;0,131579
596,8605;0,131413
597,8248;0,131176
598,7890;0,130856
599,7532;0,130477
600,7175;0,13008
601,6817;0,129708
602,6459;0,129385
603,6102;0,129115
604,5744;0,128881
605,5386;0,128659
606,5029;0,128414
607,4671;0,128113
608,4313;0,127732
609,3956;0,127267
610,3598;0,126745
611,3240;0,126212
612,2883;0,125716
613,2525;0,125282
614,2167;0,124899
615,1810;0,12452
616,1452;0,124087
617,1094;0,123549
618,0737;0,12289
619,0379;0,12213
620,0021;0,121314
620,9664;0,120485
621,9306;0,119683
622,8948;0,11894
623,8591;0,118279
624,8233;0,117718
625,7875;0,117243
626,7518;0,11683
627,7160;0,11644
628,6802;0,116041
629,6445;0,115608
630,6087;0,115138
631,5729;0,114637
632,5372;0,114125
633,5014;0,113623
634,4656;0,11315
635,4299;0,112717
636,3941;0,112327
637,3583;0,111974
638,3226;0,111654
639,2868;0,11136
640,2510;0,11109
641,2153;0,110838
642,1795;0,110591
643,1437;0,110331
644,1080;0,110045
645,0722;0,109728
646,0364;0,109392
647,0007;0,10906
647,9649;0,10876
648,9291;0,108514
649,8934;0,108334
650,8576;0,10822
651,8218;0,108166
652,7861;0,10816
653,7503;0,108193
654,7145;0,108265
655,6788;0,108377
656,6430;0,108532
657,6072;0,108714
658,5715;0,108883
659,5357;0,108978
660,4999;0,10895
661,4642;0,108803
662,4284;0,108605
663,3926;0,108444
664,3569;0,108377
665,3211;0,108377
666,2853;0,108295
667,2496;0,10786
668,2138;0,106875
669,1780;0,105521
670,1423;0,1042
671,1065;0,103075
672,0707;0,102072
673,0350;0,101072
673,9992;0,0999979
674,9634;0,0988492
675,9277;0,0976943
676,8919;0,0966214
677,8561;0,0956719
678,8204;0,0948229
679,7846;0,0940305
680,7488;0,0932769
681,7131;0,092583
682,6773;0,0919845
683,6415;0,0915018
684,6058;0,0911267
685,5700;0,0908306
686,5342;0,0905791
687,4985;0,0903441
688,4627;0,0901068
689,4269;0,0898605
690,3912;0,0896062
691,3554;0,0893496
692,3196;0,0890991
693,2839;0,088865
694,2481;0,0886574
695,2123;0,0884818
696,1766;0,0883317
697,1408;0,0881851
698,1050;0,0880085
699,0693;0,0877712
700,0335;0,0874611
700,9977;0,0870914
701,9620;0,0866946
702,9262;0,0863051
703,8904;0,0859436
704,8547;0,0856061
705,8189;0,0852724
706,7831;0,0849206
707,7474;0,0845398
708,7116;0,0841324
709,6758;0,0837061
710,6401;0,0832636
711,6043;0,0827986
712,5685;0,0823017
713,5328;0,0817722
714,4970;0,0812238
715,4612;0,0807631
716,4255;0,0802217
717,3897;0,0796942
718,3539;0,079164
719,3182;0,0786063
720,2824;0,078004
721,2466;0,077358
722,2109;0,0766861
723,1751;0,0760097
724,1393;0,0753431
725,1036;0,0746913
726,0678;0,0740556
727,0320;0,0734393
727,9963;0,0728494
728,9605;0,0722938
729,9247;0,0717772
730,8890;0,0712998
731,8532;0,0708584
732,8174;0,0704496
733,7817;0,0700709
734,7459;0,069721
735,7101;0,0693974
736,6744;0,0690935
737,6386;0,0687971
738,6028;0,0684924
739,5671;0,0681665
740,5313;0,0678165
741,4955;0,0674526
742,4598;0,0670937
743,4240;0,0667575
744,3882;0,0664508
745,3525;0,0661675
746,3167;0,0658945
747,2809;0,0656214
748,2452;0,0653453
749,2094;0,0650677
750,1736;0,064788
751,1379;0,0644994
752,1021;0,064192
753,0663;0,0638614
754,0306;0,0635141
754,9948;0,0631669
755,9590;0,0628377
756,9233;0,0625358
757,8875;0,0622573
758,8517;0,0619888
759,8160;0,0617167
760,7802;0,0614353
761,7444;0,06115
762,7087;0,060873
763,6729;0,0606165
764,6371;0,0603854
765,6014;0,0601751
766,5656;0,0599738
767,5298;0,059769
768,4941;0,0595531
769,4583;0,0593261
770,4225;0,0590938
771,3868;0,0588638
772,3510;0,058641
773,3152;0,0584255
774,2795;0,0582131
775,2437;0,0579982
776,2079;0,0577754
777,1722;0,0575414
778,1364;0,0572957
779,1006;0,057041
780,0649;0,0567845
781,0291;0,0565363
781,9933;0,056307
782,9576;0,0561028
783,9218;0,0559212
784,8860;0,0557499
785,8503;0,055572
786,8145;0,0553736
787,7787;0,0551511
788,7430;0,0549136
789,7072;0,0546789
790,6714;0,0544648
791,6357;0,0542826
792,5999;0,0541332
793,5641;0,0540099
794,5284;0,0539021
795,4926;0,0537999
796,4568;0,0536956
797,4211;0,0535842
798,3853;0,0534637
799,3495;0,0533355
800,3138;0,0532037
801,2780;0,0530743
802,2422;0,0529524
803,2065;0,0528407
804,1707;0,0527397
805,1349;0,0526495
806,0992;0,0525712
807,0634;0,052507
808,0276;0,0524575
808,9919;0,0524177
809,9561;0,0523766
810,9203;0,05232
811,8846;0,052238
812,8488;0,0521328
813,8130;0,0520211
814,7773;0,051928
815,7415;0,0518752
816,7057;0,0518699
817,6700;0,0519004
818,6342;0,0519419
819,5984;0,0519697
820,5627;0,0519708
821,5269;0,0519477
822,4911;0,0519141
823,4554;0,0518847
824,4196;0,0518681
825,3839;0,0518642
826,3481;0,0518671
827,3123;0,0518688
828,2766;0,0518609
829,2408;0,0518356
830,2050;0,0517859
831,1693;0,0517075
832,1335;0,0516003
833,0977;0,0514679
834,0620;0,0513166
835,0262;0,0511524
835,9904;0,0509811
836,9547;0,0508085
837,9189;0,0506411
838,8831;0,0504836
839,8474;0,0503367
840,8116;0,0501964
841,7758;0,0500575
842,7401;0,0499195
843,7043;0,0497905
844,6685;0,0496829
845,6328;0,0496051
846,5970;0,049553
847,5612;0,0495096
848,5255;0,0494541
849,4897;0,0493749
850,4539;0,0492771
851,4182;0,0491791
852,3824;0,049101
853,3466;0,0490518
854,3109;0,0490257
855,2751;0,049008
856,2393;0,0489858
857,2036;0,0489566
858,1678;0,0489294
859,1320;0,0489186
860,0963;0,0489371
861,0605;0,0489911
862,0247;0,0490806
862,9890;0,0492016
863,9532;0,0493483
864,9174;0,0495156
865,8817;0,0496996
866,8459;0,0498999
867,8101;0,0501204
868,7744;0,0503683
869,7386;0,0506509
870,7028;0,0509698
871,6671;0,0513166
872,6313;0,0516729
873,5955;0,0520151
874,5598;0,0523227
875,5240;0,0525858
876,4882;0,0528075
877,4525;0,0530022
878,4167;0,0531902
879,3809;0,0533932
880,3452;0,053632
881,3094;0,0539257
882,2736;0,0542911
883,2379;0,0547401
884,2021;0,0552762
885,1663;0,0558921
886,1306;0,0565708
887,0948;0,05729
888,0590;0,0580275
889,0233;0,0587649
889,9875;0,0594891
890,9517;0,0601906
891,9160;0,0608598
892,8802;0,0614839
893,8444;0,0620444
894,8087;0,0625171
895,7729;0,0628751
896,7371;0,0630951
897,7014;0,0631658
898,6656;0,0630921
899,6298;0,0628951
900,5941;0,0626055
901,5583;0,0622543
902,5225;0,0618667
903,4868;0,0614611
904,4510;0,0610532
905,4152;0,0606603
906,3795;0,0603023
907,3437;0,0599978
908,3079;0,0597586
909,2722;0,0595857
910,2364;0,0594709
911,2007;0,0594029
912,1649;0,0593741
913,1292;0,059385
914,0934;0,0594438
915,0576;0,0595608
916,0219;0,0597411
916,9861;0,0599794
917,9503;0,0602595
918,9146;0,0605593
919,8788;0,0608594
920,8430;0,0611502
921,8073;0,0614341
922,7715;0,0617205
923,7357;0,062018
924,7000;0,0623277
925,6642;0,0626418
926,6284;0,062948
927,5927;0,0632355
928,5569;0,0634998
929,5211;0,0637434
930,4854;0,0639745
931,4496;0,0642046
932,4138;0,0644475
933,3781;0,0647168
934,3423;0,0650247
935,3065;0,0653789
936,2708;0,0657828
937,2350;0,0662371
938,1992;0,0667433
939,1635;0,0673054
940,1277;0,06793
941,0919;0,0686227
942,0562;0,0693855
943,0204;0,070215
943,9846;0,0711036
944,9489;0,0720421
945,9131;0,0730209
946,8773;0,0740328
947,8416;0,0750751
948,8058;0,0761514
949,7700;0,0772714
950,7343;0,078447
951,6985;0,0796856
952,6627;0,0809849
953,6270;0,0823328
954,5912;0,0837144
955,5554;0,0851204
956,5197;0,0865529
957,4839;0,0880225
958,4481;0,0895393
959,4124;0,0911041
960,3766;0,092705
961,3408;0,0943228
962,3051;0,0959401
963,2693;0,0975484
964,2335;0,0991493
965,1978;0,10075
966,1620;0,102359
967,1262;0,103984
968,0905;0,105633
969,0547;0,107324
970,0189;0,109078
970,9832;0,110918
971,9474;0,112865
972,9116;0,114927
973,8759;0,117111
974,8401;0,119419
975,8043;0,121852
976,7686;0,124406
977,7328;0,127057
978,6970;0,129755
979,6613;0,132423
980,6255;0,134971
981,5897;0,137312
982,5540;0,139392
983,5182;0,141191
984,4824;0,142725
985,4467;0,144031
986,4109;0,145157
987,3751;0,146147
988,3394;0,147036
989,3036;0,147849
990,2678;0,148599
991,2321;0,149289
992,1963;0,149915
993,1605;0,150471
994,1248;0,150955
995,0890;0,151371
996,0532;0,151726
997,0175;0,152036
997,9817;0,152315
998,9459;0,152583
999,9102;0,152866
1000,8744;0,153193
1001,8386;0,153592
1002,8029;0,154083
1003,7671;0,154674
1004,7313;0,155367
1005,6956;0,156159
1006,6598;0,157057
1007,6240;0,158071
1008,5883;0,159206
1009,5525;0,160451
1010,5167;0,161771
1011,4810;0,163114
1012,4452;0,164419
1013,4094;0,165643
1014,3737;0,166762
1015,3379;0,167775
1016,3021;0,168692
1017,2664;0,169521
1018,2306;0,170263
1019,1948;0,170909
1020,1591;0,171451
1021,1233;0,17189
1022,0875;0,172236
1023,0518;0,172511
1024,0160;0,172736
1024,9802;0,172925
1025,9445;0,173078
1026,9087;0,173185
1027,8729;0,173225
1028,8372;0,173176
1029,8014;0,173007
1030,7656;0,172684
1031,7299;0,17217
1032,6941;0,171436
1033,6583;0,170472
1034,6226;0,169303
1035,5868;0,167988
1036,5510;0,166616
1037,5153;0,165284
1038,4795;0,164079
1039,4437;0,163067
1040,4080;0,162281
1041,3722;0,161729
1042,3364;0,161392
1043,3007;0,161231
1044,2649;0,161191
1045,2291;0,161208
1046,1934;0,161222
1047,1576;0,161183
1048,1218;0,161056
1049,0861;0,160822
1050,0503;0,160465
1051,0145;0,159972
1051,9788;0,159328
1052,9430;0,158522
1053,9072;0,157551
1054,8715;0,156426
1055,8357;0,15516
1056,7999;0,153756
1057,7642;0,152196
1058,7284;0,150455
1059,6926;0,148509
1060,6569;0,14637
1061,6211;0,144089
1062,5853;0,141757
1063,5496;0,139472
1064,5138;0,137316
1065,4780;0,135332
1066,4423;0,133524
1067,4065;0,13187
1068,3707;0,130341
1069,3350;0,128907
1070,2992;0,127542
1071,2634;0,126218
1072,2277;0,124903
1073,1919;0,123562
1074,1561;0,122166
1075,1204;0,120698
1076,0846;0,11916
1077,0488;0,11757
1078,0131;0,115963
1078,9773;0,114387
1079,9415;0,112896
1080,9058;0,111537
1081,8700;0,110345
1082,8342;0,109331
1083,7985;0,108483
1084,7627;0,107774
1085,7269;0,107172
1086,6912;0,106653
1087,6554;0,106205
1088,6196;0,105824
1089,5839;0,105515
1090,5481;0,105284
1091,5123;0,105132
1092,4766;0,105055
1093,4408;0,105042
1094,4050;0,105082
1095,3693;0,105162
1096,3335;0,105271
1097,2977;0,105399
1098,2620;0,105538
1099,2262;0,10567
1100,1904;0,105774
1101,1547;0,105826
1102,1189;0,105803
1103,0831;0,105694
1104,0474;0,105505
1105,0116;0,105252
1105,9758;0,104958
1106,9401;0,104637
1107,9043;0,104291
1108,8685;0,103896
1109,8328;0,103411
1110,7970;0,10279
1111,7612;0,101993
1112,7255;0,101008
1113,6897;0,0998615
1114,6539;0,0986091
1115,6182;0,0973264
1116,5824;0,0960848
1117,5466;0,0949327
1118,5109;0,0938832
1119,4751;0,0929132
1120,4393;0,0919717
1121,4036;0,0909943
1122,3678;0,0899211
1123,3320;0,0887121
1124,2963;0,0873557
1125,2605;0,0858678
1126,2247;0,0842818
1127,1890;0,0826351
1128,1532;0,0809581
1129,1174;0,0792704
1130,0817;0,0775845
1131,0459;0,0759131
1132,0101;0,0742756
1132,9744;0,0727
1133,9386;0,0712203
1134,9028;0,0698722
1135,8671;0,0686879
1136,8313;0,0676923
1137,7955;0,066901
1138,7598;0,0663197
1139,7240;0,0659444
1140,6882;0,0657622
1141,6525;0,0657521
1142,6167;0,065887
1143,5809;0,0661362
1144,5452;0,0664695
1145,5094;0,066861
1146,4736;0,0672934
1147,4379;0,0677578
1148,4021;0,0682516
1149,3663;0,0687731
1150,3306;0,0693155
1151,2948;0,0698643
1152,2590;0,0703963
1153,2233;0,0708827
1154,1875;0,0712917
1155,1517;0,071591
1156,1160;0,0717476
1157,0802;0,0717272
1158,0444;0,0714927
1159,0087;0,0710053
1159,9729;0,0702269
1160,9371;0,0691264
1161,9014;0,0676885
1162,8656;0,065921
1163,8298;0,0638607
1164,7941;0,061572
1165,7583;0,0591399
1166,7225;0,0566579
1167,6868;0,0542149
1168,6510;0,0518838
1169,6152;0,0497162
1170,5795;0,0477413
1171,5437;0,0459704
1172,5079;0,0444026
1173,4722;0,0430285
1174,4364;0,0418328
1175,4006;0,0407956
1176,3649;0,0398946
1177,3291;0,0391088
1178,2933;0,0384223
1179,2576;0,0378261
1180,2218;0,0373167
1181,1860;0,0368916
1182,1503;0,0365462
1183,1145;0,036273
1184,0787;0,036064
1185,0430;0,0359152
1186,0072;0,0358278
1186,9714;0,0358073
1187,9357;0,0358596
1188,8999;0,0359879
1189,8641;0,0361914
1190,8284;0,0364666
1191,7926;0,036809
1192,7568;0,0372139
1193,7211;0,0376754
1194,6853;0,0381849
1195,6495;0,0387314
1196,6138;0,039303
1197,5780;0,0398886
1198,5422;0,0404792
1199,5065;0,0410582
1200,4707;0,0416368
1201,4349;0,0421963
1202,3992;0,0427267
1203,3634;0,0432186
1204,3276;0,043665
1205,2919;0,0440633
1206,2561;0,0444168
1207,2203;0,0447357
1208,1846;0,045037
1209,1488;0,045343
1210,1130;0,0456783
1211,0773;0,0460646
1212,0415;0,0465169
1213,0057;0,0470406
1213,9700;0,0476323
1214,9342;0,0482819
1215,8984;0,048975
1216,8627;0,0496944
1217,8269;0,0504211
1218,7911;0,0511365
1219,7554;0,0518258
1220,7196;0,0524805
1221,6838;0,0530991
1222,6481;0,0536846
1223,6123;0,0542408
1224,5765;0,0547686
1225,5408;0,0552659
1226,5050;0,0557289
1227,4692;0,0561546
1228,4335;0,0565419
1229,3977;0,0568903
1230,3619;0,0571988
1231,3262;0,0574637
1232,2904;0,0576802
1233,2546;0,0578439
1234,2189;0,0579541
1235,1831;0,0580147
1236,1473;0,0580344
1237,1116;0,0580239
1238,0758;0,0579932
1239,0400;0,057949
1240,0043;0,0578929
1240,9685;0,0578219
1241,9327;0,0577301
1242,8970;0,0576111
1243,8612;0,0574598
1244,8254;0,0572743
1245,7897;0,0570556
1246,7539;0,0568073
1247,7181;0,0565337
1248,6824;0,05624
1249,6466;0,055932
1250,6108;0,0556173
1251,5751;0,0553058
1252,5393;0,0550084
1253,5035;0,0547336
1254,4678;0,0544839
1255,4320;0,0542531
1256,3962;0,0540287
1257,3605;0,0537962
1258,3247;0,0535455
1259,2889;0,053274
1260,2532;0,0529853
1261,2174;0,0526843
1262,1816;0,0523718
1263,1459;0,0520427
1264,1101;0,0516882
1265,0743;0,0513012
1266,0386;0,0508795
1267,0028;0,0504272
1267,9670;0,0499514
1268,9313;0,0494599
1269,8955;0,0489582
1270,8597;0,0484496
1271,8240;0,0479362
1272,7882;0,0474201
1273,7524;0,0469042
1274,7167;0,0463933
1275,6809;0,0458924
1276,6451;0,0454058
1277,6094;0,0449347
1278,5736;0,0444757
1279,5378;0,0440222
1280,5021;0,0435665
1281,4663;0,0431048
1282,4305;0,0426385
1283,3948;0,0421751
1284,3590;0,0417258
1285,3232;0,041304
1286,2875;0,0409234
1287,2517;0,0405975
1288,2159;0,0403362
1289,1802;0,0401429
1290,1444;0,0400137
1291,1086;0,0399396
1292,0729;0,0399118
1293,0371;0,039927
1294,0013;0,0399888
1294,9656;0,0401047
1295,9298;0,0402804
1296,8940;0,0405158
1297,8583;0,0408056
1298,8225;0,0411426
1299,7867;0,0415213
1300,7510;0,0419392
1301,7152;0,0423952
1302,6794;0,0428885
1303,6437;0,0434176
1304,6079;0,0439799
1305,5721;0,0445715
1306,5364;0,045186
1307,5006;0,0458135
1308,4648;0,0464424
1309,4291;0,047062
1310,3933;0,0476644
1311,3575;0,0482427
1312,3218;0,0487875
1313,2860;0,049283
1314,2502;0,0497061
1315,2145;0,0500306
1316,1787;0,0502338
1317,1429;0,0503049
1318,1072;0,0502526
1319,0714;0,0501056
1320,0356;0,0499059
1320,9999;0,0496935
1321,9641;0,0494946
1322,9283;0,0493196
1323,8926;0,0491684
1324,8568;0,049039
1325,8210;0,0489317
1326,7853;0,0488485
1327,7495;0,0487893
1328,7137;0,0487482
1329,6780;0,0487126
1330,6422;0,0486654
1331,6064;0,0485889
1332,5707;0,048469
1333,5349;0,048296
1334,4991;0,0480621
1335,4634;0,0477586
1336,4276;0,0473757
1337,3918;0,0469112
1338,3561;0,0463833
1339,3203;0,0458361
1340,2845;0,0453238
1341,2488;0,0448826
1342,2130;0,0445167
1343,1772;0,0442088
1344,1415;0,0439399
1345,1057;0,043702
1346,0699;0,0435013
1347,0342;0,043355
1347,9984;0,0432822
1348,9626;0,0432949
1349,9269;0,0433922
1350,8911;0,0435603
1351,8553;0,0437779
1352,8196;0,0440254
1353,7838;0,0442927
1354,7480;0,0445816
1355,7123;0,0448992
1356,6765;0,0452482
1357,6407;0,04562
1358,6050;0,0459968
1359,5692;0,0463585
1360,5334;0,0466911
1361,4977;0,0469917
1362,4619;0,0472695
1363,4261;0,0475384
1364,3904;0,0478049
1365,3546;0,0480653
1366,3188;0,0483092
1367,2831;0,048525
1368,2473;0,0487016
1369,2115;0,0488263
1370,1758;0,0488809
1371,1400;0,0488406
1372,1042;0,0486788
1373,0685;0,0483826
1374,0327;0,0479704
1374,9969;0,0474923
1375,9612;0,0469984
1376,9254;0,0465026
1377,8896;0,0459793
1378,8539;0,0453936
1379,8181;0,0447368
1380,7823;0,0440401
1381,7466;0,0433546
1382,7108;0,0427131
1383,6750;0,0421068
1384,6393;0,0414953
1385,6035;0,0408455
1386,5677;0,0401755
1387,5320;0,0395628
1388,4962;0,039091
1389,4604;0,0387854
1390,4247;0,038609
1391,3889;0,0385023
1392,3531;0,038419
1393,3174;0,0383389
1394,2816;0,0382667
1395,2458;0,038221
1396,2101;0,0382196
1397,1743;0,0382703
1398,1385;0,0383732
1399,1028;0,0385252
1400,0670;0,0387202
1401,0313;0,0389474
1401,9955;0,0391937
1402,9597;0,039449
1403,9240;0,0397121
1404,8882;0,0399909
1405,8524;0,0402964
1406,8167;0,0406347
1407,7809;0,0410049
1408,7451;0,0414063
1409,7094;0,0418444
1410,6736;0,042328
1411,6378;0,0428589
1412,6021;0,0434223
1413,5663;0,0439901
1414,5305;0,044533
1415,4948;0,0450299
1416,4590;0,0454701
1417,4232;0,0458532
1418,3875;0,0461881
1419,3517;0,0464848
1420,3159;0,0467378
1421,2802;0,0469217
1422,2444;0,0470059
1423,2086;0,0469735
1424,1729;0,0468315
1425,1371;0,046603
1426,1013;0,0463028
1427,0656;0,0459175
1428,0298;0,0454159
1428,9940;0,0447895
1429,9583;0,0440897
1430,9225;0,0434109
1431,8867;0,0428206
1432,8510;0,0423072
1433,8152;0,0417899
1434,7794;0,0411748
1435,7437;0,0404387
1436,7079;0,0396908
1437,6721;0,0391075
1438,6364;0,0387764
1439,6006;0,0386543
1440,5648;0,038652
1441,5291;0,0387065
1442,4933;0,0387945
1443,4575;0,0389167
1444,4218;0,0390774
1445,3860;0,0392715
1446,3502;0,0394856
1447,3145;0,0397076
1448,2787;0,0399344
1449,2429;0,0401713
1450,2072;0,0404219
1451,1714;0,0406802
1452,1356;0,0409287
1453,0999;0,0411375
1454,0641;0,041256
1455,0283;0,0412047
1455,9926;0,0409063
1456,9568;0,0404122
1457,9210;0,0399654
1458,8853;0,0397512
1459,8495;0,039727
1460,8137;0,0397527
1461,7780;0,0396975
1462,7422;0,0394512
1463,7064;0,0389414
1464,6707;0,0381923
1465,6349;0,0373498
1466,5991;0,0365747
1467,5634;0,0359151
1468,5276;0,0352999
1469,4918;0,0346012
1470,4561;0,0336815
1471,4203;0,0324484
1472,3845;0,0309573
1473,3488;0,0294621
1474,3130;0,0282341
1475,2772;0,0273378
1476,2415;0,0266728
1477,2057;0,0261276
1478,1699;0,0256408
1479,1342;0,0251924
1480,0984;0,0247824
1481,0626;0,0244213
1482,0269;0,0241242
1482,9911;0,023904
1483,9553;0,0237611
1484,9196;0,023679
1485,8838;0,0236275
1486,8480;0,0235759
1487,8123;0,0235158
1488,7765;0,023482
1489,7407;0,0235371
1490,7050;0,0237118
1491,6692;0,0239823
1492,6334;0,024308
1493,5977;0,0246643
1494,5619;0,025048
1495,5261;0,02547
1496,4904;0,0259452
1497,4546;0,0264757
1498,4188;0,0270407
1499,3831;0,0276084
1500,3473;0,028154
1501,3115;0,0286621
1502,2758;0,0291185
1503,2400;0,029499
1504,2042;0,0297529
1505,1685;0,0297829
1506,1327;0,0294739
1507,0969;0,0288708
1508,0612;0,0282686
1509,0254;0,0278701
1509,9896;0,0276269
1510,9539;0,0274274
1511,9181;0,0271963
1512,8823;0,0268906
1513,8466;0,0264872
1514,8108;0,0259864
1515,7750;0,0254195
1516,7393;0,0248371
1517,7035;0,0242752
1518,6677;0,023729
1519,6320;0,0231657
1520,5962;0,0225711
1521,5604;0,0219851
1522,5247;0,0214766
1523,4889;0,0210841
1524,4531;0,0207949
1525,4174;0,0205778
1526,3816;0,0204177
1527,3458;0,0203196
1528,3101;0,0202886
1529,2743;0,0203133
1530,2385;0,0203665
1531,2028;0,0204191
1532,1670;0,020459
1533,1312;0,020504
1534,0955;0,0205903
1535,0597;0,0207374
1536,0239;0,0209324
1536,9882;0,0211393
1537,9524;0,0213088
1538,9166;0,0213761
1539,8809;0,0212846
1540,8451;0,021072
1541,8093;0,0208866
1542,7736;0,0208145
1543,7378;0,0208273
1544,7020;0,0208794
1545,6663;0,0209523
1546,6305;0,0210444
1547,5947;0,0211531
1548,5590;0,0212678
1549,5232;0,0213748
1550,4874;0,0214684
1551,4517;0,021559
1552,4159;0,021667
1553,3801;0,0218066
1554,3444;0,0219709
1555,3086;0,0221275
1556,2728;0,0222145
1557,2371;0,0221508
1558,2013;0,0219257
1559,1655;0,0217192
1560,1298;0,0217217
1561,0940;0,0219144
1562,0582;0,0221983
1563,0225;0,0225094
1563,9867;0,0228164
1564,9509;0,0231004
1565,9152;0,0233479
1566,8794;0,0235586
1567,8436;0,0237572
1568,8079;0,0239908
1569,7721;0,024295
1570,7363;0,0246626
1571,7006;0,025056
1572,6648;0,0254427
1573,6290;0,0258134
1574,5933;0,0261832
1575,5575;0,0265822
1576,5217;0,0270321
1577,4860;0,0275253
1578,4502;0,028039
1579,4144;0,0285638
1580,3787;0,0291067
1581,3429;0,0296788
1582,3071;0,0302853
1583,2714;0,0309226
1584,2356;0,0315827
1585,1998;0,0322582
1586,1641;0,0329414
1587,1283;0,0336182
1588,0925;0,0342644
1589,0568;0,0348503
1590,0210;0,0353501
1590,9852;0,0357471
1591,9495;0,0360314
1592,9137;0,0361965
1593,8779;0,0362423
1594,8422;0,0361818
1595,8064;0,0360417
1596,7706;0,0358533
1597,7349;0,0356399
1598,6991;0,0354128
1599,6633;0,0351759
1600,6276;0,0349339
1601,5918;0,0346975
1602,5560;0,0344808
1603,5203;0,0342941
1604,4845;0,0341362
1605,4487;0,0339939
1606,4130;0,0338492
1607,3772;0,033693
1608,3414;0,0335384
1609,3057;0,0334204
1610,2699;0,0333738
1611,2341;0,0334068
1612,1984;0,033494
1613,1626;0,0335871
1614,1268;0,0336334
1615,0911;0,0336006
1616,0553;0,0335138
1617,0195;0,0334567
1617,9838;0,0334976
1618,9480;0,0336297
1619,9122;0,0337979
1620,8765;0,0339472
1621,8407;0,0340453
1622,8049;0,0340912
1623,7692;0,0341124
1624,7334;0,0341426
1625,6976;0,0341967
1626,6619;0,0342719
1627,6261;0,0343663
1628,5903;0,0344886
1629,5546;0,0346484
1630,5188;0,0348412
1631,4830;0,0350422
1632,4473;0,0352077
1633,4115;0,0352786
1634,3757;0,0352017
1635,3400;0,0349926
1636,3042;0,0347765
1637,2684;0,0346812
1638,2327;0,0347179
1639,1969;0,03483
1640,1611;0,0349705
1641,1254;0,0351174
1642,0896;0,0352562
1643,0538;0,0353592
1644,0181;0,0353751
1644,9823;0,0352493
1645,9465;0,0349929
1646,9108;0,0347345
1647,8750;0,0346191
1648,8392;0,0346642
1649,8035;0,0347673
1650,7677;0,0347646
1651,7319;0,0344596
1652,6962;0,0337571
1653,6604;0,0329336
1654,6246;0,0324266
1655,5889;0,03229
1656,5531;0,032325
1657,5173;0,0323707
1658,4816;0,0323409
1659,4458;0,0321835
1660,4100;0,0318677
1661,3743;0,0314103
1662,3385;0,030902
1663,3027;0,0304631
1664,2670;0,0301531
1665,2312;0,02994
1666,1954;0,0297358
1667,1597;0,0294375
1668,1239;0,0289726
1669,0881;0,0283601
1670,0524;0,027729
1671,0166;0,0272133
1671,9808;0,0268309
1672,9451;0,0264974
1673,9093;0,0261198
1674,8735;0,0256693
1675,8378;0,0252037
1676,8020;0,0248186
1677,7662;0,0245655
1678,7305;0,024424
1679,6947;0,0243276
1680,6589;0,0241857
1681,6232;0,0238882
1682,5874;0,0233403
1683,5516;0,022578
1684,5159;0,0218314
1685,4801;0,0213077
1686,4443;0,0210035
1687,4086;0,0208105
1688,3728;0,0206481
1689,3370;0,0204915
1690,3013;0,0203503
1691,2655;0,0202393
1692,2297;0,0201592
1693,1940;0,0200918
1694,1582;0,0200088
1695,1224;0,0198867
1696,0867;0,0197194
1697,0509;0,0195202
1698,0151;0,0193124
1698,9794;0,0191218
1699,9436;0,0189768
1700,9078;0,0189015
1701,8721;0,0189037
1702,8363;0,0189721
1703,8005;0,0190882
1704,7648;0,019237
1705,7290;0,0194123
1706,6932;0,0196153
1707,6575;0,0198497
1708,6217;0,0201183
1709,5859;0,0204223
1710,5502;0,0207601
1711,5144;0,0211254
1712,4786;0,0215034
1713,4429;0,0218695
1714,4071;0,0221945
1715,3713;0,0224589
1716,3356;0,0226762
1717,2998;0,0228968
1718,2640;0,0231647
1719,2283;0,0234802
1720,1925;0,02382
1721,1567;0,0241654
1722,1210;0,0245072
1723,0852;0,024841
1724,0494;0,0251642
1725,0137;0,0254769
1725,9779;0,025782
1726,9421;0,026083
1727,9064;0,0263782
1728,8706;0,0266551
1729,8348;0,0268853
1730,7991;0,0270224
1731,7633;0,0270132
1732,7275;0,0268403
1733,6918;0,0265742
1734,6560;0,0263409
1735,6202;0,0262046
1736,5845;0,0261301
1737,5487;0,0260385
1738,5129;0,0258618
1739,4772;0,0255681
1740,4414;0,0251745
1741,4056;0,0247361
1742,3699;0,0243067
1743,3341;0,0239051
1744,2983;0,0235178
1745,2626;0,023119
1746,2268;0,0226795
1747,1910;0,0221632
1748,1553;0,0215343
1749,1195;0,0207923
1750,0837;0,0200065
1751,0480;0,0192844
1752,0122;0,0186889
1752,9764;0,0182033
1753,9407;0,0177657
1754,9049;0,017318
1755,8691;0,0168378
1756,8334;0,0163414
1757,7976;0,0158607
1758,7618;0,015409
1759,7261;0,0149692
1760,6903;0,0145168
1761,6545;0,014055
1762,6188;0,0136212
1763,5830;0,013257
1764,5472;0,0129747
1765,5115;0,0127542
1766,4757;0,0125627
1767,4399;0,0123732
1768,4042;0,01217
1769,3684;0,0119424
1770,3326;0,0116805
1771,2969;0,011385
1772,2611;0,0110854
1773,2253;0,0108346
1774,1896;0,0106694
1775,1538;0,0105854
1776,1180;0,0105485
1777,0823;0,0105199
1778,0465;0,0104732
1779,0107;0,0104017
1779,9750;0,0103169
1780,9392;0,0102361
1781,9034;0,0101679
1782,8677;0,0101099
1783,8319;0,0100587
1784,7961;0,0100192
1785,7604;0,0100028
1786,7246;0,0100165
1787,6888;0,0100532
1788,6531;0,010091
1789,6173;0,0100991
1790,5815;0,0100516
1791,5458;0,00994821
1792,5100;0,00982622
1793,4742;0,00973601
1794,4385;0,00970024
1795,4027;0,00970599
1796,3669;0,00972501
1797,3312;0,00973145
1798,2954;0,00971026
1799,2596;0,00966109
1800,2239;0,00959774
1801,1881;0,00953989
1802,1523;0,00950142
1803,1166;0,00948572
1804,0808;0,00948934
1805,0450;0,00950697
1806,0093;0,00953238
1806,9735;0,00955676
1807,9377;0,00956787
1808,9020;0,00955318
1809,8662;0,00950703
1810,8304;0,00943667
1811,7947;0,00935995
1812,7589;0,00929485
1813,7231;0,00925008
1814,6874;0,00922377
1815,6516;0,00920893
1816,6158;0,0092006
1817,5801;0,00920029
1818,5443;0,00921483
1819,5085;0,00925015
1820,4728;0,00930522
1821,4370;0,00937045
1822,4012;0,00943066
1823,3655;0,00947067
1824,3297;0,00948127
1825,2939;0,00946177
1826,2582;0,00941692
1827,2224;0,00935197
1828,1866;0,00927251
1829,1509;0,00918989
1830,1151;0,00912359
1831,0793;0,0090927
1832,0436;0,00910296
1833,0078;0,0091435
1833,9720;0,00919431
1834,9363;0,00923589
1835,9005;0,00925745
1836,8647;0,00926257
1837,8290;0,00926711
1838,7932;0,00928731
1839,7574;0,00932687
1840,7217;0,00937207
1841,6859;0,00939635
1842,6501;0,00937323
1843,6144;0,00929709
1844,5786;0,00919632
1845,5428;0,00911554
1846,5071;0,00907934
1847,4713;0,00907915
1848,4355;0,00908883
1849,3998;0,00908528
1850,3640;0,00906112
1851,3282;0,00902692
1852,2925;0,00900331
1853,2567;0,00900711
1854,2209;0,00904054
1855,1852;0,00908998
1856,1494;0,00913397
1857,1136;0,00915478
1858,0779;0,00914711
1859,0421;0,00911972
1860,0063;0,00908997
1860,9706;0,00907462
1861,9348;0,00908194
1862,8990;0,00910871
1863,8633;0,0091426
1864,8275;0,00916713
1865,7917;0,00916693
1866,7560;0,0091339
1867,7202;0,00907435
1868,6844;0,00900989
1869,6487;0,00896498
1870,6129;0,00895068
1871,5771;0,00896177
1872,5414;0,00898535
1873,5056;0,00900866
1874,4698;0,00902266
1875,4341;0,0090239
1876,3983;0,0090157
1877,3625;0,00900717
1878,3268;0,00900912
1879,2910;0,00902877
1880,2552;0,00906588
1881,2195;0,00911243
1882,1837;0,00915625
1883,1479;0,00918703
1884,1122;0,00920122
1885,0764;0,00920228
1886,0406;0,00919601
1887,0049;0,00918456
1887,9691;0,00916354
1888,9333;0,00912522
1889,8976;0,00906671
1890,8618;0,00899642
1891,8260;0,00893256
1892,7903;0,00889459
1893,7545;0,00889364
1894,7188;0,00892666
1895,6830;0,00897683
1896,6472;0,00902136
1897,6115;0,00904346
1898,5757;0,00904011
1899,5399;0,0090206
1900,5042;0,00899841
1901,4684;0,00898256
1902,4326;0,00897353
1903,3969;0,00896515
1904,3611;0,00895098
1905,3253;0,00892992
1906,2896;0,00890715
1907,2538;0,00889011
1908,2180;0,00888276
1909,1823;0,00888287
1910,1465;0,00888489
1911,1107;0,00888627
1912,0750;0,00889107
1913,0392;0,00890695
1914,0034;0,00893816
1914,9677;0,00898003
1915,9319;0,00901901
1916,8961;0,00904006
1917,8604;0,00903747
1918,8246;0,0090194
1919,7888;0,00899987
1920,7531;0,0089849
1921,7173;0,00896575
1922,6815;0,00892516
1923,6458;0,00885275
1924,6100;0,00875828
1925,5742;0,00867082
1926,5385;0,00862355
1927,5027;0,00863634
1928,4669;0,00870719
1929,4312;0,0088149
1930,3954;0,00892965
1931,3596;0,00902563
1932,3239;0,00908822
1933,2881;0,00911275
1934,2523;0,00909955
1935,2166;0,00905245
1936,1808;0,00898202
1937,1450;0,00890813
1938,1093;0,00885631
1939,0735;0,00884778
1940,0377;0,00888838
1941,0020;0,00896241
1941,9662;0,00903728
1942,9304;0,00908017
1943,8947;0,00907643
1944,8589;0,00903376
1945,8231;0,00896963
1946,7874;0,00889616
1947,7516;0,00881562
1948,7158;0,00872735
1949,6801;0,00863799
1950,6443;0,00856502
1951,6085;0,00852881
1952,5728;0,00853816
1953,5370;0,00858107
1954,5012;0,00862938
1955,4655;0,00865626
1956,4297;0,00865451
1957,3939;0,00864173
1958,3582;0,00864664
1959,3224;0,00868511
1960,2866;0,00874414
1961,2509;0,00878807
1962,2151;0,00878431
1963,1793;0,00872814
1964,1436;0,00864694
1965,1078;0,00858159
1966,0720;0,00855843
1967,0363;0,00857165
1968,0005;0,00858959
1968,9647;0,0085799
1969,9290;0,00853145
1970,8932;0,00845684
1971,8574;0,00838051
1972,8217;0,00832766
1973,7859;0,00832137
1974,7501;0,00838238
1975,7144;0,00852054
1976,6786;0,0087178
1977,6428;0,00891928
1978,6071;0,0090512
1979,5713;0,00906067
1980,5355;0,00894771
1981,4998;0,00876675
1982,4640;0,0086
1983,4282;0,0085205
1984,3925;0,00856182
1985,3567;0,00870628
1986,3209;0,00889741
1987,2852;0,0090705
1988,2494;0,00918508
1989,2136;0,00924276
1990,1779;0,0092818
1991,1421;0,00934939
1992,1063;0,00946464
1993,0706;0,00959684
1994,0348;0,00967849
1994,9990;0,0096458
1995,9633;0,00947852
1996,9275;0,00921548
1997,8917;0,00893882
1998,8560;0,00873506
1999,8202;0,00865417
2000,7844;0,00869211
2001,7487;0,00880597
2002,7129;0,00894417
2003,6771;0,00906583
2004,6414;0,00914021
2005,6056;0,00914109
2006,5698;0,00905585
2007,5341;0,0089092
2008,4983;0,0087744
2009,4625;0,00874507
2010,4268;0,00887734
2011,3910;0,00914547
2012,3552;0,00944901
2013,3195;0,00967014
2014,2837;0,00974315
2015,2479;0,00968814
2016,2122;0,00958378
2017,1764;0,00949879
2018,1406;0,00943919
2019,1049;0,00935863
2020,0691;0,00921958
2021,0333;0,00904599
2021,9976;0,00891948
2022,9618;0,00892156
2023,9260;0,00906709
2024,8903;0,00928111
2025,8545;0,00944042
2026,8187;0,00945151
2027,7830;0,00930872
2028,7472;0,00909394
2029,7114;0,00892358
2030,6757;0,00888321
2031,6399;0,00899092
2032,6041;0,00920483
2033,5684;0,0094587
2034,5326;0,00969745
2035,4968;0,00989327
2036,4611;0,0100424
2037,4253;0,0101535
2038,3895;0,0102379
2039,3538;0,0103022
2040,3180;0,0103437
2041,2822;0,0103498
2042,2465;0,0103075
2043,2107;0,0102207
2044,1749;0,0101233
2045,1392;0,0100761
2046,1034;0,010138
2047,0676;0,0103256
2048,0320;0,0105861
2048,9961;0,0108149
2049,9604;0,0109091
2050,9246;0,010822
2051,8889;0,010583
2052,8530;0,0102785
2053,8174;0,0100124
2054,7815;0,0098607
2055,7458;0,00984227
2056,7100;0,00991718
2057,6743;0,0100158
2058,6384;0,0100793
2059,6028;0,0100874
2060,5669;0,0100611
2061,5313;0,0100422
2062,4954;0,0100667
2063,4597;0,0101454
2064,4238;0,0102617
2065,3882;0,010383
2066,3523;0,0104771
2067,3167;0,0105235
2068,2808;0,0105174
2069,2451;0,0104672
2070,2092;0,0103911
2071,1736;0,010312
2072,1377;0,0102505
2073,1021;0,0102163
2074,0662;0,0102042
2075,0305;0,0101975
2075,9946;0,0101809
2076,9590;0,0101527
2077,9231;0,0101286
2078,8875;0,0101322
2079,8516;0,0101778
2080,8159;0,0102572
2081,7800;0,0103401
2082,7444;0,0103894
2083,7085;0,0103821
2084,6729;0,0103232
2085,6370;0,0102437
2086,6013;0,0101846
2087,5654;0,0101748
2088,5298;0,0102156
2089,4939;0,0102811
2090,4583;0,0103332
2091,4224;0,0103429
2092,3867;0,0103057
2093,3508;0,0102428
2094,3152;0,0101877
2095,2793;0,0101673
2096,2437;0,0101873
2097,2078;0,0102322
2098,1721;0,0102777
2099,1362;0,0103065
2100,1006;0,0103161
2101,0647;0,0103165
2102,0291;0,0103202
2102,9932;0,010334
2103,9575;0,010357
2104,9216;0,0103843
2105,8860;0,0104135
2106,8501;0,0104473
2107,8145;0,0104922
2108,7786;0,0105515
2109,7429;0,0106197
2110,7070;0,010681
2111,6714;0,0107157
2112,6355;0,0107102
2113,5999;0,0106666
2114,5640;0,0106034
2115,5283;0,0105461
2116,4924;0,0105136
2117,4568;0,0105082
2118,4209;0,0105153
2119,3853;0,0105153
2120,3494;0,0104967
2121,3137;0,010464
2122,2778;0,0104332
2123,2422;0,0104188
2124,2063;0,0104229
2125,1707;0,0104339
2126,1348;0,0104356
2127,0991;0,0104204
2128,0632;0,0103966
2129,0276;0,0103843
2129,9917;0,0104027
2130,9561;0,0104575
2131,9202;0,0105352
2132,8845;0,0106083
2133,8486;0,0106498
2134,8130;0,0106497
2135,7771;0,010623
2136,7415;0,0106049
2137,7056;0,0106328
2138,6699;0,0107252
2139,6340;0,0108698
2140,5984;0,0110264
2141,5625;0,0111443
2142,5269;0,0111882
2143,4910;0,0111578
2144,4553;0,0110911
2145,4194;0,0110459
2146,3838;0,0110678
2147,3479;0,0111628
2148,3123;0,0112895
2149,2764;0,0113789
2150,2407;0,0113704
2151,2048;0,0112462
2152,1692;0,0110455
2153,1333;0,0108527
2154,0977;0,010768
2155,0618;0,0108712
2156,0261;0,0111887
2156,9902;0,0116702
2157,9546;0,0121893
2158,9187;0,0125892
2159,8831;0,0127604
2160,8472;0,012694
2161,8115;0,0124696
2162,7756;0,0122001
2163,7400;0,0119801
2164,7041;0,0118554
2165,6685;0,0118173
2166,6326;0,0118169
2167,5969;0,0117956
2168,5610;0,011717
2169,5254;0,0115841
2170,4895;0,0114357
2171,4539;0,0113246
2172,4180;0,0112892
2173,3823;0,0113311
2174,3464;0,0114108
2175,3108;0,0114663
2176,2749;0,0114465
2177,2393;0,0113408
2178,2034;0,0111876
2179,1677;0,0110571
2180,1318;0,0110175
2181,0962;0,0111005
2182,0603;0,0112849
2183,0247;0,0115053
2183,9888;0,0116834
2184,9531;0,0117624
2185,9172;0,0117262
2186,8816;0,0115989
2187,8457;0,0114274
2188,8101;0,0112614
2189,7742;0,0111362
2190,7385;0,0110667
2191,7026;0,0110493
2192,6670;0,0110718
2193,6311;0,0111209
2194,5955;0,0111859
2195,5596;0,0112562
2196,5239;0,0113176
2197,4880;0,0113535
2198,4524;0,0113511
2199,4165;0,0113093
2200,3809;0,0112408
2201,3450;0,0111645
2202,3093;0,0110943
2203,2734;0,011033
2204,2378;0,0109757
2205,2019;0,0109207
2206,1663;0,0108753
2207,1304;0,0108515
2208,0947;0,0108542
2209,0588;0,0108724
2210,0232;0,0108833
2210,9873;0,0108684
2211,9517;0,0108276
2212,9158;0,0107802
2213,8801;0,0107509
2214,8442;0,0107513
2215,8086;0,0107731
2216,7727;0,0107974
2217,7371;0,0108111
2218,7012;0,0108167
2219,6655;0,010826
2220,6296;0,0108452
2221,5940;0,0108657
2222,5581;0,0108691
2223,5225;0,010843
2224,4866;0,0107918
2225,4509;0,0107333
2226,4150;0,0106837
2227,3794;0,010644
2228,3435;0,0106017
2229,3079;0,0105476
2230,2720;0,0104916
2231,2363;0,0104639
2232,2004;0,0104961
2233,1648;0,0105955
2234,1289;0,0107329
2235,0933;0,0108539
2236,0574;0,0109093
2237,0217;0,0108818
2237,9858;0,0107942
2238,9502;0,0106927
2239,9143;0,0106196
2240,8787;0,0105926
2241,8428;0,0106027
2242,8071;0,0106272
2243,7712;0,0106467
2244,7356;0,0106531
2245,6997;0,0106478
2246,6641;0,0106341
2247,6282;0,0106127
2248,5925;0,0105833
2249,5566;0,0105497
2250,5210;0,010521
2251,4851;0,0105076
2252,4495;0,0105155
2253,4136;0,0105413
2254,3779;0,0105752
2255,3420;0,010606
2256,3064;0,0106259
2257,2705;0,0106307
2258,2349;0,0106166
2259,1990;0,0105792
2260,1633;0,0105164
2261,1274;0,0104349
2262,0918;0,0103537
2263,0559;0,0103006
2264,0203;0,0102993
2264,9844;0,010356
2265,9487;0,0104534
2266,9128;0,0105566
2267,8772;0,0106303
2268,8413;0,0106548
2269,8057;0,0106344
2270,7698;0,0105918
2271,7341;0,0105541
2272,6982;0,010538
2273,6626;0,0105425
2274,6267;0,0105522
2275,5911;0,0105495
2276,5552;0,0105258
2277,5195;0,010488
2278,4836;0,0104545
2279,4480;0,0104447
2280,4121;0,010468
2281,3765;0,0105182
2282,3406;0,0105784
2283,3049;0,0106297
2284,2690;0,0106611
2285,2334;0,0106728
2286,1975;0,0106735
2287,1619;0,0106722
2288,1260;0,0106727
2289,0903;0,0106715
2290,0544;0,0106628
2291,0188;0,0106439
2291,9829;0,0106193
2292,9473;0,010599
2293,9114;0,0105933
2294,8757;0,0106064
2295,8398;0,0106341
2296,8042;0,0106655
2297,7683;0,0106885
2298,7327;0,0106954
2299,6968;0,0106861
2300,6611;0,0106672
2301,6252;0,0106485
2302,5896;0,0106389
2303,5537;0,010642
2304,5181;0,0106561
2305,4822;0,0106738
2306,4465;0,0106855
2307,4106;0,0106823
2308,3750;0,0106606
2309,3391;0,0106248
2310,3035;0,0105878
2311,2676;0,010566
2312,2319;0,0105718
2313,1960;0,0106059
2314,1604;0,0106553
2315,1245;0,0106985
2316,0889;0,0107155
2317,0530;0,0106988
2318,0173;0,0106586
2318,9814;0,0106202
2319,9458;0,0106119
2320,9099;0,0106475
2321,8743;0,0107154
2322,8384;0,0107837
2323,8027;0,0108183
2324,7668;0,0107998
2325,7312;0,0107287
2326,6953;0,0106206
2327,6597;0,0104981
2328,6238;0,010384
2329,5881;0,0102963
2330,5522;0,0102455
2331,5166;0,0102338
2332,4807;0,0102539
2333,4451;0,0102899
2334,4092;0,0103209
2335,3735;0,0103284
2336,3376;0,0103054
2337,3020;0,0102613
2338,2661;0,0102186
2339,2305;0,0101984
2340,1946;0,0102036
2341,1589;0,0102132
2342,1230;0,010195
2343,0874;0,0101369
2344,0515;0,0100725
2345,0159;0,0100608
2345,9800;0,0101308
2346,9443;0,0102587
2347,9084;0,0103942
2348,8728;0,0104946
2349,8369;0,0105417
2350,8013;0,0105452
2351,7654;0,0105371
2352,7297;0,0105594
2353,6938;0,0106435
2354,6582;0,0107939
2355,6223;0,0109839
2356,5867;0,0111649
2357,5508;0,0112805
2358,5151;0,0112864
2359,4792;0,0111745
2360,4436;0,0109803
2361,4077;0,0107579
2362,3721;0,0105445
2363,3362;0,0103467
2364,3005;0,0101573
2365,2646;0,00997968
2366,2290;0,00983506
2367,1931;0,00974639
2368,1575;0,00971724
2369,1216;0,00972524
2370,0859;0,00973602
2371,0500;0,00972583
2372,0144;0,00969563
2372,9785;0,00966737
2373,9429;0,00966738
2374,9070;0,00970974
2375,8713;0,00979011
2376,8354;0,00989151
2377,7998;0,00999571
2378,7639;0,0100919
2379,7283;0,0101784
2380,6924;0,0102581
2381,6567;0,0103337
2382,6208;0,0104049
2383,5852;0,0104694
2384,5493;0,0105255
2385,5137;0,0105729
2386,4778;0,010613
2387,4421;0,0106466
2388,4063;0,0106738
2389,3706;0,0106948
2390,3347;0,0107113
2391,2991;0,0107272
2392,2632;0,0107467
2393,2275;0,0107719
2394,1917;0,0108003
2395,1560;0,0108262
2396,1201;0,0108442
2397,0845;0,0108523
2398,0486;0,0108534
2399,0129;0,0108527
2399,9771;0,0108546
2400,9414;0,0108612
2401,9055;0,010873
2402,8699;0,0108913
2403,8340;0,0109187
2404,7983;0,0109576
2405,7625;0,0110063
2406,7268;0,0110579
2407,6909;0,0111019
2408,6553;0,0111295
2409,6194;0,011138
2410,5837;0,0111324
2411,5479;0,0111231
2412,5122;0,0111206
2413,4763;0,011131
2414,4407;0,0111548
2415,4048;0,0111877
2416,3691;0,0112234
2417,3333;0,0112559
2418,2976;0,0112805
2419,2617;0,011294
2420,2261;0,0112952
2421,1902;0,011285
2422,1545;0,0112672
2423,1187;0,0112477
2424,0830;0,011233
2425,0471;0,0112288
2426,0115;0,0112384
2426,9756;0,011262
2427,9399;0,0112967
2428,9041;0,0113371
2429,8684;0,0113769
2430,8325;0,0114108
2431,7969;0,0114368
2432,7610;0,0114564
2433,7253;0,0114735
2434,6895;0,0114904
2435,6538;0,011506
2436,6179;0,0115164
2437,5823;0,011518
2438,5464;0,0115122
2439,5107;0,0115064
2440,4749;0,0115105
2441,4392;0,0115308
2442,4033;0,0115658
2443,3677;0,0116069
2444,3318;0,0116438
2445,2961;0,0116708
2446,2603;0,0116896
2447,2246;0,0117075
2448,1887;0,0117312
2449,1531;0,0117624
2450,1172;0,0117967
2451,0815;0,0118257
2452,0457;0,0118421
2453,0100;0,0118428
2453,9741;0,0118307
2454,9385;0,0118135
2455,9026;0,0118008
2456,8669;0,0118001
2457,8311;0,0118134
2458,7954;0,0118364
2459,7595;0,0118609
2460,7239;0,0118795
2461,6880;0,0118901
2462,6523;0,0118972
2463,6165;0,011908
2464,5808;0,0119267
2465,5449;0,0119512
2466,5093;0,0119734
2467,4734;0,0119836
2468,4377;0,0119772
2469,4019;0,0119567
2470,3662;0,0119312
2471,3303;0,0119124
2472,2947;0,01191
2473,2588;0,0119288
2474,2231;0,0119682
2475,1873;0,0120213
2476,1516;0,0120769
2477,1157;0,0121214
2478,0801;0,0121436
2479,0442;0,0121389
2480,0085;0,0121134
2480,9727;0,0120819
2481,9370;0,0120623
2482,9011;0,0120668
2483,8655;0,0120963
2484,8296;0,01214
2485,7939;0,0121816
2486,7581;0,0122086
2487,7224;0,0122192
2488,6865;0,0122219
2489,6509;0,0122296
2490,6150;0,0122504
2491,5793;0,0122827
2492,5435;0,0123168
2493,5078;0,0123416
2494,4719;0,0123523
2495,4363;0,0123526
2496,4004;0,0123518
2497,3647;0,0123581
2498,3289;0,0123741
2499,2932;0,0123973
2500,2573;0,0124232
2501,2217;0,0124496
2502,1858;0,0124763
2503,1501;0,0125029
2504,1143;0,012526
2505,0786;0,0125403
2506,0427;0,0125427
2507,0071;0,0125357
2507,9712;0,0125279
2508,9355;0,0125295
2509,8997;0,0125461
2510,8640;0,0125754
2511,8281;0,0126091
2512,7925;0,0126371
2513,7566;0,0126536
2514,7209;0,0126581
2515,6851;0,0126546
2516,6494;0,0126482
2517,6135;0,0126437
2518,5779;0,0126441
2519,5420;0,0126506
2520,5063;0,0126625
2521,4705;0,012676
2522,4348;0,0126858
2523,3989;0,0126868
2524,3633;0,0126776
2525,3274;0,0126612
2526,2917;0,012644
2527,2559;0,0126321
2528,2202;0,0126279
2529,1843;0,0126295
2530,1487;0,0126329
2531,1128;0,0126358
2532,0771;0,0126395
2533,0413;0,0126476
2534,0056;0,0126634
2534,9697;0,0126861
2535,9341;0,0127108
2536,8982;0,0127304
2537,8625;0,0127401
2538,8267;0,0127405
2539,7910;0,0127372
2540,7551;0,0127386
2541,7195;0,0127505
2542,6836;0,0127731
2543,6479;0,0128004
2544,6121;0,0128232
2545,5764;0,0128347
2546,5405;0,0128341
2547,5049;0,0128283
2548,4690;0,0128276
2549,4333;0,0128402
2550,3975;0,0128661
2551,3618;0,0128962
2552,3259;0,0129162
2553,2903;0,0129142
2554,2544;0,0128877
2555,2188;0,0128461
2556,1829;0,0128065
2557,1472;0,0127858
2558,1113;0,0127922
2559,0757;0,0128218
2560,0398;0,0128615
2561,0042;0,0128961
2561,9683;0,0129157
2562,9326;0,0129195
2563,8967;0,0129142
2564,8611;0,0129091
2565,8252;0,0129124
2566,7896;0,0129277
2567,7537;0,0129553
2568,7180;0,0129923
2569,6821;0,0130335
2570,6465;0,0130715
2571,6106;0,0130978
2572,5750;0,0131052
2573,5391;0,0130922
2574,5034;0,0130638
2575,4675;0,0130307
2576,4319;0,0130044
2577,3960;0,0129923
2578,3604;0,0129959
2579,3245;0,0130123
2580,2888;0,0130375
2581,2529;0,013069
2582,2173;0,0131054
2583,1814;0,0131445
2584,1458;0,0131817
2585,1099;0,0132109
2586,0742;0,0132272
2587,0383;0,0132285
2588,0027;0,0132169
2588,9668;0,0131976
2589,9312;0,0131774
2590,8953;0,0131628
2591,8596;0,013159
2592,8237;0,0131687
2593,7881;0,0131916
2594,7522;0,0132239
2595,7166;0,01326
2596,6807;0,0132946
2597,6450;0,0133241
2598,6091;0,0133473
2599,5735;0,0133655
2600,5376;0,0133804
2601,5020;0,0133945
2602,4661;0,0134099
2603,4304;0,0134277
2604,3945;0,0134479
2605,3589;0,013469
2606,3230;0,0134883
2607,2874;0,013504
2608,2515;0,0135162
2609,2158;0,0135272
2610,1799;0,0135402
2611,1443;0,0135571
2612,1084;0,0135771
2613,0728;0,0135976
2614,0369;0,0136158
2615,0012;0,0136302
2615,9653;0,0136415
2616,9297;0,0136522
2617,8938;0,0136644
2618,8582;0,0136795
2619,8223;0,0136971
2620,7866;0,0137155
2621,7507;0,0137328
2622,7151;0,0137477
2623,6792;0,0137598
2624,6436;0,0137704
2625,6077;0,0137813
2626,5720;0,0137947
2627,5361;0,013812
2628,5005;0,0138333
2629,4646;0,0138577
2630,4290;0,0138835
2631,3931;0,0139092
2632,3574;0,013934
2633,3215;0,0139579
2634,2859;0,0139819
2635,2500;0,0140068
2636,2144;0,0140334
2637,1785;0,0140612
2638,1428;0,0140893
2639,1069;0,0141166
2640,0713;0,0141427
2641,0354;0,0141673
2641,9998;0,0141902
2642,9639;0,0142109
2643,9282;0,0142289
2644,8923;0,0142447
2645,8567;0,0142603
2646,8208;0,0142787
2647,7852;0,0143022
2648,7493;0,0143308
2649,7136;0,0143618
2650,6777;0,0143913
2651,6421;0,0144165
2652,6062;0,0144365
2653,5706;0,0144528
2654,5347;0,0144673
2655,4990;0,014481
2656,4631;0,014494
2657,4275;0,0145059
2658,3916;0,0145175
2659,3560;0,0145305
2660,3201;0,0145466
2661,2844;0,0145662
2662,2485;0,0145879
2663,2129;0,014609
2664,1770;0,0146276
2665,1414;0,014643
2666,1055;0,0146563
2667,0698;0,0146691
2668,0339;0,0146825
2668,9983;0,0146966
2669,9624;0,0147109
2670,9268;0,0147252
2671,8909;0,0147406
2672,8552;0,014759
2673,8193;0,0147828
2674,7837;0,0148125
2675,7478;0,0148465
2676,7122;0,0148809
2677,6763;0,0149112
2678,6406;0,0149345
2679,6047;0,0149514
2680,5691;0,014966
2681,5332;0,0149841
2682,4976;0,0150095
2683,4617;0,015042
2684,4260;0,0150775
2685,3901;0,01511
2686,3545;0,015136
2687,3186;0,0151562
2688,2830;0,015175
2689,2471;0,0151977
2690,2114;0,0152266
2691,1755;0,0152599
2692,1399;0,0152931
2693,1040;0,015322
2694,0684;0,0153455
2695,0325;0,0153661
2695,9968;0,015388
2696,9609;0,0154143
2697,9253;0,0154458
2698,8894;0,0154808
2699,8538;0,0155167
2700,8179;0,0155514
2701,7822;0,0155843
2702,7463;0,0156156
2703,7107;0,0156461
2704,6748;0,0156765
2705,6392;0,0157073
2706,6033;0,0157389
2707,5676;0,015771
2708,5317;0,0158026
2709,4961;0,015832
2710,4602;0,0158575
2711,4246;0,0158787
2712,3887;0,0158971
2713,3530;0,0159164
2714,3171;0,015941
2715,2815;0,0159739
2716,2456;0,0160147
2717,2100;0,0160601
2718,1741;0,0161049
2719,1384;0,0161446
2720,1025;0,016177
2721,0669;0,016202
2722,0310;0,0162213
2722,9954;0,0162363
2723,9595;0,0162484
2724,9238;0,0162597
2725,8879;0,0162729
2726,8523;0,0162917
2727,8164;0,0163183
2728,7808;0,0163527
2729,7449;0,0163913
2730,7092;0,0164291
2731,6733;0,0164612
2732,6377;0,0164851
2733,6018;0,0165005
2734,5662;0,0165091
2735,5303;0,016513
2736,4946;0,0165143
2737,4587;0,0165154
2738,4231;0,0165193
2739,3872;0,0165296
2740,3516;0,0165493
2741,3157;0,0165796
2742,2800;0,0166189
2743,2441;0,0166624
2744,2085;0,0167038
2745,1726;0,0167365
2746,1370;0,0167565
2747,1011;0,0167637
2748,0654;0,016762
2749,0295;0,0167586
2749,9939;0,0167616
2750,9580;0,0167764
2751,9224;0,0168043
2752,8865;0,0168415
2753,8508;0,016881
2754,8149;0,016916
2755,7793;0,0169428
2756,7434;0,0169629
2757,7078;0,0169816
2758,6719;0,017005
2759,6362;0,0170366
2760,6003;0,0170753
2761,5647;0,017116
2762,5288;0,0171527
2763,4932;0,0171818
2764,4573;0,0172038
2765,4216;0,0172234
2766,3857;0,0172466
2767,3501;0,0172783
2768,3142;0,0173201
2769,2786;0,0173691
2770,2427;0,0174196
2771,2070;0,0174654
2772,1711;0,0175026
2773,1355;0,0175315
2774,0996;0,0175563
2775,0640;0,017583
2776,0281;0,0176162
2776,9924;0,017657
2777,9565;0,0177031
2778,9209;0,0177512
2779,8850;0,0177994
2780,8494;0,0178483
2781,8135;0,0178996
2782,7778;0,0179537
2783,7419;0,0180081
2784,7063;0,0180582
2785,6704;0,0180994
2786,6348;0,0181309
2787,5989;0,0181562
2788,5632;0,018183
2789,5273;0,0182192
2790,4917;0,0182704
2791,4558;0,0183369
2792,4202;0,0184146
2793,3843;0,0184965
2794,3486;0,0185759
2795,3127;0,0186488
2796,2771;0,0187149
2797,2412;0,0187767
2798,2056;0,0188376
2799,1697;0,0189002
2800,1340;0,018966
2801,0981;0,0190355
2802,0625;0,0191097
2803,0266;0,0191905
2803,9910;0,019279
2804,9551;0,0193748
2805,9194;0,0194741
2806,8835;0,0195717
2807,8479;0,0196627
2808,8120;0,0197454
2809,7764;0,0198223
2810,7405;0,0198991
2811,7048;0,0199823
2812,6689;0,0200762
2813,6333;0,020182
2814,5974;0,020298
2815,5618;0,0204209
2816,5259;0,0205479
2817,4902;0,020677
2818,4543;0,0208076
2819,4187;0,0209405
2820,3828;0,0210768
2821,3472;0,0212176
2822,3113;0,0213635
2823,2756;0,0215142
2824,2397;0,0216689
2825,2041;0,0218274
2826,1682;0,0219902
2827,1326;0,0221592
2828,0967;0,022337
2829,0610;0,022526
2830,0251;0,0227277
2830,9895;0,0229421
2831,9536;0,0231679
2832,9180;0,0234028
2833,8821;0,0236441
2834,8464;0,0238886
2835,8105;0,024134
2836,7749;0,0243803
2837,7390;0,0246311
2838,7034;0,0248944
2839,6675;0,0251814
2840,6318;0,0255027
2841,5959;0,0258652
2842,5603;0,0262684
2843,5244;0,0267043
2844,4888;0,0271589
2845,4529;0,0276147
2846,4172;0,0280533
2847,3813;0,0284568
2848,3457;0,0288086
2849,3098;0,0290953
2850,2742;0,0293091
2851,2383;0,0294508
2852,2026;0,0295302
2853,1667;0,029564
2854,1311;0,0295711
2855,0952;0,0295664
2856,0596;0,0295585
2857,0237;0,0295504
2857,9880;0,0295437
2858,9521;0,0295426
2859,9165;0,029555
2860,8806;0,0295898
2861,8450;0,0296527
2862,8091;0,0297439
2863,7734;0,0298584
2864,7375;0,0299898
2865,7019;0,0301332
2866,6660;0,0302857
2867,6304;0,0304437
2868,5945;0,0306011
2869,5588;0,0307481
2870,5229;0,0308756
2871,4873;0,0309788
2872,4514;0,0310609
2873,4158;0,0311311
2874,3799;0,0312001
2875,3442;0,031275
2876,3083;0,0313569
2877,2727;0,0314428
2878,2368;0,0315286
2879,2012;0,0316125
2880,1653;0,0316954
2881,1296;0,0317798
2882,0938;0,0318679
2883,0581;0,0319603
2884,0222;0,0320563
2884,9866;0,0321542
2885,9507;0,0322521
2886,9150;0,0323485
2887,8792;0,0324426
2888,8435;0,0325337
2889,8076;0,0326212
2890,7720;0,0327045
2891,7361;0,0327828
2892,7004;0,0328561
2893,6646;0,0329262
2894,6289;0,0329962
2895,5930;0,0330698
2896,5574;0,0331494
2897,5215;0,0332347
2898,4858;0,0333222
2899,4500;0,0334071
2900,4143;0,0334854
2901,3784;0,0335552
2902,3428;0,0336176
2903,3069;0,0336763
2904,2712;0,0337361
2905,2354;0,0338012
2906,1997;0,0338744
2907,1638;0,0339573
2908,1282;0,0340517
2909,0923;0,0341615
2910,0566;0,034293
2911,0208;0,0344521
2911,9851;0,0346401
2912,9492;0,0348495
2913,9136;0,0350635
2914,8777;0,0352605
2915,8420;0,0354213
2916,8062;0,0355349
2917,7705;0,0356001
2918,7346;0,0356223
2919,6990;0,0356079
2920,6631;0,0355612
2921,6274;0,0354842
2922,5916;0,0353782
2923,5559;0,0352456
2924,5200;0,0350895
2925,4844;0,0349125
2926,4485;0,0347155
2927,4128;0,034499
2928,3770;0,0342653
2929,3413;0,0340198
2930,3054;0,0337701
2931,2698;0,0335236
2932,2339;0,0332846
2933,1982;0,033053
2934,1624;0,0328254
2935,1267;0,0325969
2936,0908;0,0323638
2937,0552;0,0321241
2938,0193;0,0318775
2938,9836;0,0316248
2939,9478;0,0313661
2940,9121;0,0311011
2941,8762;0,0308293
2942,8406;0,0305516
2943,8047;0,0302716
2944,7690;0,0299954
2945,7332;0,0297301
2946,6975;0,0294807
2947,6616;0,0292487
2948,6260;0,0290308
2949,5901;0,0288216
2950,5544;0,0286167
2951,5186;0,0284153
2952,4829;0,0282207
2953,4470;0,0280376
2954,4114;0,0278685
2955,3755;0,0277111
2956,3398;0,0275584
2957,3040;0,0274014
2958,2683;0,0272338
2959,2324;0,0270544
2960,1968;0,0268674
2961,1609;0,0266798
2962,1252;0,0264973
2963,0894;0,0263218
2964,0537;0,0261516
2965,0178;0,0259831
2965,9822;0,0258136
2966,9463;0,025642
2967,9106;0,0254686
2968,8748;0,0252929
2969,8391;0,0251131
2970,8032;0,0249265
2971,7676;0,024732
2972,7317;0,0245323
2973,6960;0,0243335
2974,6602;0,0241439
2975,6245;0,0239695
2976,5886;0,0238125
2977,5530;0,0236704
2978,5171;0,0235381
2979,4814;0,0234107
2980,4456;0,023286
2981,4099;0,0231647
2982,3740;0,0230496
2983,3384;0,0229446
2984,3025;0,0228526
2985,2668;0,0227753
2986,2310;0,022712
2987,1953;0,0226596
2988,1594;0,0226136
2989,1238;0,0225698
2990,0879;0,0225263
2991,0522;0,0224839
2992,0164;0,022446
2992,9807;0,0224161
2993,9448;0,0223961
2994,9092;0,022386
2995,8733;0,022385
2996,8376;0,0223922
2997,8018;0,0224074
2998,7661;0,02243
2999,7302;0,0224583
3000,6946;0,022489
3001,6587;0,0225189
3002,6230;0,0225459
3003,5872;0,0225695
3004,5515;0,0225907
3005,5156;0,0226103
3006,4800;0,0226288
3007,4441;0,0226459
3008,4084;0,0226616
3009,3726;0,0226765
3010,3369;0,0226913
3011,3010;0,0227067
3012,2654;0,0227236
3013,2295;0,0227432
3014,1938;0,0227675
3015,1580;0,0227986
3016,1223;0,0228377
3017,0864;0,022884
3018,0508;0,0229355
3019,0149;0,0229895
3019,9792;0,0230447
3020,9434;0,0231014
3021,9077;0,0231608
3022,8718;0,0232233
3023,8362;0,0232878
3024,8003;0,0233519
3025,7646;0,0234134
3026,7288;0,0234715
3027,6931;0,0235273
3028,6572;0,0235831
3029,6216;0,0236413
3030,5857;0,0237031
3031,5500;0,0237687
3032,5142;0,0238376
3033,4785;0,023909
3034,4426;0,0239834
3035,4070;0,0240618
3036,3711;0,0241456
3037,3354;0,0242353
3038,2996;0,0243301
3039,2639;0,0244281
3040,2280;0,0245266
3041,1924;0,0246234
3042,1565;0,0247179
3043,1208;0,0248102
3044,0850;0,0249012
3045,0493;0,0249914
3046,0134;0,0250819
3046,9778;0,0251748
3047,9419;0,0252731
3048,9063;0,0253797
3049,8704;0,0254951
3050,8347;0,0256156
3051,7988;0,025734
3052,7632;0,0258427
3053,7273;0,0259383
3054,6917;0,0260242
3055,6558;0,0261095
3056,6201;0,0262049
3057,5842;0,0263166
3058,5486;0,0264442
3059,5127;0,0265806
3060,4771;0,0267163
3061,4412;0,0268434
3062,4055;0,0269584
3063,3696;0,027062
3064,3340;0,027158
3065,2981;0,0272518
3066,2625;0,027348
3067,2266;0,02745
3068,1909;0,0275588
3069,1550;0,0276739
3070,1194;0,0277936
3071,0835;0,0279163
3072,0479;0,0280405
3073,0120;0,0281651
3073,9763;0,0282881
3074,9404;0,0284068
3075,9048;0,0285184
3076,8689;0,0286218
3077,8333;0,0287196
3078,7974;0,0288175
3079,7617;0,0289225
3080,7258;0,0290392
3081,6902;0,0291677
3082,6543;0,0293027
3083,6187;0,0294359
3084,5828;0,0295595
3085,5471;0,0296699
3086,5112;0,0297692
3087,4756;0,0298645
3088,4397;0,0299645
3089,4041;0,0300754
3090,3682;0,0301985
3091,3325;0,0303303
3092,2966;0,0304655
3093,2610;0,0306007
3094,2251;0,0307355
3095,1895;0,0308715
3096,1536;0,0310083
3097,1179;0,0311423
3098,0820;0,0312675
3099,0464;0,0313793
3100,0105;0,0314791
3100,9749;0,0315745
3101,9390;0,0316761
3102,9033;0,0317914
3103,8674;0,0319217
3104,8318;0,0320626
3105,7959;0,0322079
3106,7603;0,0323541
3107,7244;0,0325009
3108,6887;0,0326496
3109,6528;0,0327997
3110,6172;0,0329481
3111,5813;0,0330906
3112,5457;0,0332254
3113,5098;0,0333542
3114,4741;0,0334814
3115,4382;0,033611
3116,4026;0,0337431
3117,3667;0,033875
3118,3311;0,0340031
3119,2952;0,0341261
3120,2595;0,0342467
3121,2236;0,0343698
3122,1880;0,0345001
3123,1521;0,0346398
3124,1165;0,0347884
3125,0806;0,0349437
3126,0449;0,0351029
3127,0090;0,0352631
3127,9734;0,0354208
3128,9375;0,0355722
3129,9019;0,0357152
3130,8660;0,03585
3131,8303;0,035981
3132,7944;0,0361145
3133,7588;0,0362565
3134,7229;0,0364093
3135,6873;0,0365709
3136,6514;0,0367361
3137,6157;0,0368995
3138,5798;0,0370582
3139,5442;0,037212
3140,5083;0,0373632
3141,4727;0,0375151
3142,4368;0,0376704
3143,4011;0,0378307
3144,3652;0,0379959
3145,3296;0,0381644
3146,2937;0,0383333
3147,2581;0,0384993
3148,2222;0,0386598
3149,1865;0,0388141
3150,1506;0,0389641
3151,1150;0,0391131
3152,0791;0,0392642
3153,0435;0,0394194
3154,0076;0,0395789
3154,9719;0,0397412
3155,9360;0,0399047
3156,9004;0,040068
3157,8645;0,0402309
3158,8289;0,040394
3159,7930;0,0405589
3160,7573;0,0407267
3161,7214;0,0408973
3162,6858;0,0410694
3163,6499;0,04124
3164,6143;0,0414065
3165,5784;0,0415675
3166,5427;0,0417237
3167,5068;0,041878
3168,4712;0,0420346
3169,4353;0,042195
3170,3997;0,0423683
3171,3638;0,0425525
3172,3281;0,0427446
3173,2922;0,0429381
3174,2566;0,0431247
3175,2207;0,043298
3176,1851;0,0434565
3177,1492;0,0436048
3178,1135;0,0437506
3179,0776;0,0439008
3180,0420;0,0440578
3181,0061;0,0442202
3181,9705;0,0443856
3182,9346;0,044553
3183,8989;0,0447231
3184,8630;0,0448954
3185,8274;0,0450667
3186,7915;0,045232
3187,7559;0,0453876
3188,7200;0,0455353
3189,6843;0,0456814
3190,6484;0,0458333
3191,6128;0,0459937
3192,5769;0,0461586
3193,5413;0,0463197
3194,5054;0,0464702
3195,4697;0,0466085
3196,4338;0,0467397
3197,3982;0,0468724
3198,3623;0,0470141
3199,3267;0,0471686
3200,2908;0,0473349
3201,2551;0,047508
3202,2192;0,047681
3203,1836;0,0478466
3204,1477;0,0480003
3205,1121;0,0481425
3206,0762;0,048279
3207,0405;0,0484186
3208,0046;0,0485678
3208,9690;0,048727
3209,9331;0,0488898
3210,8975;0,0490473
3211,8616;0,049194
3212,8259;0,0493318
3213,7900;0,0494685
3214,7544;0,0496121
3215,7185;0,0497646
3216,6829;0,0499203
3217,6470;0,0500696
3218,6113;0,0502053
3219,5754;0,0503286
3220,5398;0,0504479
3221,5039;0,0505742
3222,4683;0,0507136
3223,4324;0,0508645
3224,3967;0,0510198
3225,3608;0,0511723
3226,3252;0,0513193
3227,2893;0,051463
3228,2537;0,0516069
3229,2178;0,0517514
3230,1821;0,051893
3231,1462;0,0520273
3232,1106;0,0521534
3233,0747;0,0522758
3234,0391;0,0524019
3235,0032;0,0525374
3235,9675;0,0526824
3236,9316;0,0528322
3237,8960;0,0529811
3238,8601;0,0531267
3239,8245;0,0532701
3240,7886;0,0534139
3241,7529;0,0535582
3242,7170;0,0536995
3243,6814;0,0538335
3244,6455;0,0539587
3245,6099;0,0540795
3246,5740;0,0542043
3247,5383;0,0543406
3248,5024;0,0544908
3249,4668;0,0546504
3250,4309;0,0548108
3251,3953;0,0549644
3252,3594;0,0551088
3253,3237;0,0552481
3254,2878;0,0553895
3255,2522;0,0555391
3256,2163;0,0556984
3257,1807;0,0558641
3258,1448;0,0560307
3259,1091;0,0561944
3260,0732;0,0563542
3261,0376;0,0565114
3262,0017;0,0566672
3262,9661;0,0568215
3263,9302;0,0569731
3264,8945;0,0571206
3265,8586;0,057264
3266,8230;0,0574034
3267,7871;0,0575367
3268,7515;0,0576587
3269,7156;0,057762
3270,6799;0,0578411
3271,6440;0,0578966
3272,6084;0,0579366
3273,5725;0,0579743
3274,5369;0,0580215
3275,5010;0,0580842
3276,4653;0,0581599
3277,4294;0,0582411
3278,3938;0,0583194
3279,3579;0,0583898
3280,3223;0,0584508
3281,2864;0,0585038
3282,2507;0,0585513
3283,2148;0,0585958
3284,1792;0,0586396
3285,1433;0,058684
3286,1077;0,0587283
3287,0718;0,0587694
3288,0361;0,0588029
3289,0002;0,0588263
3289,9646;0,0588406
3290,9287;0,0588509
3291,8931;0,0588631
3292,8572;0,05888
3293,8215;0,0588998
3294,7856;0,0589184
3295,7500;0,0589327
3296,7141;0,0589442
3297,6785;0,0589577
3298,6426;0,0589783
3299,6069;0,0590075
3300,5710;0,0590423
3301,5354;0,0590767
3302,4995;0,0591045
3303,4639;0,0591216
3304,4280;0,0591264
3305,3923;0,0591201
3306,3564;0,0591069
3307,3208;0,0590942
3308,2849;0,0590906
3309,2493;0,0591029
3310,2134;0,0591323
3311,1777;0,0591733
3312,1418;0,0592167
3313,1062;0,0592548
3314,0703;0,0592857
3315,0347;0,0593148
3315,9988;0,0593515
3316,9631;0,0594042
3317,9272;0,0594766
3318,8916;0,0595661
3319,8557;0,0596655
3320,8201;0,0597665
3321,7842;0,059862
3322,7485;0,0599489
3323,7126;0,0600276
3324,6770;0,0601007
3325,6411;0,060171
3326,6055;0,0602399
3327,5696;0,0603077
3328,5339;0,0603745
3329,4980;0,060441
3330,4624;0,0605078
3331,4265;0,0605738
3332,3909;0,0606345
3333,3550;0,0606824
3334,3193;0,0607101
3335,2834;0,060714
3336,2478;0,060696
3337,2119;0,0606623
3338,1763;0,0606187
3339,1404;0,060567
3340,1047;0,0605046
3341,0688;0,0604266
3342,0332;0,0603304
3342,9973;0,0602183
3343,9617;0,060097
3344,9258;0,0599755
3345,8901;0,059861
3346,8542;0,0597563
3347,8186;0,0596593
3348,7827;0,0595632
3349,7471;0,0594605
3350,7112;0,0593455
3351,6755;0,0592174
3352,6396;0,0590807
3353,6040;0,0589427
3354,5681;0,0588109
3355,5325;0,0586893
3356,4966;0,0585776
3357,4609;0,0584726
3358,4250;0,0583704
3359,3894;0,0582686
3360,3535;0,0581668
3361,3179;0,0580665
3362,2820;0,0579696
3363,2463;0,0578777
3364,2104;0,0577908
3365,1748;0,0577065
3366,1389;0,0576203
3367,1033;0,0575265
3368,0674;0,0574207
3369,0317;0,0573023
3369,9958;0,0571754
3370,9602;0,0570479
3371,9243;0,0569279
3372,8887;0,0568198
3373,8528;0,056722
3374,8171;0,0566279
3375,7813;0,0565302
3376,7456;0,0564256
3377,7097;0,0563165
3378,6741;0,0562085
3379,6382;0,0561063
3380,6025;0,0560092
3381,5667;0,0559121
3382,5310;0,0558106
3383,4951;0,0557057
3384,4595;0,055605
3385,4236;0,0555171
3386,3879;0,0554434
3387,3521;0,0553751
3388,3164;0,0552968
3389,2805;0,0551966
3390,2449;0,0550738
3391,2090;0,0549401
3392,1733;0,0548122
3393,1375;0,054702
3394,1018;0,05461
3395,0659;0,0545281
3396,0303;0,0544462
3396,9944;0,0543584
3397,9587;0,0542633
3398,9229;0,0541615
3399,8872;0,0540523
3400,8513;0,0539344
3401,8157;0,0538073
3402,7798;0,0536729
3403,7441;0,0535342
3404,7083;0,0533942
3405,6726;0,0532541
3406,6367;0,0531148
3407,6011;0,0529774
3408,5652;0,0528428
3409,5295;0,0527091
3410,4937;0,0525714
3411,4580;0,0524242
3412,4221;0,0522658
3413,3865;0,0521012
3414,3506;0,0519397
3415,3149;0,051788
3416,2791;0,0516446
3417,2434;0,0514999
3418,2075;0,0513423
3419,1719;0,0511662
3420,1360;0,050977
3421,1003;0,0507884
3422,0645;0,0506142
3423,0288;0,05046
3423,9929;0,0503206
3424,9573;0,0501835
3425,9214;0,0500354
3426,8857;0,0498685
3427,8499;0,0496838
3428,8142;0,0494905
3429,7783;0,0493011
3430,7427;0,0491252
3431,7068;0,0489645
3432,6711;0,0488126
3433,6353;0,0486588
3434,5996;0,0484937
3435,5637;0,0483139
3436,5281;0,0481219
3437,4922;0,0479248
3438,4565;0,0477311
3439,4207;0,047548
3440,3850;0,0473789
3441,3491;0,0472215
3442,3135;0,0470666
3443,2776;0,0469008
3444,2419;0,0467134
3445,2061;0,0465031
3446,1704;0,0462813
3447,1345;0,0460668
3448,0989;0,045874
3449,0630;0,0457037
3450,0273;0,0455441
3450,9915;0,0453792
3451,9558;0,0451999
3452,9199;0,0450078
3453,8843;0,0448123
3454,8484;0,0446223
3455,8127;0,0444399
3456,7769;0,0442592
3457,7412;0,0440716
3458,7053;0,0438726
3459,6697;0,0436653
3460,6338;0,0434586
3461,5981;0,0432621
3462,5623;0,0430803
3463,5266;0,0429098
3464,4907;0,0427411
3465,4551;0,0425637
3466,4192;0,0423716
3467,3835;0,0421658
3468,3477;0,0419534
3469,3120;0,0417411
3470,2761;0,0415317
3471,2405;0,0413235
3472,2046;0,0411149
3473,1689;0,0409096
3474,1331;0,0407167
3475,0974;0,0405443
3476,0615;0,0403911
3477,0259;0,0402431
3477,9900;0,0400801
3478,9543;0,0398876
3479,9185;0,0396669
3480,8828;0,0394352
3481,8469;0,0392141
3482,8113;0,039014
3483,7754;0,0388276
3484,7397;0,0386369
3485,7039;0,0384278
3486,6682;0,0382016
3487,6323;0,0379749
3488,5967;0,0377699
3489,5608;0,0375994
3490,5251;0,0374587
3491,4893;0,0373285
3492,4536;0,0371865
3493,4177;0,0370198
3494,3821;0,036832
3495,3462;0,0366403
3496,3105;0,0364636
3497,2747;0,0363075
3498,2390;0,0361576
3499,2031;0,0359862
3500,1675;0,0357688
3501,1316;0,0355034
3502,0959;0,0352185
3503,0601;0,0349608
3504,0244;0,0347645
3504,9885;0,0346282
3505,9529;0,0345167
3506,9170;0,034385
3507,8813;0,0342034
3508,8455;0,033973
3509,8098;0,0337226
3510,7739;0,0334875
3511,7383;0,0332872
3512,7024;0,0331172
3513,6667;0,0329596
3514,6309;0,0328001
3515,5952;0,0326368
3516,5593;0,0324779
3517,5237;0,0323317
3518,4878;0,0321966
3519,4521;0,0320609
3520,4163;0,0319103
3521,3806;0,0317368
3522,3447;0,0315431
3523,3091;0,0313386
3524,2732;0,0311301
3525,2375;0,0309165
3526,2017;0,0306922
3527,1660;0,0304565
3528,1301;0,0302207
3529,0945;0,0300039
3530,0586;0,0298203
3531,0229;0,0296678
3531,9871;0,0295281
3532,9514;0,0293763
3533,9155;0,0291955
3534,8799;0,0289874
3535,8440;0,0287737
3536,8083;0,0285858
3537,7725;0,0284464
3538,7368;0,0283564
3539,7009;0,0282934
3540,6653;0,0282208
3541,6294;0,0280996
3542,5938;0,0279031
3543,5579;0,0276309
3544,5222;0,0273181
3545,4863;0,0270233
3546,4507;0,0267941
3547,4148;0,0266372
3548,3792;0,0265183
3549,3433;0,0263878
3550,3076;0,0262094
3551,2717;0,0259788
3552,2361;0,0257254
3553,2002;0,0254936
3554,1646;0,0253123
3555,1287;0,0251784
3556,0930;0,0250648
3557,0571;0,0249429
3558,0215;0,0248027
3558,9856;0,0246595
3559,9500;0,0245423
3560,9141;0,0244692
3561,8784;0,0244271
3562,8425;0,0243683
3563,8069;0,0242235
3564,7710;0,0239324
3565,7354;0,0234931
3566,6995;0,0229973
3567,6638;0,0225824
3568,6279;0,0223248
3569,5923;0,0222019
3570,5564;0,0221435
3571,5208;0,022086
3572,4849;0,0219938
3573,4492;0,0218602
3574,4133;0,0216976
3575,3777;0,0215233
3576,3418;0,0213468
3577,3062;0,0211694
3578,2703;0,0209948
3579,2346;0,0208391
3580,1987;0,0207259
3581,1631;0,0206682
3582,1272;0,0206504
3583,0916;0,0206248
3584,0557;0,020523
3585,0200;0,0202864
3585,9841;0,0199143
3586,9485;0,0194986
3587,9126;0,0191762
3588,8770;0,019017
3589,8411;0,0189816
3590,8054;0,0189782
3591,7695;0,0189262
3592,7339;0,0187886
3593,6980;0,0185814
3594,6624;0,0183581
3595,6265;0,0181678
3596,5908;0,0180157
3597,5549;0,0178679
3598,5193;0,0176908
3599,4834;0,0174881
3600,4478;0,0173041
3601,4119;0,0171886
3602,3762;0,0171547
3603,3403;0,0171671
3604,3047;0,0171632
3605,2688;0,017086
3606,2332;0,0169126
3607,1973;0,0166681
3608,1616;0,0164107
3609,1257;0,01619
3610,0901;0,0160181
3611,0542;0,0158798
3612,0186;0,0157614
3612,9827;0,0156636
3613,9470;0,0155899
3614,9111;0,0155265
3615,8755;0,0154339
3616,8396;0,0152634
3617,8040;0,014993
3618,7681;0,0146654
3619,7324;0,014382
3620,6965;0,0142365
3621,6609;0,0142525
3622,6250;0,0143871
3623,5894;0,0145672
3624,5535;0,0147103
3625,5178;0,0147266
3626,4819;0,0145316
3627,4463;0,0141054
3628,4104;0,0135692
3629,3748;0,0131287
3630,3389;0,0128882
3631,3032;0,0127973
3632,2673;0,0127564
3633,2317;0,0126975
3634,1958;0,0126004
3635,1602;0,0124785
3636,1243;0,0123564
3637,0886;0,0122497
3638,0527;0,0121596
3639,0171;0,0120838
3639,9812;0,01203
3640,9456;0,0120191
3641,9097;0,0120721
3642,8740;0,0121919
3643,8381;0,0123509
3644,8025;0,0124865
3645,7666;0,0125004
3646,7310;0,0122773
3647,6951;0,0117706
3648,6594;0,0111365
3649,6235;0,0106682
3650,5879;0,0104976
3651,5520;0,0105294
3652,5164;0,0106122
3653,4805;0,0106382
3654,4448;0,0105565
3655,4089;0,0103757
3656,3733;0,0101599
3657,3374;0,00998785
3658,3018;0,00989687
3659,2659;0,00986892
3660,2302;0,00986536
3661,1943;0,0098646
3662,1587;0,00987435
3663,1228;0,00991717
3664,0872;0,0100035
3665,0513;0,0101139
3666,0156;0,0102025
3666,9797;0,0102181
3667,9441;0,0101392
3668,9082;0,0100066
3669,8726;0,00990349
3670,8367;0,00987447
3671,8010;0,00987851
3672,7651;0,00982356
3673,7295;0,0096311
3674,6936;0,00930169
3675,6580;0,00894642
3676,6221;0,00870525
3677,5864;0,00862027
3678,5505;0,00863708
3679,5149;0,00869101
3680,4790;0,00875427
3681,4434;0,00883328
3682,4075;0,00894589
3683,3718;0,00909712
3684,3359;0,00926507
3685,3003;0,00940061
3686,2644;0,00943903
3687,2288;0,009328
3688,1929;0,00907705
3689,1572;0,00878741
3690,1213;0,00858573
3691,0857;0,0085175
3692,0498;0,00854268
3693,0142;0,00860374
3693,9783;0,00866626
3694,9426;0,0087206
3695,9067;0,00876886
3696,8711;0,00881126
3697,8352;0,00883853
3698,7996;0,00883406
3699,7637;0,00878641
3700,7280;0,0087059
3701,6921;0,00863017
3702,6565;0,00860572
3703,6206;0,00865849
3704,5850;0,00878123
3705,5491;0,00894093
3706,5134;0,00908859
3707,4775;0,00916312
3708,4419;0,00910057
3709,4060;0,00886871
3710,3704;0,00852252
3711,3345;0,00820528
3712,2988;0,00804238
3713,2629;0,00805154
3714,2273;0,00817263
3715,1914;0,00833478
3716,1558;0,00848687
3717,1199;0,0086006
3718,0842;0,00866773
3719,0483;0,00869631
3720,0127;0,00870213
3720,9768;0,0086962
3721,9412;0,00867817
3722,9053;0,00864392
3723,8696;0,00860118
3724,8337;0,00857602
3725,7981;0,00859957
3726,7622;0,00868628
3727,7266;0,00882547
3728,6907;0,00898992
3729,6550;0,00914731
3730,6191;0,00926367
3731,5835;0,00930055
3732,5476;0,0092164
3733,5120;0,00898979
3734,4761;0,00866536
3735,4404;0,00836479
3736,4045;0,00820931
3737,3689;0,00823776
3738,3330;0,008412
3739,2974;0,00866198
3740,2615;0,00890948
3741,2258;0,00907336
3742,1899;0,00908625
3743,1543;0,0089455
3744,1184;0,00875832
3745,0828;0,00867341
3746,0469;0,00873833
3747,0112;0,0088713
3747,9753;0,00893773
3748,9397;0,00882477
3749,9038;0,00851941
3750,8682;0,00816428
3751,8323;0,00795523
3752,7966;0,00795522
3753,7607;0,00808464
3754,7251;0,00823055
3755,6892;0,00830844
3756,6536;0,00827849
3757,6177;0,00815717
3758,5820;0,00801498
3759,5461;0,00793372
3760,5105;0,00795005
3761,4746;0,00804338
3762,4390;0,00816661
3763,4031;0,00827697
3764,3674;0,00834867
3765,3315;0,00837187
3766,2959;0,00834577
3767,2600;0,00827266
3768,2244;0,00816012
3769,1885;0,00803029
3770,1528;0,00792242
3771,1169;0,00787713
3772,0813;0,00791234
3773,0454;0,00801318
3774,0098;0,00814086
3774,9739;0,00824842
3775,9382;0,00829587
3776,9023;0,00826656
3777,8667;0,00818083
3778,8308;0,00808944
3779,7952;0,00803932
3780,7593;0,00804111
3781,7236;0,00807061
3782,6877;0,00809362
3783,6521;0,00808798
3784,6162;0,00805213
3785,5806;0,00800181
3786,5447;0,00795962
3787,5090;0,00794431
3788,4731;0,00796492
3789,4375;0,0080196
3790,4016;0,00809676
3791,3660;0,00817872
3792,3301;0,00824885
3793,2944;0,0083012
3794,2585;0,0083467
3795,2229;0,00840689
3796,1870;0,00849357
3797,1514;0,0085888
3798,1155;0,00864483
3799,0798;0,00861133
3800,0439;0,00847988
3801,0083;0,00830973
3801,9724;0,00818816
3802,9368;0,00815104
3803,9009;0,00815686
3804,8652;0,00813225
3805,8293;0,0080342
3806,7937;0,0078909
3807,7578;0,00779011
3808,7222;0,00780932
3809,6863;0,00795697
3810,6506;0,00818091
3811,6147;0,00840848
3812,5791;0,00857595
3813,5432;0,00864968
3814,5076;0,00864507
3815,4717;0,00861895
3816,4360;0,00861745
3817,4001;0,00862789
3818,3645;0,00859115
3819,3286;0,00845945
3820,2930;0,008251
3821,2571;0,00805056
3822,2214;0,00793946
3823,1855;0,0079328
3824,1499;0,00799161
3825,1140;0,00806883
3826,0784;0,00813637
3827,0425;0,00818915
3828,0068;0,00823707
3828,9709;0,00829331
3829,9353;0,00836582
3830,8994;0,00845561
3831,8638;0,00855815
3832,8279;0,00866283
3833,7922;0,00874964
3834,7563;0,00878872
3835,7207;0,00874936
3836,6848;0,00862028
3837,6492;0,00842893
3838,6133;0,00823393
3839,5776;0,00808555
3840,5417;0,0079948
3841,5061;0,00794311
3842,4702;0,00791278
3843,4346;0,00790679
3844,3987;0,00794781
3845,3630;0,00806228
3846,3271;0,00826304
3847,2915;0,00854079
3848,2556;0,00886194
3849,2200;0,00916344
3850,1841;0,00934231
3851,1484;0,00926404
3852,1125;0,00885454
3853,0769;0,00826523
3854,0410;0,00781549
3855,0054;0,00766312
3855,9695;0,00773912
3856,9338;0,00792527
3857,8979;0,00814002
3858,8623;0,00833193
3859,8264;0,00846302
3860,7908;0,00850872
3861,7549;0,00847308
3862,7192;0,00840016
3863,6833;0,00835453
3864,6477;0,00837619
3865,6118;0,00845552
3866,5762;0,00854691
3867,5403;0,00859646
3868,5046;0,00856467
3869,4688;0,0084437
3870,4331;0,00826524
3871,3972;0,00808819
3872,3616;0,00796944
3873,3257;0,00793949
3874,2900;0,00799693
3875,2542;0,00811601
3876,2185;0,00825764
3877,1826;0,00838077
3878,1470;0,00845532
3879,1111;0,00847441
3880,0754;0,00845611
3881,0396;0,00842597
3882,0039;0,00839411
3882,9680;0,00835308
3883,9324;0,00829904
3884,8965;0,00824969
3885,8608;0,00823437
3886,8250;0,00826362
3887,7893;0,00831201
3888,7534;0,00833148
3889,7178;0,00828472
3890,6819;0,00818058
3891,6462;0,00808373
3892,6104;0,00807108
3893,5747;0,00816953
3894,5388;0,00834509
3895,5032;0,0085391
3896,4673;0,0087011
3897,4316;0,00880263
3898,3958;0,00883928
3899,3601;0,00882133
3900,3242;0,00875491
3901,2886;0,00863291
3902,2527;0,00845287
3903,2170;0,00824249
3904,1812;0,00805575
3905,1455;0,0079376
3906,1096;0,0078971
3907,0740;0,00791383
3908,0381;0,00796086
3909,0024;0,00802105
3909,9666;0,00809058
3910,9309;0,00817245
3911,8950;0,00826564
3912,8594;0,00835734
3913,8235;0,00842393
3914,7878;0,00844183
3915,7520;0,00840376
3916,7163;0,00833001
3917,6804;0,00826092
3918,6448;0,00823026
3919,6089;0,00824269
3920,5732;0,00827524
3921,5374;0,00829619
3922,5017;0,0082859
3923,4658;0,00824968
3924,4302;0,00821495
3925,3943;0,00821076
3926,3586;0,00824492
3927,3228;0,00829811
3928,2871;0,00833611
3929,2512;0,00832909
3930,2156;0,00826908
3931,1797;0,00817729
3932,1440;0,00809238
3933,1082;0,00804572
3934,0725;0,00804562
3935,0366;0,00808196
3936,0010;0,00813913
3936,9651;0,00820376
3937,9294;0,00826492
3938,8936;0,00831211
3939,8579;0,00833655
3940,8220;0,00833655
3941,7864;0,00832203
3942,7505;0,00831094
3943,7148;0,00831703
3944,6790;0,00833937
3945,6433;0,00836242
3946,6074;0,00836623
3947,5718;0,00833956
3948,5359;0,00828807
3949,5002;0,00823126
3950,4644;0,00818928
3951,4287;0,00817071
3952,3928;0,00817123
3953,3572;0,00818118
3954,3213;0,00819323
3955,2856;0,00820487
3956,2498;0,00821564
3957,2141;0,00822318
3958,1782;0,00822243
3959,1426;0,00820915
3960,1067;0,00818458
3961,0710;0,00815708
3962,0352;0,00813842
3962,9995;0,00813723
3963,9636;0,00815439
3964,9280;0,00818332
3965,8921;0,00821422
3966,8564;0,00823859
3967,8206;0,00825192
3968,7849;0,00825396
3969,7490;0,00824732
3970,7134;0,00823588
3971,6775;0,00822371
3972,6418;0,00821449
3973,6060;0,00821099
3974,5703;0,0082142
3975,5344;0,00822278
3976,4988;0,00823339
3977,4629;0,00824215
3978,4272;0,00824629
3979,3914;0,00824525
3980,3557;0,00824063
3981,3198;0,0082353
3982,2842;0,00823216
3983,2483;0,00823314
3984,2126;0,0082387
3985,1768;0,00824786
3986,1411;0,00825857
3987,1052;0,00826825
3988,0696;0,0082746
3989,0337;0,00827654
3989,9980;0,0082747
3990,9622;0,00827113
3991,9265;0,00826811
3992,8906;0,00826679
3993,8550;0,00826652
3994,8191;0,00826522
3995,7834;0,00826063
3996,7476;0,00825177
3997,7119;0,00823977
3998,6760;0,00822778
3999,6404;0,00821986
4000,6045;0,00818124

##### Extended Information
[Comments]
Sample name
Comment
Username
Division
Organization;UNIVERSIDAD INDUSTRIAL DE SANTANDER

[Detailed Information]
Creation date;29/01/2025 1:57 p.m.

Data array type;Linear data array
Horizontal axis;Wavenumber [cm-1]
Vertical axis;Abs
Start;399,193 cm-1
End;4000,6 cm-1
Data interval;0,964233 cm-1
Data points;3736    

[Measurement Information]
Model name;FT/IR-4X1typeA
Serial No.;A035162111

Accessory;ATR PRO 4X
Accessory S/N;A021162126
Incident angle;45 deg

Measurement date;29/01/2025 1:57 p.m.

Light source;Standard
Detector;TGS
Accumulation;Auto (73)
Resolution;4 cm-1
Zero filling;On
Apodization;Cosine
Gain;Auto (8)
Aperture;Auto (7 mm)
Scan speed;Auto (2 mm/sec)
Filter;Auto (12800 Hz)

