TITLE;
DATA TYPE;INFRARED SPECTRUM
ORIGIN;JASCO
OWNER;
DATE;25/02/04
TIME;14:09:33
SPECTROMETER/DATA SYSTEM;
LOCALE;9226
RESOLUTION;
DELTAX;0,964233
XUNITS;1/CM
YUNITS;ABSORBANCE
FIRSTX;  399,1927
LASTX; 4000,6047
NPOINTS;    3736
FIRSTY;     0,19672
MAXY;     0,29972
MINY;     0,01194
XYDATA
399,1927;0,196716
400,1569;0,197856
401,1211;0,198807
402,0854;0,199482
403,0496;0,199911
404,0138;0,200186
404,9781;0,200403
405,9423;0,200612
406,9065;0,200783
407,8708;0,200833
408,8350;0,200698
409,7992;0,200419
410,7635;0,200159
411,7277;0,200135
412,6919;0,200494
413,6562;0,201226
414,6204;0,202204
415,5846;0,203268
416,5489;0,204289
417,5131;0,205216
418,4773;0,206089
419,4416;0,20701
420,4058;0,208015
421,3700;0,209022
422,3343;0,209894
423,2985;0,210519
424,2627;0,210846
425,2270;0,210923
426,1912;0,210902
427,1554;0,210976
428,1197;0,211292
429,0839;0,21189
430,0481;0,2127
431,0124;0,213584
431,9766;0,214393
432,9408;0,215019
433,9051;0,215417
434,8693;0,215589
435,8335;0,21556
436,7978;0,215359
437,7620;0,215009
438,7262;0,214521
439,6905;0,213901
440,6547;0,213164
441,6189;0,212343
442,5832;0,2115
443,5474;0,210715
444,5116;0,210058
445,4759;0,209563
446,4401;0,209228
447,4043;0,209018
448,3686;0,208886
449,3328;0,208773
450,2970;0,208618
451,2613;0,208379
452,2255;0,208038
453,1897;0,207613
454,1540;0,207143
455,1182;0,206684
456,0824;0,206295
457,0467;0,206034
458,0109;0,205921
458,9751;0,205916
459,9394;0,20594
460,9036;0,205927
461,8678;0,205869
462,8321;0,205805
463,7963;0,20579
464,7605;0,205844
465,7248;0,205919
466,6890;0,205918
467,6532;0,205755
468,6175;0,205421
469,5817;0,205009
470,5459;0,204682
471,5102;0,204595
472,4744;0,204795
473,4386;0,205197
474,4029;0,205648
475,3671;0,206039
476,3313;0,206345
477,2956;0,206595
478,2598;0,206804
479,2240;0,206952
480,1883;0,207001
481,1525;0,206964
482,1167;0,20694
483,0810;0,207105
484,0452;0,207618
485,0094;0,208515
485,9737;0,209655
486,9379;0,210798
487,9021;0,211721
488,8664;0,212312
489,8306;0,212587
490,7948;0,212661
491,7591;0,212691
492,7233;0,21281
493,6875;0,21308
494,6518;0,213482
495,6160;0,213946
496,5802;0,214383
497,5445;0,214724
498,5087;0,214937
499,4729;0,215034
500,4372;0,215068
501,4014;0,215109
502,3656;0,215229
503,3299;0,215478
504,2941;0,215878
505,2583;0,216424
506,2226;0,217084
507,1868;0,217789
508,1510;0,218443
509,1153;0,218969
510,0795;0,219351
511,0437;0,219663
512,0080;0,220036
512,9722;0,220591
513,9365;0,221371
514,9007;0,222325
515,8649;0,22332
516,8292;0,224204
517,7934;0,224868
518,7576;0,225288
519,7219;0,225503
520,6861;0,225569
521,6503;0,225529
522,6146;0,225412
523,5788;0,225258
524,5430;0,225125
525,5073;0,225069
526,4715;0,225098
527,4357;0,225156
528,4000;0,225152
529,3642;0,225019
530,3284;0,224751
531,2927;0,224399
532,2569;0,224039
533,2211;0,223729
534,1854;0,223489
535,1496;0,223304
536,1138;0,223158
537,0781;0,223057
538,0423;0,223032
539,0065;0,223117
539,9708;0,223321
540,9350;0,223622
541,8992;0,223983
542,8635;0,224372
543,8277;0,224776
544,7919;0,2252
545,7562;0,225645
546,7204;0,226102
547,6846;0,226547
548,6489;0,226959
549,6131;0,227329
550,5773;0,227672
551,5416;0,228023
552,5058;0,22843
553,4700;0,228939
554,4343;0,229571
555,3985;0,230292
556,3627;0,230992
557,3270;0,231494
558,2912;0,231599
559,2554;0,231159
560,2197;0,230136
561,1839;0,228626
562,1481;0,226822
563,1124;0,224949
564,0766;0,223191
565,0408;0,221655
566,0051;0,220376
566,9693;0,219343
567,9335;0,218525
568,8978;0,217886
569,8620;0,217386
570,8262;0,21699
571,7905;0,21667
572,7547;0,216408
573,7189;0,216195
574,6832;0,216022
575,6474;0,215869
576,6116;0,215712
577,5759;0,215537
578,5401;0,215346
579,5043;0,215152
580,4686;0,214962
581,4328;0,214766
582,3970;0,214545
583,3613;0,214287
584,3255;0,214013
585,2897;0,21377
586,2540;0,21361
587,2182;0,213558
588,1824;0,213602
589,1467;0,213693
590,1109;0,213769
591,0751;0,213775
592,0394;0,213676
593,0036;0,213458
593,9678;0,213128
594,9321;0,212706
595,8963;0,212226
596,8605;0,211718
597,8248;0,211204
598,7890;0,21069
599,7532;0,210169
600,7175;0,209635
601,6817;0,209095
602,6459;0,208575
603,6102;0,2081
604,5744;0,207678
605,5386;0,207281
606,5029;0,206856
607,4671;0,206341
608,4313;0,205695
609,3956;0,204913
610,3598;0,204032
611,3240;0,203122
612,2883;0,202255
613,2525;0,201482
614,2167;0,200806
615,1810;0,200167
616,1452;0,199453
617,1094;0,198543
618,0737;0,197366
619,0379;0,195941
620,0021;0,19437
620,9664;0,192785
621,9306;0,191295
622,8948;0,189963
623,8591;0,188798
624,8233;0,187772
625,7875;0,186845
626,7518;0,185976
627,7160;0,185138
628,6802;0,184319
629,6445;0,183521
630,6087;0,182749
631,5729;0,182005
632,5372;0,181283
633,5014;0,180573
634,4656;0,179865
635,4299;0,179157
636,3941;0,178458
637,3583;0,177783
638,3226;0,177146
639,2868;0,17655
640,2510;0,17599
641,2153;0,175456
642,1795;0,174944
643,1437;0,17446
644,1080;0,174019
645,0722;0,17363
646,0364;0,173287
647,0007;0,172968
647,9649;0,172641
648,9291;0,172291
649,8934;0,171937
650,8576;0,171636
651,8218;0,171455
652,7861;0,171446
653,7503;0,17162
654,7145;0,171953
655,6788;0,172389
656,6430;0,17287
657,6072;0,173336
658,5715;0,173727
659,5357;0,173965
660,4999;0,173979
661,4642;0,173759
662,4284;0,173382
663,3926;0,172982
664,3569;0,172684
665,3211;0,172561
666,2853;0,172561
667,2496;0,172392
668,2138;0,171539
669,1780;0,169791
670,1423;0,167614
671,1065;0,165517
672,0707;0,163617
673,0350;0,161807
673,9992;0,159978
674,9634;0,158093
675,9277;0,15619
676,8919;0,154341
677,8561;0,152595
678,8204;0,150961
679,7846;0,149437
680,7488;0,148037
681,7131;0,146784
682,6773;0,145694
683,6415;0,144757
684,6058;0,143949
685,5700;0,143241
686,5342;0,14261
687,4985;0,142034
688,4627;0,141494
689,4269;0,140972
690,3912;0,140463
691,3554;0,139966
692,3196;0,139483
693,2839;0,139008
694,2481;0,138535
695,2123;0,138061
696,1766;0,137585
697,1408;0,137111
698,1050;0,136634
699,0693;0,136145
700,0335;0,135629
700,9977;0,13508
701,9620;0,1345
702,9262;0,133898
703,8904;0,133278
704,8547;0,132639
705,8189;0,131973
706,7831;0,131277
707,7474;0,130559
708,7116;0,129829
709,6758;0,129096
710,6401;0,128355
711,6043;0,127584
712,5685;0,126763
713,5328;0,12589
714,4970;0,124993
715,4612;0,124078
716,4255;0,123268
717,3897;0,122512
718,3539;0,121748
719,3182;0,120892
720,2824;0,119877
721,2466;0,118705
722,2109;0,11744
723,1751;0,116175
724,1393;0,114978
725,1036;0,113873
726,0678;0,112845
727,0320;0,111866
727,9963;0,110914
728,9605;0,109986
729,9247;0,109087
730,8890;0,108229
731,8532;0,107418
732,8174;0,106658
733,7817;0,105949
734,7459;0,105288
735,7101;0,104668
736,6744;0,104076
737,6386;0,103503
738,6028;0,102942
739,5671;0,102395
740,5313;0,10187
741,4955;0,101371
742,4598;0,100893
743,4240;0,100424
744,3882;0,099946
745,3525;0,0994421
746,3167;0,0989036
747,2809;0,0983301
748,2452;0,0977286
749,2094;0,0971122
750,1736;0,0964985
751,1379;0,0959074
752,1021;0,0953555
753,0663;0,0948484
754,0306;0,0943746
754,9948;0,0939075
755,9590;0,0934171
756,9233;0,0928853
757,8875;0,0923165
758,8517;0,0917357
759,8160;0,091176
760,7802;0,0906621
761,7444;0,0901999
762,7087;0,0897787
763,6729;0,0893817
764,6371;0,0889977
765,6014;0,0886262
766,5656;0,0882735
767,5298;0,0879449
768,4941;0,0876366
769,4583;0,0873358
770,4225;0,0870258
771,3868;0,0866942
772,3510;0,0863395
773,3152;0,0859705
774,2795;0,0856012
775,2437;0,0852432
776,2079;0,0849007
777,1722;0,0845711
778,1364;0,0842483
779,1006;0,0839278
780,0649;0,0836076
781,0291;0,0832865
781,9933;0,082961
782,9576;0,0826245
783,9218;0,0822709
784,8860;0,081901
785,8503;0,081526
786,8145;0,0811657
787,7787;0,0808403
788,7430;0,08056
789,7072;0,0803195
790,6714;0,0801001
791,6357;0,0798802
792,5999;0,0796466
793,5641;0,0794007
794,5284;0,0791544
795,4926;0,0789203
796,4568;0,0787025
797,4211;0,0784949
798,3853;0,0782879
799,3495;0,078078
800,3138;0,0778716
801,2780;0,0776799
802,2422;0,0775096
803,2065;0,0773547
804,1707;0,0771993
805,1349;0,0770274
806,0992;0,0768352
807,0634;0,076636
808,0276;0,0764539
808,9919;0,0763112
809,9561;0,0762171
810,9203;0,076164
811,8846;0,0761337
812,8488;0,0761073
813,8130;0,0760739
814,7773;0,0760331
815,7415;0,0759912
816,7057;0,0759551
817,6700;0,0759277
818,6342;0,0759071
819,5984;0,0758893
820,5627;0,0758719
821,5269;0,0758558
822,4911;0,0758452
823,4554;0,0758433
824,4196;0,0758501
825,3839;0,0758602
826,3481;0,0758661
827,3123;0,075862
828,2766;0,0758471
829,2408;0,0758243
830,2050;0,0757959
831,1693;0,0757584
832,1335;0,0756999
833,0977;0,0756041
834,0620;0,0754562
835,0262;0,0752507
835,9904;0,0749944
836,9547;0,0747043
837,9189;0,0744026
838,8831;0,0741098
839,8474;0,0738411
840,8116;0,0736048
841,7758;0,0734035
842,7401;0,0732362
843,7043;0,0730996
844,6685;0,0729895
845,6328;0,0729008
846,5970;0,0728283
847,5612;0,0727672
848,5255;0,0727136
849,4897;0,0726639
850,4539;0,0726138
851,4182;0,0725573
852,3824;0,072488
853,3466;0,0724007
854,3109;0,0722951
855,2751;0,072176
856,2393;0,0720525
857,2036;0,0719339
858,1678;0,0718274
859,1320;0,071738
860,0963;0,0716697
861,0605;0,0716277
862,0247;0,0716174
862,9890;0,0716411
863,9532;0,0716951
864,9174;0,0717706
865,8817;0,071858
866,8459;0,0719537
867,8101;0,0720638
868,7744;0,0722023
869,7386;0,0723838
870,7028;0,0726139
871,6671;0,0728846
872,6313;0,0731751
873,5955;0,0734603
874,5598;0,073721
875,5240;0,0739516
876,4882;0,0741615
877,4525;0,0743711
878,4167;0,0746041
879,3809;0,0748831
880,3452;0,0752267
881,3094;0,0756508
882,2736;0,0761687
883,2379;0,0767891
884,2021;0,0775133
885,1663;0,0783335
886,1306;0,0792351
887,0948;0,0802012
888,0590;0,0812171
889,0233;0,0822707
889,9875;0,0833489
890,9517;0,0844315
891,9160;0,0854885
892,8802;0,0864819
893,8444;0,0873717
894,8087;0,0881229
895,7729;0,0887099
896,7371;0,0891165
897,7014;0,0893338
898,6656;0,0893583
899,6298;0,0891936
900,5941;0,0888535
901,5583;0,0883648
902,5225;0,0877666
903,4868;0,0871059
904,4510;0,0864306
905,4152;0,0857835
906,3795;0,0851995
907,3437;0,0847068
908,3079;0,0843268
909,2722;0,084073
910,2364;0,0839471
911,2007;0,0839372
912,1649;0,0840204
913,1292;0,0841706
914,0934;0,0843689
915,0576;0,0846093
916,0219;0,0848978
916,9861;0,0852445
917,9503;0,0856536
918,9146;0,0861172
919,8788;0,0866157
920,8430;0,0871227
921,8073;0,0876124
922,7715;0,0880645
923,7357;0,0884675
924,7000;0,0888176
925,6642;0,0891172
926,6284;0,0893717
927,5927;0,0895874
928,5569;0,0897693
929,5211;0,0899226
930,4854;0,0900541
931,4496;0,0901753
932,4138;0,0903034
933,3781;0,09046
934,3423;0,0906679
935,3065;0,0909468
936,2708;0,0913103
937,2350;0,0917642
938,1992;0,0923068
939,1635;0,0929312
940,1277;0,0936286
941,0919;0,0943925
942,0562;0,0952215
943,0204;0,0961197
943,9846;0,0970949
944,9489;0,0981546
945,9131;0,099303
946,8773;0,10054
947,8416;0,10186
948,8058;0,103258
949,7700;0,104732
950,7343;0,10628
951,6985;0,107906
952,6627;0,109614
953,6270;0,111406
954,5912;0,113289
955,5554;0,115268
956,5197;0,117348
957,4839;0,119533
958,4481;0,121821
959,4124;0,124199
960,3766;0,126645
961,3408;0,129134
962,3051;0,131643
963,2693;0,134164
964,2335;0,136705
965,1978;0,139285
966,1620;0,141931
967,1262;0,144666
968,0905;0,147505
969,0547;0,150465
970,0189;0,153565
970,9832;0,156841
971,9474;0,160338
972,9116;0,164107
973,8759;0,16819
974,8401;0,172606
975,8043;0,177351
976,7686;0,182392
977,7328;0,18767
978,6970;0,193099
979,6613;0,198564
980,6255;0,203922
981,5897;0,209012
982,5540;0,213685
983,5182;0,217833
984,4824;0,221413
985,4467;0,224451
986,4109;0,227023
987,3751;0,229227
988,3394;0,231149
989,3036;0,232846
990,2678;0,234344
991,2321;0,235653
992,1963;0,236778
993,1605;0,237735
994,1248;0,23855
995,0890;0,23926
996,0532;0,2399
997,0175;0,240496
997,9817;0,241059
998,9459;0,241595
999,9102;0,242118
1000,8744;0,242661
1001,8386;0,24328
1002,8029;0,244045
1003,7671;0,245023
1004,7313;0,246266
1005,6956;0,247801
1006,6598;0,249637
1007,6240;0,251766
1008,5883;0,254169
1009,5525;0,25681
1010,5167;0,259634
1011,4810;0,262566
1012,4452;0,265525
1013,4094;0,268439
1014,3737;0,271257
1015,3379;0,273954
1016,3021;0,276525
1017,2664;0,278972
1018,2306;0,281293
1019,1948;0,283483
1020,1591;0,285533
1021,1233;0,287445
1022,0875;0,289232
1023,0518;0,290916
1024,0160;0,29252
1024,9802;0,294055
1025,9445;0,295513
1026,9087;0,29686
1027,8729;0,298042
1028,8372;0,29898
1029,8014;0,299579
1030,7656;0,299724
1031,7299;0,299298
1032,6941;0,298209
1033,6583;0,296419
1034,6226;0,293979
1035,5868;0,291035
1036,5510;0,287807
1037,5153;0,284552
1038,4795;0,281512
1039,4437;0,278877
1040,4080;0,276761
1041,3722;0,275198
1042,3364;0,274149
1043,3007;0,273523
1044,2649;0,273191
1045,2291;0,273018
1046,1934;0,272882
1047,1576;0,272687
1048,1218;0,272363
1049,0861;0,271853
1050,0503;0,271102
1051,0145;0,270056
1051,9788;0,268674
1052,9430;0,266942
1053,9072;0,264876
1054,8715;0,262505
1055,8357;0,259839
1056,7999;0,256847
1057,7642;0,253457
1058,7284;0,249593
1059,6926;0,245228
1060,6569;0,240421
1061,6211;0,235323
1062,5853;0,230149
1063,5496;0,225111
1064,5138;0,220374
1065,4780;0,216025
1066,4423;0,212075
1067,4065;0,20849
1068,3707;0,205211
1069,3350;0,202183
1070,2992;0,19935
1071,2634;0,196655
1072,2277;0,194036
1073,1919;0,191424
1074,1561;0,188756
1075,1204;0,185995
1076,0846;0,183135
1077,0488;0,180212
1078,0131;0,177295
1078,9773;0,17447
1079,9415;0,171824
1080,9058;0,169424
1081,8700;0,167309
1082,8342;0,165486
1083,7985;0,163935
1084,7627;0,162622
1085,7269;0,16151
1086,6912;0,160572
1087,6554;0,159797
1088,6196;0,159186
1089,5839;0,158746
1090,5481;0,158481
1091,5123;0,158386
1092,4766;0,158448
1093,4408;0,158647
1094,4050;0,15896
1095,3693;0,159373
1096,3335;0,159871
1097,2977;0,160443
1098,2620;0,161067
1099,2262;0,16171
1100,1904;0,162328
1101,1547;0,162866
1102,1189;0,163276
1103,0831;0,163528
1104,0474;0,163619
1105,0116;0,163568
1105,9758;0,16341
1106,9401;0,16317
1107,9043;0,162847
1108,8685;0,162396
1109,8328;0,16174
1110,7970;0,160793
1111,7612;0,159494
1112,7255;0,157839
1113,6897;0,155893
1114,6539;0,153778
1115,6182;0,151637
1116,5824;0,149597
1117,5466;0,147733
1118,5109;0,146058
1119,4751;0,144524
1120,4393;0,143045
1121,4036;0,141514
1122,3678;0,13983
1123,3320;0,137916
1124,2963;0,135734
1125,2605;0,133286
1126,2247;0,130614
1127,1890;0,127784
1128,1532;0,124867
1129,1174;0,121924
1130,0817;0,119001
1131,0459;0,116127
1132,0101;0,113327
1132,9744;0,110627
1133,9386;0,108068
1134,9028;0,105703
1135,8671;0,103586
1136,8313;0,101771
1137,7955;0,100292
1138,7598;0,0991643
1139,7240;0,0983784
1140,6882;0,0979077
1141,6525;0,0977126
1142,6167;0,0977476
1143,5809;0,0979673
1144,5452;0,0983316
1145,5094;0,0988097
1146,4736;0,0993821
1147,4379;0,10004
1148,4021;0,100779
1149,3663;0,101595
1150,3306;0,102475
1151,2948;0,103392
1152,2590;0,10431
1153,2233;0,105185
1154,1875;0,105973
1155,1517;0,106629
1156,1160;0,107105
1157,0802;0,107343
1158,0444;0,107266
1159,0087;0,106785
1159,9729;0,105805
1160,9371;0,104254
1161,9014;0,102097
1162,8656;0,0993533
1163,8298;0,0961008
1164,7941;0,0924629
1165,7583;0,0885924
1166,7225;0,084651
1167,6868;0,0807904
1168,6510;0,0771359
1169,6152;0,0737752
1170,5795;0,0707543
1171,5437;0,0680817
1172,5079;0,0657405
1173,4722;0,0637018
1174,4364;0,061935
1175,4006;0,0604122
1176,3649;0,0591073
1177,3291;0,0579943
1178,2933;0,0570479
1179,2576;0,0562457
1180,2218;0,0555715
1181,1860;0,0550143
1182,1503;0,0545661
1183,1145;0,0542179
1184,0787;0,0539598
1185,0430;0,0537834
1186,0072;0,0536862
1186,9714;0,0536737
1187,9357;0,0537575
1188,8999;0,0539493
1189,8641;0,0542555
1190,8284;0,0546745
1191,7926;0,0551976
1192,7568;0,0558128
1193,7211;0,0565083
1194,6853;0,0572726
1195,6495;0,058094
1196,6138;0,0589581
1197,5780;0,0598484
1198,5422;0,0607471
1199,5065;0,0615976
1200,4707;0,0624757
1201,4349;0,0633275
1202,3992;0,064146
1203,3634;0,0649238
1204,3276;0,0656517
1205,2919;0,0663212
1206,2561;0,0669287
1207,2203;0,0674809
1208,1846;0,067999
1209,1488;0,0685187
1210,1130;0,0690849
1211,0773;0,0697412
1212,0415;0,0705183
1213,0057;0,0714247
1213,9700;0,0724471
1214,9342;0,0735567
1215,8984;0,0747199
1216,8627;0,0759066
1217,8269;0,0770935
1218,7911;0,0782637
1219,7554;0,079405
1220,7196;0,0805085
1221,6838;0,0815688
1222,6481;0,0825836
1223,6123;0,0835521
1224,5765;0,0844725
1225,5408;0,0853411
1226,5050;0,0861533
1227,4692;0,0869064
1228,4335;0,0876008
1229,3977;0,0882388
1230,3619;0,0888207
1231,3262;0,089341
1232,2904;0,0897891
1233,2546;0,0901536
1234,2189;0,0904288
1235,1831;0,0906193
1236,1473;0,0907396
1237,1116;0,0908092
1238,0758;0,0908446
1239,0400;0,0908547
1240,0043;0,0908388
1240,9685;0,0907893
1241,9327;0,0906956
1242,8970;0,0905471
1243,8612;0,090336
1244,8254;0,0900581
1245,7897;0,0897147
1246,7539;0,0893132
1247,7181;0,0888658
1248,6824;0,0883868
1249,6466;0,0878886
1250,6108;0,0873798
1251,5751;0,086867
1252,5393;0,0863573
1253,5035;0,0858603
1254,4678;0,0853857
1255,4320;0,0849378
1256,3962;0,0845109
1257,3605;0,0840891
1258,3247;0,0836519
1259,2889;0,0831814
1260,2532;0,0826689
1261,2174;0,082115
1262,1816;0,0815258
1263,1459;0,0809075
1264,1101;0,080263
1265,0743;0,0795926
1266,0386;0,0788949
1267,0028;0,0781693
1267,9670;0,0774164
1268,9313;0,0766391
1269,8955;0,0758424
1270,8597;0,0750321
1271,8240;0,0742136
1272,7882;0,0733911
1273,7524;0,0725692
1274,7167;0,0717555
1275,6809;0,0709625
1276,6451;0,0702038
1277,6094;0,069488
1278,5736;0,0688109
1279,5378;0,0681552
1280,5021;0,0674975
1281,4663;0,0668209
1282,4305;0,0661247
1283,3948;0,0654255
1284,3590;0,0647501
1285,3232;0,0641247
1286,2875;0,0635681
1287,2517;0,0630899
1288,2159;0,0626935
1289,1802;0,062379
1290,1444;0,0621455
1291,1086;0,0619911
1292,0729;0,0619134
1293,0371;0,0619117
1294,0013;0,0619886
1294,9656;0,0621498
1295,9298;0,0624026
1296,8940;0,0627519
1297,8583;0,0631981
1298,8225;0,0637364
1299,7867;0,0643572
1300,7510;0,065049
1301,7152;0,0658016
1302,6794;0,0666078
1303,6437;0,0674644
1304,6079;0,0683709
1305,5721;0,0693251
1306,5364;0,0703199
1307,5006;0,0713425
1308,4648;0,0723772
1309,4291;0,0734083
1310,3933;0,0744201
1311,3575;0,075393
1312,3218;0,0763006
1313,2860;0,0771095
1314,2502;0,0777849
1315,2145;0,0782963
1316,1787;0,0786219
1317,1429;0,0787521
1318,1072;0,0786949
1319,0714;0,0784803
1320,0356;0,0781577
1320,9999;0,0777834
1321,9641;0,0774047
1322,9283;0,0770518
1323,8926;0,076739
1324,8568;0,0764719
1325,8210;0,076253
1326,7853;0,0760833
1327,7495;0,0759591
1328,7137;0,0758691
1329,6780;0,0757922
1330,6422;0,0757012
1331,6064;0,0755692
1332,5707;0,0753757
1333,5349;0,0751092
1334,4991;0,0747619
1335,4634;0,0743223
1336,4276;0,0737728
1337,3918;0,0730996
1338,3561;0,0723148
1339,3203;0,0714733
1340,2845;0,0706591
1341,2488;0,0699423
1342,2130;0,0693478
1343,1772;0,0688616
1344,1415;0,0684582
1345,1057;0,0681226
1346,0699;0,0678582
1347,0342;0,0676819
1347,9984;0,0676148
1348,9626;0,0676708
1349,9269;0,0678502
1350,8911;0,068138
1351,8553;0,0685077
1352,8196;0,0689311
1353,7838;0,069387
1354,7480;0,0698687
1355,7123;0,0703815
1356,6765;0,0709337
1357,6407;0,0715262
1358,6050;0,0721487
1359,5692;0,0727815
1360,5334;0,0733977
1361,4977;0,0739684
1362,4619;0,0744758
1363,4261;0,0749257
1364,3904;0,0753409
1365,3546;0,0757403
1366,3188;0,0761251
1367,2831;0,0764806
1368,2473;0,0767833
1369,2115;0,0770065
1370,1758;0,0771227
1371,1400;0,0771017
1372,1042;0,0769131
1373,0685;0,0765384
1374,0327;0,0759926
1374,9969;0,0753302
1375,9612;0,0746116
1376,9254;0,0738557
1377,8896;0,0730301
1378,8539;0,0720907
1379,8181;0,0710328
1380,7823;0,0699132
1381,7466;0,0688201
1382,7108;0,0678124
1383,6750;0,0668813
1384,6393;0,0659645
1385,6035;0,0650034
1386,5677;0,0640111
1387,5320;0,0630942
1388,4962;0,0623818
1389,4604;0,0619245
1390,4247;0,0616746
1391,3889;0,0615429
1392,3531;0,0614554
1393,3174;0,0613762
1394,2816;0,0613055
1395,2458;0,0612645
1396,2101;0,0612762
1397,1743;0,0613537
1398,1385;0,061501
1399,1028;0,0617179
1400,0670;0,0619996
1401,0313;0,0623332
1401,9955;0,0626994
1402,9597;0,0630805
1403,9240;0,0634699
1404,8882;0,0638757
1405,8524;0,0643152
1406,8167;0,064802
1407,7809;0,065338
1408,7451;0,0659181
1409,7094;0,0665413
1410,6736;0,067214
1411,6378;0,0679416
1412,6021;0,0687155
1413,5663;0,0695092
1414,5305;0,070287
1415,4948;0,0710132
1416,4590;0,071655
1417,4232;0,0721826
1418,3875;0,0725839
1419,3517;0,0728833
1420,3159;0,0731178
1421,2802;0,0732829
1422,2444;0,0733283
1423,2086;0,0732036
1424,1729;0,0728994
1425,1371;0,0724475
1426,1013;0,0718813
1427,0656;0,0711956
1428,0298;0,0703513
1428,9940;0,0693323
1429,9583;0,0682057
1430,9225;0,0671053
1431,8867;0,0661311
1432,8510;0,0652696
1433,8152;0,0644052
1434,7794;0,0634027
1435,7437;0,062229
1436,7079;0,061047
1437,6721;0,0601302
1438,6364;0,0596264
1439,6006;0,0594765
1440,5648;0,0595385
1441,5291;0,0597072
1442,4933;0,0599418
1443,4575;0,0602414
1444,4218;0,0606092
1445,3860;0,0610317
1446,3502;0,0614808
1447,3145;0,0619308
1448,2787;0,0623753
1449,2429;0,0628262
1450,2072;0,0632936
1451,1714;0,0637672
1452,1356;0,0642138
1453,0999;0,0645858
1454,0641;0,0648203
1455,0283;0,0648203
1455,9926;0,0644638
1456,9568;0,0637612
1457,9210;0,0630338
1458,8853;0,0626238
1459,8495;0,0625328
1460,8137;0,0625484
1461,7780;0,0624485
1462,7422;0,0620527
1463,7064;0,0612464
1464,6707;0,0600597
1465,6349;0,058709
1466,5991;0,0574439
1467,5634;0,0563436
1468,5276;0,0552999
1469,4918;0,0541169
1470,4561;0,0525914
1471,4203;0,05059
1472,3845;0,0481934
1473,3488;0,0457821
1474,3130;0,0437892
1475,2772;0,0423481
1476,2415;0,041319
1477,2057;0,0405177
1478,1699;0,0398279
1479,1342;0,0391982
1480,0984;0,0386151
1481,0626;0,0380886
1482,0269;0,0376457
1482,9911;0,0373168
1483,9553;0,0371159
1484,9196;0,0370283
1485,8838;0,037016
1486,8480;0,0370333
1487,8123;0,03705
1488,7765;0,0370822
1489,7407;0,0372026
1490,7050;0,0374827
1491,6692;0,0379266
1492,6334;0,0384853
1493,5977;0,0391117
1494,5619;0,039788
1495,5261;0,0405216
1496,4904;0,0413243
1497,4546;0,0421938
1498,4188;0,0431123
1499,3831;0,0440523
1500,3473;0,0449729
1501,3115;0,0458224
1502,2758;0,0465524
1503,2400;0,0471256
1504,2042;0,0475057
1505,1685;0,0476185
1506,1327;0,047331
1507,0969;0,0466306
1508,0612;0,0458595
1509,0254;0,0453534
1509,9896;0,0450973
1510,9539;0,0449283
1511,9181;0,0447211
1512,8823;0,0444093
1513,8466;0,0439636
1514,8108;0,043383
1515,7750;0,0426978
1516,7393;0,0419591
1517,7035;0,0412062
1518,6677;0,040442
1519,6320;0,0396503
1520,5962;0,038848
1521,5604;0,0381151
1522,5247;0,0375466
1523,4889;0,0371729
1524,4531;0,0369494
1525,4174;0,0368157
1526,3816;0,0367468
1527,3458;0,0367525
1528,3101;0,0368421
1529,2743;0,0369984
1530,2385;0,0371863
1531,2028;0,0373768
1532,1670;0,0375688
1533,1312;0,0377935
1534,0955;0,0380896
1535,0597;0,0384623
1536,0239;0,0388721
1536,9882;0,039262
1537,9524;0,039578
1538,9166;0,0397567
1539,8809;0,0397189
1540,8451;0,0394814
1541,8093;0,0392663
1542,7736;0,0392587
1543,7378;0,0394272
1544,7020;0,0396682
1545,6663;0,0399229
1546,6305;0,0401775
1547,5947;0,0404284
1548,5590;0,0406622
1549,5232;0,0408608
1550,4874;0,0410216
1551,4517;0,04117
1552,4159;0,0413463
1553,3801;0,0415705
1554,3444;0,0418192
1555,3086;0,0420262
1556,2728;0,0420868
1557,2371;0,041868
1558,2013;0,0413489
1559,1655;0,0408847
1560,1298;0,0409169
1561,0940;0,0414337
1562,0582;0,042175
1563,0225;0,0429449
1563,9867;0,0436507
1564,9509;0,0442576
1565,9152;0,0447594
1566,8794;0,0451767
1567,8436;0,0455652
1568,8079;0,0460075
1569,7721;0,0465657
1570,7363;0,0472332
1571,7006;0,0479475
1572,6648;0,0486472
1573,6290;0,0493117
1574,5933;0,0499657
1575,5575;0,0506538
1576,5217;0,0514056
1577,4860;0,0522209
1578,4502;0,0530826
1579,4144;0,0539711
1580,3787;0,0548727
1581,3429;0,0557822
1582,3071;0,0566987
1583,2714;0,057622
1584,2356;0,0585533
1585,1998;0,0594959
1586,1641;0,0604481
1587,1283;0,0613927
1588,0925;0,0622952
1589,0568;0,0631121
1590,0210;0,0638032
1590,9852;0,0643361
1591,9495;0,0646832
1592,9137;0,0648203
1593,8779;0,0647382
1594,8422;0,0644577
1595,8064;0,0640314
1596,7706;0,0635235
1597,7349;0,0629833
1598,6991;0,0624341
1599,6633;0,0618798
1600,6276;0,0613211
1601,5918;0,060768
1602,5560;0,0602419
1603,5203;0,0597657
1604,4845;0,0593483
1605,4487;0,0589753
1606,4130;0,0586161
1607,3772;0,0582464
1608,3414;0,0578764
1609,3057;0,0575576
1610,2699;0,0573497
1611,2341;0,0572705
1612,1984;0,0572768
1613,1626;0,057286
1614,1268;0,0572135
1615,0911;0,0570178
1616,0553;0,0567562
1617,0195;0,0565836
1617,9838;0,0566235
1618,9480;0,0568546
1619,9122;0,0571598
1620,8765;0,057428
1621,8407;0,0576031
1622,8049;0,0576923
1623,7692;0,057749
1624,7334;0,0578294
1625,6976;0,0579521
1626,6619;0,0581042
1627,6261;0,0582782
1628,5903;0,058489
1629,5546;0,0587546
1630,5188;0,0590647
1631,4830;0,059373
1632,4473;0,0596088
1633,4115;0,0596898
1634,3757;0,0595445
1635,3400;0,0591897
1636,3042;0,0588131
1637,2684;0,0586407
1638,2327;0,0587164
1639,1969;0,0589382
1640,1611;0,0592007
1641,1254;0,0594465
1642,0896;0,0596472
1643,0538;0,0597726
1644,0181;0,0597717
1644,9823;0,0595884
1645,9465;0,0592387
1646,9108;0,0588843
1647,8750;0,0587151
1648,8392;0,0587455
1649,8035;0,058813
1650,7677;0,0586729
1651,7319;0,0580465
1652,6962;0,0568016
1653,6604;0,0553747
1654,6246;0,0545041
1655,5889;0,0543076
1656,5531;0,0544176
1657,5173;0,0545108
1658,4816;0,0544205
1659,4458;0,0540719
1660,4100;0,0534427
1661,3743;0,052585
1662,3385;0,051657
1663,3027;0,0508559
1664,2670;0,050276
1665,2312;0,0498594
1666,1954;0,0494561
1667,1597;0,0488991
1668,1239;0,048073
1669,0881;0,0470049
1670,0524;0,045895
1671,0166;0,0449594
1671,9808;0,0442309
1672,9451;0,0435725
1673,9093;0,042833
1674,8735;0,0419776
1675,8378;0,0411239
1676,8020;0,0404448
1677,7662;0,0400171
1678,7305;0,039775
1679,6947;0,0395736
1680,6589;0,0392465
1681,6232;0,03862
1682,5874;0,037561
1683,5516;0,0361569
1684,5159;0,034824
1685,4801;0,0339418
1686,4443;0,0334964
1687,4086;0,0332569
1688,3728;0,033039
1689,3370;0,0327759
1690,3013;0,032483
1691,2655;0,0322005
1692,2297;0,0319515
1693,1940;0,0317293
1694,1582;0,0315062
1695,1224;0,0312503
1696,0867;0,0309376
1697,0509;0,0305596
1698,0151;0,0301311
1698,9794;0,0297076
1699,9436;0,0293872
1700,9078;0,0292597
1701,8721;0,029342
1702,8363;0,0295746
1703,8005;0,029873
1704,7648;0,0301765
1705,7290;0,0304691
1706,6932;0,0307749
1707,6575;0,031132
1708,6217;0,0315621
1709,5859;0,0320588
1710,5502;0,0325977
1711,5144;0,0331492
1712,4786;0,0336835
1713,4429;0,0341705
1714,4071;0,0345795
1715,3713;0,0348882
1716,3356;0,0351117
1717,2998;0,0353349
1718,2640;0,0356713
1719,2283;0,0361629
1720,1925;0,0367641
1721,1567;0,0374031
1722,1210;0,0380253
1723,0852;0,0386005
1724,0494;0,0391206
1725,0137;0,0395965
1725,9779;0,0400527
1726,9421;0,0405124
1727,9064;0,0409807
1728,8706;0,0414342
1729,8348;0,0418212
1730,7991;0,0420656
1731,7633;0,0420837
1732,7275;0,0418396
1733,6918;0,04143
1734,6560;0,041057
1735,6202;0,040843
1736,5845;0,040738
1737,5487;0,0406067
1738,5129;0,0403338
1739,4772;0,0398742
1740,4414;0,0392639
1741,4056;0,0385911
1742,3699;0,0379322
1743,3341;0,0373051
1744,2983;0,0366782
1745,2626;0,0360054
1746,2268;0,0352364
1747,1910;0,0343073
1748,1553;0,0331493
1749,1195;0,0317569
1750,0837;0,0302639
1751,0480;0,0288919
1752,0122;0,0277846
1752,9764;0,0269246
1753,9407;0,0261959
1754,9049;0,0254839
1755,8691;0,0247362
1756,8334;0,0239691
1757,7976;0,0232268
1758,7618;0,0225271
1759,7261;0,0218429
1760,6903;0,0211408
1761,6545;0,0204333
1762,6188;0,0197863
1763,5830;0,0192657
1764,5472;0,0188836
1765,5115;0,0185966
1766,4757;0,0183439
1767,4399;0,0180811
1768,4042;0,0177898
1769,3684;0,0174659
1770,3326;0,0171042
1771,2969;0,0167052
1772,2611;0,0163041
1773,2253;0,0159749
1774,1896;0,0157769
1775,1538;0,0157062
1776,1180;0,015707
1777,0823;0,015713
1778,0465;0,0156787
1779,0107;0,0155923
1779,9750;0,0154711
1780,9392;0,0153447
1781,9034;0,0152336
1782,8677;0,0151434
1783,8319;0,015076
1784,7961;0,0150414
1785,7604;0,0150536
1786,7246;0,0151146
1787,6888;0,0152048
1788,6531;0,0152871
1789,6173;0,0153187
1790,5815;0,0152674
1791,5458;0,0151343
1792,5100;0,0149719
1793,4742;0,014856
1794,4385;0,0148242
1795,4027;0,0148538
1796,3669;0,0148938
1797,3312;0,0149016
1798,2954;0,0148587
1799,2596;0,0147725
1800,2239;0,0146702
1801,1881;0,0145849
1802,1523;0,0145395
1803,1166;0,0145394
1804,0808;0,0145765
1805,0450;0,0146361
1806,0093;0,0147013
1806,9735;0,0147528
1807,9377;0,0147716
1808,9020;0,0147444
1809,8662;0,0146734
1810,8304;0,0145801
1811,7947;0,0144955
1812,7589;0,0144424
1813,7231;0,0144238
1814,6874;0,0144275
1815,6516;0,0144383
1816,6158;0,014448
1817,5801;0,0144589
1818,5443;0,0144793
1819,5085;0,014514
1820,4728;0,0145581
1821,4370;0,0145988
1822,4012;0,0146232
1823,3655;0,0146258
1824,3297;0,0146115
1825,2939;0,0145912
1826,2582;0,0145705
1827,2224;0,0145432
1828,1866;0,0144966
1829,1509;0,0144266
1830,1151;0,0143501
1831,0793;0,0142998
1832,0436;0,0142985
1833,0078;0,014342
1833,9720;0,0144052
1834,9363;0,0144612
1835,9005;0,0144965
1836,8647;0,014517
1837,8290;0,0145411
1838,7932;0,014583
1839,7574;0,0146401
1840,7217;0,0146935
1841,6859;0,0147186
1842,6501;0,014696
1843,6144;0,0146244
1844,5786;0,0145278
1845,5428;0,0144425
1846,5071;0,0143873
1847,4713;0,0143532
1848,4355;0,014321
1849,3998;0,0142819
1850,3640;0,0142433
1851,3282;0,0142203
1852,2925;0,0142231
1853,2567;0,0142496
1854,2209;0,0142899
1855,1852;0,0143345
1856,1494;0,01438
1857,1136;0,0144272
1858,0779;0,0144747
1859,0421;0,0145171
1860,0063;0,0145477
1860,9706;0,0145657
1861,9348;0,014577
1862,8990;0,01459
1863,8633;0,0146073
1864,8275;0,0146239
1865,7917;0,0146305
1866,7560;0,0146208
1867,7202;0,0145976
1868,6844;0,0145751
1869,6487;0,0145691
1870,6129;0,0145817
1871,5771;0,0145965
1872,5414;0,0145906
1873,5056;0,0145507
1874,4698;0,0144823
1875,4341;0,0144074
1876,3983;0,0143547
1877,3625;0,0143446
1878,3268;0,0143795
1879,2910;0,0144442
1880,2552;0,0145158
1881,2195;0,0145744
1882,1837;0,0146097
1883,1479;0,0146229
1884,1122;0,0146237
1885,0764;0,0146244
1886,0406;0,014635
1887,0049;0,0146592
1887,9691;0,0146924
1888,9333;0,0147223
1889,8976;0,0147348
1890,8618;0,0147215
1891,8260;0,0146844
1892,7903;0,0146335
1893,7545;0,0145833
1894,7188;0,0145477
1895,6830;0,014537
1896,6472;0,0145534
1897,6115;0,0145911
1898,5757;0,0146389
1899,5399;0,0146842
1900,5042;0,0147166
1901,4684;0,0147314
1902,4326;0,0147301
1903,3969;0,0147196
1904,3611;0,0147076
1905,3253;0,0146975
1906,2896;0,0146855
1907,2538;0,014664
1908,2180;0,0146282
1909,1823;0,0145844
1910,1465;0,0145511
1911,1107;0,0145498
1912,0750;0,0145923
1913,0392;0,0146731
1914,0034;0,0147719
1914,9677;0,0148624
1915,9319;0,014922
1916,8961;0,0149413
1917,8604;0,0149297
1918,8246;0,0149103
1919,7888;0,0149033
1920,7531;0,0149128
1921,7173;0,0149242
1922,6815;0,0149155
1923,6458;0,0148727
1924,6100;0,0148021
1925,5742;0,0147277
1926,5385;0,0146776
1927,5027;0,0146688
1928,4669;0,0147005
1929,4312;0,0147593
1930,3954;0,0148303
1931,3596;0,0149069
1932,3239;0,0149912
1933,2881;0,0150822
1934,2523;0,015163
1935,2166;0,0152
1936,1808;0,015161
1937,1450;0,0150394
1938,1093;0,0148672
1939,0735;0,0147075
1940,0377;0,0146275
1941,0020;0,0146656
1941,9662;0,0148074
1942,9304;0,0149897
1943,8947;0,0151377
1944,8589;0,0152075
1945,8231;0,0151997
1946,7874;0,0151445
1947,7516;0,0150776
1948,7158;0,0150252
1949,6801;0,0150003
1950,6443;0,0150043
1951,6085;0,0150311
1952,5728;0,0150692
1953,5370;0,0151045
1954,5012;0,015125
1955,4655;0,0151257
1956,4297;0,0151117
1957,3939;0,0150948
1958,3582;0,0150869
1959,3224;0,0150945
1960,2866;0,0151171
1961,2509;0,0151509
1962,2151;0,0151914
1963,1793;0,0152328
1964,1436;0,015265
1965,1078;0,0152723
1966,0720;0,0152381
1967,0363;0,0151539
1968,0005;0,0150257
1968,9647;0,0148704
1969,9290;0,0147082
1970,8932;0,0145582
1971,8574;0,0144434
1972,8217;0,0143958
1973,7859;0,0144534
1974,7501;0,0146402
1975,7144;0,014942
1976,6786;0,0152964
1977,6428;0,015614
1978,6071;0,015823
1979,5713;0,0159034
1980,5355;0,0158854
1981,4998;0,015819
1982,4640;0,0157417
1983,4282;0,0156635
1984,3925;0,0155742
1985,3567;0,0154654
1986,3209;0,0153525
1987,2852;0,0152817
1988,2494;0,0153152
1989,2136;0,0154997
1990,1779;0,0158344
1991,1421;0,0162547
1992,1063;0,0166502
1993,0706;0,0169113
1994,0348;0,0169756
1994,9990;0,0168452
1995,9633;0,0165738
1996,9275;0,0162403
1997,8917;0,0159281
1998,8560;0,0157089
1999,8202;0,0156303
2000,7844;0,0157055
2001,7487;0,015911
2002,7129;0,0161935
2003,6771;0,0164862
2004,6414;0,016729
2005,6056;0,0168878
2006,5698;0,0169635
2007,5341;0,016986
2008,4983;0,0169953
2009,4625;0,017025
2010,4268;0,0170945
2011,3910;0,0172098
2012,3552;0,0173637
2013,3195;0,0175324
2014,2837;0,0176747
2015,2479;0,0177446
2016,2122;0,0177177
2017,1764;0,017618
2018,1406;0,0175218
2019,1049;0,0175253
2020,0691;0,0176911
2021,0333;0,0180068
2021,9976;0,0183778
2022,9618;0,0186612
2023,9260;0,0187277
2024,8903;0,0185248
2025,8545;0,0181074
2026,8187;0,0176139
2027,7830;0,0171997
2028,7472;0,0169638
2029,7114;0,0169105
2030,6757;0,0169671
2031,6399;0,0170423
2032,6041;0,0170884
2033,5684;0,0171252
2034,5326;0,017213
2035,4968;0,0173973
2036,4611;0,0176678
2037,4253;0,017959
2038,3895;0,0181843
2039,3538;0,0182771
2040,3180;0,0182175
2041,2822;0,0180366
2042,2465;0,0178018
2043,2107;0,0175915
2044,1749;0,0174699
2045,1392;0,0174688
2046,1034;0,0175759
2047,0676;0,017737
2048,0320;0,0178765
2048,9961;0,017932
2049,9604;0,0178845
2050,9246;0,0177644
2051,8889;0,0176321
2052,8530;0,0175499
2053,8174;0,0175562
2054,7815;0,0176501
2055,7458;0,0177916
2056,7100;0,0179193
2057,6743;0,0179788
2058,6384;0,017948
2059,6028;0,0178472
2060,5669;0,0177288
2061,5313;0,0176523
2062,4954;0,0176546
2063,4597;0,0177314
2064,4238;0,0178399
2065,3882;0,0179224
2066,3523;0,0179383
2067,3167;0,0178844
2068,2808;0,0177934
2069,2451;0,0177123
2070,2092;0,017678
2071,1736;0,0177004
2072,1377;0,0177637
2073,1021;0,0178386
2074,0662;0,0179002
2075,0305;0,0179371
2075,9946;0,0179511
2076,9590;0,0179492
2077,9231;0,0179357
2078,8875;0,0179119
2079,8516;0,0178789
2080,8159;0,0178427
2081,7800;0,0178132
2082,7444;0,0177996
2083,7085;0,0178032
2084,6729;0,0178161
2085,6370;0,0178247
2086,6013;0,017818
2087,5654;0,0177941
2088,5298;0,0177606
2089,4939;0,0177301
2090,4583;0,0177134
2091,4224;0,0177161
2092,3867;0,0177374
2093,3508;0,0177729
2094,3152;0,0178166
2095,2793;0,0178619
2096,2437;0,0179024
2097,2078;0,0179326
2098,1721;0,0179503
2099,1362;0,0179571
2100,1006;0,0179578
2101,0647;0,0179564
2102,0291;0,0179538
2102,9932;0,0179458
2103,9575;0,0179248
2104,9216;0,0178862
2105,8860;0,0178341
2106,8501;0,0177847
2107,8145;0,0177611
2108,7786;0,017783
2109,7429;0,0178557
2110,7070;0,0179652
2111,6714;0,0180848
2112,6355;0,0181873
2113,5999;0,0182571
2114,5640;0,018293
2115,5283;0,0183026
2116,4924;0,0182942
2117,4568;0,0182732
2118,4209;0,0182448
2119,3853;0,0182188
2120,3494;0,01821
2121,3137;0,0182313
2122,2778;0,0182857
2123,2422;0,0183631
2124,2063;0,0184466
2125,1707;0,0185235
2126,1348;0,0185906
2127,0991;0,0186517
2128,0632;0,0187081
2129,0276;0,0187533
2129,9917;0,0187779
2130,9561;0,0187827
2131,9202;0,0187892
2132,8845;0,0188367
2133,8486;0,018962
2134,8130;0,0191726
2135,7771;0,0194322
2136,7415;0,0196721
2137,7056;0,019823
2138,6699;0,0198489
2139,6340;0,0197624
2140,5984;0,0196172
2141,5625;0,0194844
2142,5269;0,0194262
2143,4910;0,0194784
2144,4553;0,0196459
2145,4194;0,0199073
2146,3838;0,0202241
2147,3479;0,0205477
2148,3123;0,0208275
2149,2764;0,0210206
2150,2407;0,0211038
2151,2048;0,0210834
2152,1692;0,0209972
2153,1333;0,0209067
2154,0977;0,0208818
2155,0618;0,0209857
2156,0261;0,0212584
2156,9902;0,021695
2157,9546;0,0222221
2158,9187;0,0226985
2159,8831;0,0229647
2160,8472;0,022921
2161,8115;0,0225772
2162,7756;0,022044
2163,7400;0,0214846
2164,7041;0,0210519
2165,6685;0,0208328
2166,6326;0,0208219
2167,5969;0,0209379
2168,5610;0,0210733
2169,5254;0,0211444
2170,4895;0,0211162
2171,4539;0,0209986
2172,4180;0,020827
2173,3823;0,0206421
2174,3464;0,0204791
2175,3108;0,0203627
2176,2749;0,0203053
2177,2393;0,0203046
2178,2034;0,0203433
2179,1677;0,0203934
2180,1318;0,0204248
2181,0962;0,0204162
2182,0603;0,0203626
2183,0247;0,0202759
2183,9888;0,0201774
2184,9531;0,0200865
2185,9172;0,0200132
2186,8816;0,0199566
2187,8457;0,0199109
2188,8101;0,0198725
2189,7742;0,0198431
2190,7385;0,0198259
2191,7026;0,0198186
2192,6670;0,0198096
2193,6311;0,0197828
2194,5955;0,0197283
2195,5596;0,0196514
2196,5239;0,0195719
2197,4880;0,0195131
2198,4524;0,0194878
2199,4165;0,0194927
2200,3809;0,0195131
2201,3450;0,0195338
2202,3093;0,0195464
2203,2734;0,0195472
2204,2378;0,0195316
2205,2019;0,0194914
2206,1663;0,0194199
2207,1304;0,0193217
2208,0947;0,0192164
2209,0588;0,0191326
2210,0232;0,0190934
2210,9873;0,0191035
2211,9517;0,0191481
2212,9158;0,0192013
2213,8801;0,0192415
2214,8442;0,0192604
2215,8086;0,0192635
2216,7727;0,0192617
2217,7371;0,0192617
2218,7012;0,0192597
2219,6655;0,0192441
2220,6296;0,0192021
2221,5940;0,0191291
2222,5581;0,0190343
2223,5225;0,0189398
2224,4866;0,0188717
2225,4509;0,018848
2226,4150;0,0188689
2227,3794;0,0189156
2228,3435;0,0189601
2229,3079;0,0189786
2230,2720;0,0189623
2231,2363;0,0189179
2232,2004;0,0188609
2233,1648;0,0188044
2234,1289;0,0187548
2235,0933;0,0187132
2236,0574;0,0186812
2237,0217;0,0186645
2237,9858;0,0186693
2238,9502;0,018697
2239,9143;0,0187394
2240,8787;0,0187817
2241,8428;0,0188101
2242,8071;0,0188193
2243,7712;0,0188153
2244,7356;0,01881
2245,6997;0,018813
2246,6641;0,0188249
2247,6282;0,0188372
2248,5925;0,0188377
2249,5566;0,0188184
2250,5210;0,018781
2251,4851;0,0187362
2252,4495;0,0186987
2253,4136;0,0186796
2254,3779;0,0186808
2255,3420;0,0186939
2256,3064;0,0187026
2257,2705;0,0186897
2258,2349;0,0186439
2259,1990;0,0185646
2260,1633;0,0184644
2261,1274;0,0183653
2262,0918;0,0182921
2263,0559;0,018263
2264,0203;0,0182813
2264,9844;0,0183342
2265,9487;0,0183989
2266,9128;0,0184526
2267,8772;0,018482
2268,8413;0,0184851
2269,8057;0,0184676
2270,7698;0,0184361
2271,7341;0,0183945
2272,6982;0,0183448
2273,6626;0,0182896
2274,6267;0,0182344
2275,5911;0,018185
2276,5552;0,0181452
2277,5195;0,0181152
2278,4836;0,0180938
2279,4480;0,0180815
2280,4121;0,018082
2281,3765;0,0181003
2282,3406;0,0181383
2283,3049;0,0181926
2284,2690;0,0182548
2285,2334;0,0183161
2286,1975;0,0183716
2287,1619;0,0184215
2288,1260;0,0184702
2289,0903;0,0185212
2290,0544;0,0185743
2291,0188;0,0186249
2291,9829;0,0186675
2292,9473;0,0187009
2293,9114;0,0187307
2294,8757;0,0187673
2295,8398;0,0188191
2296,8042;0,0188855
2297,7683;0,0189541
2298,7327;0,0190048
2299,6968;0,01902
2300,6611;0,0189939
2301,6252;0,0189366
2302,5896;0,0188697
2303,5537;0,0188174
2304,5181;0,0187971
2305,4822;0,0188128
2306,4465;0,018853
2307,4106;0,0188933
2308,3750;0,0189035
2309,3391;0,0188585
2310,3035;0,0187491
2311,2676;0,0185891
2312,2319;0,0184127
2313,1960;0,0182625
2314,1604;0,0181709
2315,1245;0,0181483
2316,0889;0,0181809
2317,0530;0,0182386
2318,0173;0,0182876
2318,9814;0,0183025
2319,9458;0,0182776
2320,9099;0,0182319
2321,8743;0,0182033
2322,8384;0,0182272
2323,8027;0,0183115
2324,7668;0,018426
2325,7312;0,0185183
2326,6953;0,0185428
2327,6597;0,0184858
2328,6238;0,0183735
2329,5881;0,0182605
2330,5522;0,0182021
2331,5166;0,0182258
2332,4807;0,0183192
2333,4451;0,0184413
2334,4092;0,0185506
2335,3735;0,0186278
2336,3376;0,0186825
2337,3020;0,0187401
2338,2661;0,0188185
2339,2305;0,0189074
2340,1946;0,0189603
2341,1589;0,0189056
2342,1230;0,0186852
2343,0874;0,0183284
2344,0515;0,0180119
2345,0159;0,0179764
2345,9800;0,0183208
2346,9443;0,0189128
2347,9084;0,0195022
2348,8728;0,0198789
2349,8369;0,0199586
2350,8013;0,0197942
2351,7654;0,0195343
2352,7297;0,0193432
2353,6938;0,0193153
2354,6582;0,0194422
2355,6223;0,0196508
2356,5867;0,0198519
2357,5508;0,0199626
2358,5151;0,0199262
2359,4792;0,0197405
2360,4436;0,0194566
2361,4077;0,0191314
2362,3721;0,0187818
2363,3362;0,0183913
2364,3005;0,0179569
2365,2646;0,01752
2366,2290;0,0171485
2367,1931;0,0168908
2368,1575;0,0167473
2369,1216;0,0166791
2370,0859;0,0166377
2371,0500;0,0165927
2372,0144;0,0165409
2372,9785;0,0165009
2373,9429;0,0165009
2374,9070;0,0165667
2375,8713;0,0167131
2376,8354;0,0169395
2377,7998;0,0172291
2378,7639;0,017553
2379,7283;0,0178768
2380,6924;0,0181685
2381,6567;0,0184056
2382,6208;0,0185784
2383,5852;0,0186905
2384,5493;0,0187553
2385,5137;0,0187903
2386,4778;0,0188124
2387,4421;0,0188329
2388,4063;0,0188564
2389,3706;0,0188816
2390,3347;0,0189043
2391,2991;0,0189213
2392,2632;0,0189329
2393,2275;0,0189427
2394,1917;0,0189553
2395,1560;0,018973
2396,1201;0,0189952
2397,0845;0,019019
2398,0486;0,0190436
2399,0129;0,0190705
2399,9771;0,0191035
2400,9414;0,0191455
2401,9055;0,0191951
2402,8699;0,0192462
2403,8340;0,019291
2404,7983;0,019324
2405,7625;0,0193447
2406,7268;0,0193572
2407,6909;0,019367
2408,6553;0,0193784
2409,6194;0,0193921
2410,5837;0,0194073
2411,5479;0,0194229
2412,5122;0,0194394
2413,4763;0,019459
2414,4407;0,0194846
2415,4048;0,0195177
2416,3691;0,0195569
2417,3333;0,019597
2418,2976;0,019631
2419,2617;0,0196527
2420,2261;0,0196609
2421,1902;0,0196605
2422,1545;0,019661
2423,1187;0,0196718
2424,0830;0,019697
2425,0471;0,0197349
2426,0115;0,0197797
2426,9756;0,0198263
2427,9399;0,0198732
2428,9041;0,0199219
2429,8684;0,0199735
2430,8325;0,0200267
2431,7969;0,0200773
2432,7610;0,0201211
2433,7253;0,0201555
2434,6895;0,0201802
2435,6538;0,0201958
2436,6179;0,0202026
2437,5823;0,0202012
2438,5464;0,0201935
2439,5107;0,0201841
2440,4749;0,0201793
2441,4392;0,0201844
2442,4033;0,020202
2443,3677;0,0202315
2444,3318;0,0202708
2445,2961;0,020317
2446,2603;0,020367
2447,2246;0,0204168
2448,1887;0,0204613
2449,1531;0,0204963
2450,1172;0,0205204
2451,0815;0,0205369
2452,0457;0,0205523
2453,0100;0,0205726
2453,9741;0,0205995
2454,9385;0,0206291
2455,9026;0,0206538
2456,8669;0,0206665
2457,8311;0,0206651
2458,7954;0,0206539
2459,7595;0,0206424
2460,7239;0,0206416
2461,6880;0,0206597
2462,6523;0,0206989
2463,6165;0,0207543
2464,5808;0,020816
2465,5449;0,0208719
2466,5093;0,0209125
2467,4734;0,0209338
2468,4377;0,0209383
2469,4019;0,0209335
2470,3662;0,0209283
2471,3303;0,0209294
2472,2947;0,0209398
2473,2588;0,0209587
2474,2231;0,0209839
2475,1873;0,0210139
2476,1516;0,0210479
2477,1157;0,021086
2478,0801;0,0211271
2479,0442;0,0211683
2480,0085;0,0212057
2480,9727;0,021236
2481,9370;0,0212584
2482,9011;0,0212748
2483,8655;0,0212884
2484,8296;0,0213017
2485,7939;0,021315
2486,7581;0,0213268
2487,7224;0,0213365
2488,6865;0,0213465
2489,6509;0,021362
2490,6150;0,0213887
2491,5793;0,0214278
2492,5435;0,0214742
2493,5078;0,0215178
2494,4719;0,0215491
2495,4363;0,0215644
2496,4004;0,0215684
2497,3647;0,0215712
2498,3289;0,0215825
2499,2932;0,0216058
2500,2573;0,021636
2501,2217;0,0216628
2502,1858;0,0216768
2503,1501;0,0216751
2504,1143;0,0216633
2505,0786;0,0216526
2506,0427;0,0216536
2507,0071;0,0216708
2507,9712;0,0217009
2508,9355;0,0217355
2509,8997;0,0217659
2510,8640;0,0217882
2511,8281;0,0218031
2512,7925;0,0218139
2513,7566;0,0218226
2514,7209;0,0218283
2515,6851;0,0218294
2516,6494;0,0218263
2517,6135;0,0218232
2518,5779;0,021827
2519,5420;0,0218437
2520,5063;0,0218754
2521,4705;0,0219184
2522,4348;0,0219647
2523,3989;0,0220041
2524,3633;0,0220285
2525,3274;0,0220345
2526,2917;0,0220256
2527,2559;0,0220112
2528,2202;0,022003
2529,1843;0,0220095
2530,1487;0,0220313
2531,1128;0,0220612
2532,0771;0,0220883
2533,0413;0,0221042
2534,0056;0,0221081
2534,9697;0,0221071
2535,9341;0,0221115
2536,8982;0,0221293
2537,8625;0,0221613
2538,8267;0,0222009
2539,7910;0,0222378
2540,7551;0,0222626
2541,7195;0,0222706
2542,6836;0,0222633
2543,6479;0,0222472
2544,6121;0,02223
2545,5764;0,022218
2546,5405;0,0222142
2547,5049;0,0222199
2548,4690;0,0222353
2549,4333;0,022261
2550,3975;0,0222957
2551,3618;0,0223354
2552,3259;0,0223727
2553,2903;0,0224003
2554,2544;0,0224145
2555,2188;0,0224179
2556,1829;0,0224169
2557,1472;0,022418
2558,1113;0,022423
2559,0757;0,0224293
2560,0398;0,0224334
2561,0042;0,0224346
2561,9683;0,0224358
2562,9326;0,0224414
2563,8967;0,0224533
2564,8611;0,0224696
2565,8252;0,0224866
2566,7896;0,0225027
2567,7537;0,0225193
2568,7180;0,0225393
2569,6821;0,0225641
2570,6465;0,0225907
2571,6106;0,0226138
2572,5750;0,0226289
2573,5391;0,0226352
2574,5034;0,0226363
2575,4675;0,022638
2576,4319;0,022645
2577,3960;0,0226592
2578,3604;0,0226792
2579,3245;0,0227015
2580,2888;0,0227222
2581,2529;0,0227388
2582,2173;0,0227512
2583,1814;0,0227619
2584,1458;0,0227746
2585,1099;0,0227924
2586,0742;0,0228152
2587,0383;0,0228387
2588,0027;0,0228568
2588,9668;0,0228646
2589,9312;0,0228623
2590,8953;0,0228558
2591,8596;0,0228547
2592,8237;0,0228679
2593,7881;0,0228985
2594,7522;0,0229425
2595,7166;0,0229906
2596,6807;0,023032
2597,6450;0,0230596
2598,6091;0,0230729
2599,5735;0,023078
2600,5376;0,0230841
2601,5020;0,0230991
2602,4661;0,0231257
2603,4304;0,0231609
2604,3945;0,023198
2605,3589;0,0232305
2606,3230;0,023256
2607,2874;0,0232767
2608,2515;0,0232984
2609,2158;0,0233269
2610,1799;0,0233648
2611,1443;0,0234105
2612,1084;0,0234589
2613,0728;0,0235033
2614,0369;0,0235386
2615,0012;0,0235629
2615,9653;0,0235785
2616,9297;0,0235902
2617,8938;0,0236039
2618,8582;0,0236235
2619,8223;0,0236503
2620,7866;0,023683
2621,7507;0,0237192
2622,7151;0,0237568
2623,6792;0,0237946
2624,6436;0,0238319
2625,6077;0,0238673
2626,5720;0,0238996
2627,5361;0,0239282
2628,5005;0,0239538
2629,4646;0,0239787
2630,4290;0,0240056
2631,3931;0,0240359
2632,3574;0,0240693
2633,3215;0,0241035
2634,2859;0,024136
2635,2500;0,0241651
2636,2144;0,0241907
2637,1785;0,0242149
2638,1428;0,0242411
2639,1069;0,0242729
2640,0713;0,0243124
2641,0354;0,0243592
2641,9998;0,0244098
2642,9639;0,02446
2643,9282;0,0245066
2644,8923;0,0245489
2645,8567;0,0245883
2646,8208;0,0246261
2647,7852;0,0246623
2648,7493;0,0246951
2649,7136;0,0247234
2650,6777;0,0247479
2651,6421;0,0247718
2652,6062;0,0247985
2653,5706;0,0248296
2654,5347;0,0248645
2655,4990;0,0249007
2656,4631;0,0249371
2657,4275;0,0249738
2658,3916;0,0250121
2659,3560;0,0250516
2660,3201;0,0250898
2661,2844;0,025123
2662,2485;0,0251488
2663,2129;0,025168
2664,1770;0,0251843
2665,1414;0,0252025
2666,1055;0,0252259
2667,0698;0,0252556
2668,0339;0,0252908
2668,9983;0,02533
2669,9624;0,0253714
2670,9268;0,0254131
2671,8909;0,0254528
2672,8552;0,0254884
2673,8193;0,0255188
2674,7837;0,025545
2675,7478;0,0255693
2676,7122;0,0255942
2677,6763;0,0256216
2678,6406;0,0256524
2679,6047;0,0256873
2680,5691;0,0257276
2681,5332;0,0257746
2682,4976;0,0258288
2683,4617;0,0258885
2684,4260;0,0259504
2685,3901;0,02601
2686,3545;0,0260633
2687,3186;0,0261082
2688,2830;0,0261441
2689,2471;0,0261718
2690,2114;0,0261934
2691,1755;0,026212
2692,1399;0,0262317
2693,1040;0,0262565
2694,0684;0,0262899
2695,0325;0,0263332
2695,9968;0,0263852
2696,9609;0,0264429
2697,9253;0,0265019
2698,8894;0,0265579
2699,8538;0,0266079
2700,8179;0,026651
2701,7822;0,0266896
2702,7463;0,0267275
2703,7107;0,0267685
2704,6748;0,0268132
2705,6392;0,0268591
2706,6033;0,0269018
2707,5676;0,0269382
2708,5317;0,0269698
2709,4961;0,0270018
2710,4602;0,0270405
2711,4246;0,0270893
2712,3887;0,0271462
2713,3530;0,0272054
2714,3171;0,02726
2715,2815;0,0273061
2716,2456;0,027344
2717,2100;0,0273771
2718,1741;0,0274093
2719,1384;0,0274429
2720,1025;0,0274779
2721,0669;0,0275121
2722,0310;0,0275428
2722,9954;0,0275689
2723,9595;0,0275918
2724,9238;0,0276161
2725,8879;0,027648
2726,8523;0,0276924
2727,8164;0,0277502
2728,7808;0,0278175
2729,7449;0,0278865
2730,7092;0,0279493
2731,6733;0,0280006
2732,6377;0,0280389
2733,6018;0,028065
2734,5662;0,028081
2735,5303;0,0280896
2736,4946;0,0280945
2737,4587;0,0281014
2738,4231;0,028117
2739,3872;0,0281458
2740,3516;0,0281876
2741,3157;0,0282363
2742,2800;0,0282828
2743,2441;0,0283192
2744,2085;0,0283426
2745,1726;0,0283557
2746,1370;0,0283646
2747,1011;0,0283757
2748,0654;0,0283934
2749,0295;0,0284196
2749,9939;0,0284549
2750,9580;0,0284991
2751,9224;0,028551
2752,8865;0,0286078
2753,8508;0,0286652
2754,8149;0,0287188
2755,7793;0,0287657
2756,7434;0,0288058
2757,7078;0,0288419
2758,6719;0,0288778
2759,6362;0,0289172
2760,6003;0,0289619
2761,5647;0,0290113
2762,5288;0,0290633
2763,4932;0,029115
2764,4573;0,0291637
2765,4216;0,0292088
2766,3857;0,0292517
2767,3501;0,029296
2768,3142;0,029345
2769,2786;0,0293997
2770,2427;0,0294573
2771,2070;0,0295126
2772,1711;0,0295607
2773,1355;0,0296011
2774,0996;0,0296389
2775,0640;0,0296829
2776,0281;0,0297408
2776,9924;0,0298145
2777,9565;0,0298984
2778,9209;0,0299825
2779,8850;0,030058
2780,8494;0,0301223
2781,8135;0,0301802
2782,7778;0,03024
2783,7419;0,0303081
2784,7063;0,0303842
2785,6704;0,0304617
2786,6348;0,0305329
2787,5989;0,0305944
2788,5632;0,0306505
2789,5273;0,0307116
2790,4917;0,0307879
2791,4558;0,0308839
2792,4202;0,0309955
2793,3843;0,0311124
2794,3486;0,0312243
2795,3127;0,0313264
2796,2771;0,0314213
2797,2412;0,0315162
2798,2056;0,0316185
2799,1697;0,0317313
2800,1340;0,0318527
2801,0981;0,0319783
2802,0625;0,0321044
2803,0266;0,0322301
2803,9910;0,0323565
2804,9551;0,0324848
2805,9194;0,0326136
2806,8835;0,0327399
2807,8479;0,0328609
2808,8120;0,032977
2809,7764;0,0330929
2810,7405;0,0332162
2811,7048;0,0333546
2812,6689;0,0335119
2813,6333;0,0336869
2814,5974;0,0338745
2815,5618;0,0340679
2816,5259;0,0342614
2817,4902;0,0344523
2818,4543;0,0346407
2819,4187;0,0348288
2820,3828;0,0350192
2821,3472;0,0352147
2822,3113;0,035418
2823,2756;0,0356325
2824,2397;0,0358615
2825,2041;0,0361076
2826,1682;0,0363712
2827,1326;0,03665
2828,0967;0,03694
2829,0610;0,037237
2830,0251;0,0375397
2830,9895;0,0378499
2831,9536;0,0381722
2832,9180;0,0385116
2833,8821;0,0388708
2834,8464;0,0392499
2835,8105;0,0396478
2836,7749;0,0400649
2837,7390;0,0405052
2838,7034;0,0409766
2839,6675;0,0414893
2840,6318;0,0420524
2841,5959;0,0426711
2842,5603;0,0433454
2843,5244;0,0440689
2844,4888;0,0448295
2845,4529;0,0456088
2846,4172;0,0463819
2847,3813;0,0471181
2848,3457;0,0477832
2849,3098;0,0483444
2850,2742;0,0487765
2851,2383;0,0490675
2852,2026;0,0492208
2853,1667;0,0492539
2854,1311;0,0491926
2855,0952;0,0490647
2856,0596;0,0488954
2857,0237;0,0487055
2857,9880;0,0485124
2858,9521;0,0483323
2859,9165;0,0481799
2860,8806;0,0480676
2861,8450;0,0480031
2862,8091;0,0479892
2863,7734;0,0480248
2864,7375;0,048107
2865,7019;0,0482317
2866,6660;0,048392
2867,6304;0,0485762
2868,5945;0,0487668
2869,5588;0,0489434
2870,5229;0,0490885
2871,4873;0,0491934
2872,4514;0,0492613
2873,4158;0,0493049
2874,3799;0,0493404
2875,3442;0,0493813
2876,3083;0,0494344
2877,2727;0,0495003
2878,2368;0,0495772
2879,2012;0,0496641
2880,1653;0,0497627
2881,1296;0,0498762
2882,0938;0,0500072
2883,0581;0,0501555
2884,0222;0,0503173
2884,9866;0,0504871
2885,9507;0,0506593
2886,9150;0,0508306
2887,8792;0,0510007
2888,8435;0,0511716
2889,8076;0,0513463
2890,7720;0,0515265
2891,7361;0,0517112
2892,7004;0,0518972
2893,6646;0,0520808
2894,6289;0,0522604
2895,5930;0,0524373
2896,5574;0,0526153
2897,5215;0,0527973
2898,4858;0,0529823
2899,4500;0,0531645
2900,4143;0,0533358
2901,3784;0,0534913
2902,3428;0,0536335
2903,3069;0,0537726
2904,2712;0,0539227
2905,2354;0,0540957
2906,1997;0,0542972
2907,1638;0,0545273
2908,1282;0,0547849
2909,0923;0,0550724
2910,0566;0,0553959
2911,0208;0,0557611
2911,9851;0,0561665
2912,9492;0,0565995
2913,9136;0,0570379
2914,8777;0,0574555
2915,8420;0,0578299
2916,8062;0,0581459
2917,7705;0,0583959
2918,7346;0,0585758
2919,6990;0,0586821
2920,6631;0,0587106
2921,6274;0,0586581
2922,5916;0,0585241
2923,5559;0,0583113
2924,5200;0,0580256
2925,4844;0,0576745
2926,4485;0,0572669
2927,4128;0,0568137
2928,3770;0,0563272
2929,3413;0,0558204
2930,3054;0,0553043
2931,2698;0,0547861
2932,2339;0,0542684
2933,1982;0,0537511
2934,1624;0,0532327
2935,1267;0,0527129
2936,0908;0,0521922
2937,0552;0,051672
2938,0193;0,0511538
2938,9836;0,0506394
2939,9478;0,0501308
2940,9121;0,0496306
2941,8762;0,0491416
2942,8406;0,0486661
2943,8047;0,048207
2944,7690;0,0477677
2945,7332;0,0473536
2946,6975;0,0469709
2947,6616;0,0466251
2948,6260;0,046318
2949,5901;0,0460464
2950,5544;0,0458019
2951,5186;0,0455734
2952,4829;0,0453501
2953,4470;0,045124
2954,4114;0,0448908
2955,3755;0,0446496
2956,3398;0,0444015
2957,3040;0,044148
2958,2683;0,0438899
2959,2324;0,0436268
2960,1968;0,0433572
2961,1609;0,0430796
2962,1252;0,0427927
2963,0894;0,042496
2964,0537;0,0421899
2965,0178;0,0418752
2965,9822;0,0415534
2966,9463;0,0412265
2967,9106;0,0408973
2968,8748;0,0405691
2969,8391;0,0402447
2970,8032;0,0399265
2971,7676;0,0396155
2972,7317;0,0393127
2973,6960;0,0390193
2974,6602;0,0387376
2975,6245;0,0384699
2976,5886;0,0382182
2977,5530;0,0379829
2978,5171;0,0377634
2979,4814;0,0375587
2980,4456;0,0373687
2981,4099;0,0371945
2982,3740;0,0370379
2983,3384;0,0369
2984,3025;0,0367803
2985,2668;0,0366758
2986,2310;0,0365817
2987,1953;0,0364923
2988,1594;0,0364035
2989,1238;0,0363138
2990,0879;0,0362253
2991,0522;0,0361429
2992,0164;0,0360727
2992,9807;0,0360198
2993,9448;0,0359871
2994,9092;0,0359744
2995,8733;0,0359792
2996,8376;0,035998
2997,8018;0,0360271
2998,7661;0,0360638
2999,7302;0,0361057
3000,6946;0,0361506
3001,6587;0,0361966
3002,6230;0,0362409
3003,5872;0,0362815
3004,5515;0,0363167
3005,5156;0,0363464
3006,4800;0,0363718
3007,4441;0,0363952
3008,4084;0,0364187
3009,3726;0,0364435
3010,3369;0,0364698
3011,3010;0,0364972
3012,2654;0,0365255
3013,2295;0,0365556
3014,1938;0,0365898
3015,1580;0,0366315
3016,1223;0,0366842
3017,0864;0,0367501
3018,0508;0,0368289
3019,0149;0,0369175
3019,9792;0,03701
3020,9434;0,0371004
3021,9077;0,0371851
3022,8718;0,0372646
3023,8362;0,0373436
3024,8003;0,0374289
3025,7646;0,0375252
3026,7288;0,0376326
3027,6931;0,0377458
3028,6572;0,0378571
3029,6216;0,0379594
3030,5857;0,0380509
3031,5500;0,0381354
3032,5142;0,0382214
3033,4785;0,0383181
3034,4426;0,0384308
3035,4070;0,0385592
3036,3711;0,0386972
3037,3354;0,0388359
3038,2996;0,0389675
3039,2639;0,0390889
3040,2280;0,0392036
3041,1924;0,0393194
3042,1565;0,0394445
3043,1208;0,0395832
3044,0850;0,0397334
3045,0493;0,0398876
3046,0134;0,0400376
3046,9778;0,0401787
3047,9419;0,0403126
3048,9063;0,0404455
3049,8704;0,0405847
3050,8347;0,0407344
3051,7988;0,0408937
3052,7632;0,0410578
3053,7273;0,0412209
3054,6917;0,0413785
3055,6558;0,0415296
3056,6201;0,0416764
3057,5842;0,0418229
3058,5486;0,0419744
3059,5127;0,0421346
3060,4771;0,0423046
3061,4412;0,0424813
3062,4055;0,042658
3063,3696;0,0428262
3064,3340;0,0429795
3065,2981;0,0431169
3066,2625;0,0432432
3067,2266;0,0433674
3068,1909;0,0434987
3069,1550;0,0436432
3070,1194;0,0438024
3071,0835;0,0439738
3072,0479;0,0441516
3073,0120;0,0443286
3073,9763;0,0444975
3074,9404;0,044653
3075,9048;0,0447941
3076,8689;0,0449244
3077,8333;0,045051
3078,7974;0,0451812
3079,7617;0,0453191
3080,7258;0,0454647
3081,6902;0,0456155
3082,6543;0,0457688
3083,6187;0,0459236
3084,5828;0,0460793
3085,5471;0,0462348
3086,5112;0,0463878
3087,4756;0,0465365
3088,4397;0,0466818
3089,4041;0,0468285
3090,3682;0,0469827
3091,3325;0,0471487
3092,2966;0,0473258
3093,2610;0,0475079
3094,2251;0,0476865
3095,1895;0,0478542
3096,1536;0,048008
3097,1179;0,0481502
3098,0820;0,048287
3099,0464;0,0484262
3100,0105;0,0485758
3100,9749;0,0487408
3101,9390;0,0489223
3102,9033;0,0491163
3103,8674;0,049315
3104,8318;0,0495099
3105,7959;0,049695
3106,7603;0,0498696
3107,7244;0,0500377
3108,6887;0,0502061
3109,6528;0,0503812
3110,6172;0,0505659
3111,5813;0,050759
3112,5457;0,0509564
3113,5098;0,0511532
3114,4741;0,0513455
3115,4382;0,0515314
3116,4026;0,0517109
3117,3667;0,051886
3118,3311;0,0520601
3119,2952;0,0522377
3120,2595;0,052423
3121,2236;0,0526185
3122,1880;0,0528233
3123,1521;0,0530328
3124,1165;0,0532405
3125,0806;0,0534418
3126,0449;0,0536358
3127,0090;0,0538262
3127,9734;0,0540179
3128,9375;0,054214
3129,9019;0,054414
3130,8660;0,0546155
3131,8303;0,054817
3132,7944;0,0550206
3133,7588;0,055231
3134,7229;0,0554519
3135,6873;0,0556827
3136,6514;0,055918
3137,6157;0,0561503
3138,5798;0,0563743
3139,5442;0,0565887
3140,5083;0,0567969
3141,4727;0,0570036
3142,4368;0,0572125
3143,4011;0,0574257
3144,3652;0,0576441
3145,3296;0,057868
3146,2937;0,0580967
3147,2581;0,0583281
3148,2222;0,0585583
3149,1865;0,0587832
3150,1506;0,0590014
3151,1150;0,0592156
3152,0791;0,0594318
3153,0435;0,0596562
3154,0076;0,0598911
3154,9719;0,0601341
3155,9360;0,0603797
3156,9004;0,0606236
3157,8645;0,0608653
3158,8289;0,0611078
3159,7930;0,0613541
3160,7573;0,0616037
3161,7214;0,0618515
3162,6858;0,0620913
3163,6499;0,0623198
3164,6143;0,06254
3165,5784;0,0627596
3166,5427;0,0629865
3167,5068;0,0632242
3168,4712;0,0634699
3169,4353;0,0636874
3170,3997;0,0639323
3171,3638;0,0641731
3172,3281;0,0644119
3173,2922;0,0646511
3174,2566;0,0648912
3175,2207;0,0651305
3176,1851;0,0653672
3177,1492;0,0656019
3178,1135;0,0658379
3179,0776;0,0660796
3180,0420;0,0663289
3181,0061;0,0665836
3181,9705;0,0668383
3182,9346;0,0670868
3183,8989;0,0673261
3184,8630;0,0675575
3185,8274;0,0677858
3186,7915;0,0680155
3187,7559;0,0682485
3188,7200;0,0684828
3189,6843;0,0687143
3190,6484;0,0689398
3191,6128;0,0691584
3192,5769;0,0693729
3193,5413;0,0695873
3194,5054;0,0698056
3195,4697;0,0700298
3196,4338;0,0702594
3197,3982;0,0704916
3198,3623;0,0707228
3199,3267;0,0709495
3200,2908;0,0711693
3201,2551;0,071382
3202,2192;0,0715895
3203,1836;0,0717948
3204,1477;0,0720016
3205,1121;0,072213
3206,0762;0,0724311
3207,0405;0,072656
3208,0046;0,0728859
3208,9690;0,0731172
3209,9331;0,0733457
3210,8975;0,0735688
3211,8616;0,0737867
3212,8259;0,0740027
3213,7900;0,0742204
3214,7544;0,0744406
3215,7185;0,0746601
3216,6829;0,074873
3217,6470;0,0750757
3218,6113;0,0752703
3219,5754;0,0754651
3220,5398;0,0756699
3221,5039;0,0758902
3222,4683;0,0761227
3223,4324;0,0763574
3224,3967;0,0765835
3225,3608;0,0767967
3226,3252;0,0770017
3227,2893;0,0772092
3228,2537;0,0774284
3229,2178;0,0776616
3230,1821;0,0779023
3231,1462;0,0781397
3232,1106;0,0783649
3233,0747;0,078575
3234,0391;0,0787736
3235,0032;0,0789675
3235,9675;0,0791636
3236,9316;0,079367
3237,8960;0,0795816
3238,8601;0,0798097
3239,8245;0,0800514
3240,7886;0,0803032
3241,7529;0,080558
3242,7170;0,0808078
3243,6814;0,0810476
3244,6455;0,0812785
3245,6099;0,0815078
3246,5740;0,0817446
3247,5383;0,0819942
3248,5024;0,0822551
3249,4668;0,0825199
3250,4309;0,0827796
3251,3953;0,0830283
3252,3594;0,0832665
3253,3237;0,0835005
3254,2878;0,0837398
3255,2522;0,0839919
3256,2163;0,0842597
3257,1807;0,0845406
3258,1448;0,0848281
3259,1091;0,0851152
3260,0732;0,0853965
3261,0376;0,0856697
3262,0017;0,0859345
3262,9661;0,0861912
3263,9302;0,0864399
3264,8945;0,0866799
3265,8586;0,0869106
3266,8230;0,0871318
3267,7871;0,0873439
3268,7515;0,0875464
3269,7156;0,0877379
3270,6799;0,0879153
3271,6440;0,088075
3272,6084;0,0882144
3273,5725;0,0883335
3274,5369;0,0884362
3275,5010;0,0885293
3276,4653;0,0886208
3277,4294;0,0887168
3278,3938;0,0888197
3279,3579;0,0889272
3280,3223;0,0890337
3281,2864;0,0891338
3282,2507;0,0892246
3283,2148;0,089307
3284,1792;0,0893845
3285,1433;0,0894601
3286,1077;0,0895331
3287,0718;0,0895996
3288,0361;0,089654
3289,0002;0,0896931
3289,9646;0,0897178
3290,9287;0,0897333
3291,8931;0,0897455
3292,8572;0,0897582
3293,8215;0,0897717
3294,7856;0,0897836
3295,7500;0,0897923
3296,7141;0,089798
3297,6785;0,0898032
3298,6426;0,0898101
3299,6069;0,0898185
3300,5710;0,089826
3301,5354;0,0898293
3302,4995;0,0898268
3303,4639;0,0898189
3304,4280;0,0898079
3305,3923;0,0897959
3306,3564;0,0897838
3307,3208;0,0897715
3308,2849;0,0897595
3309,2493;0,0897501
3310,2134;0,0897479
3311,1777;0,0897589
3312,1418;0,0897882
3313,1062;0,0898376
3314,0703;0,0899053
3315,0347;0,0899863
3315,9988;0,0900755
3316,9631;0,0901696
3317,9272;0,0902684
3318,8916;0,0903731
3319,8557;0,090484
3320,8201;0,0905986
3321,7842;0,0907129
3322,7485;0,090824
3323,7126;0,0909326
3324,6770;0,0910427
3325,6411;0,0911583
3326,6055;0,0912795
3327,5696;0,091401
3328,5339;0,0915153
3329,4980;0,0916169
3330,4624;0,0917042
3331,4265;0,0917783
3332,3909;0,0918393
3333,3550;0,091883
3334,3193;0,0919021
3335,2834;0,0918903
3336,2478;0,0918464
3337,2119;0,0917754
3338,1763;0,0916846
3339,1404;0,0915784
3340,1047;0,0914569
3341,0688;0,0913167
3342,0332;0,091156
3342,9973;0,0909772
3343,9617;0,0907872
3344,9258;0,0905937
3345,8901;0,0904021
3346,8542;0,0902134
3347,8186;0,0900248
3348,7827;0,089831
3349,7471;0,089626
3350,7112;0,0894045
3351,6755;0,0891638
3352,6396;0,0889059
3353,6040;0,0886385
3354,5681;0,0883736
3355,5325;0,0881227
3356,4966;0,0878927
3357,4609;0,0876828
3358,4250;0,0874865
3359,3894;0,0872958
3360,3535;0,0871049
3361,3179;0,086912
3362,2820;0,0867175
3363,2463;0,0865211
3364,2104;0,0863217
3365,1748;0,0861169
3366,1389;0,0859052
3367,1033;0,0856855
3368,0674;0,0854577
3369,0317;0,0852219
3369,9958;0,08498
3370,9602;0,0847371
3371,9243;0,0845008
3372,8887;0,0842784
3373,8528;0,0840727
3374,8171;0,0838792
3375,7813;0,0836883
3376,7456;0,0834902
3377,7097;0,08328
3378,6741;0,0830588
3379,6382;0,0828306
3380,6025;0,0825976
3381,5667;0,0823593
3382,5310;0,0821164
3383,4951;0,0818752
3384,4595;0,0816494
3385,4236;0,0814538
3386,3879;0,0812947
3387,3521;0,0811635
3388,3164;0,0810389
3389,2805;0,0808969
3390,2449;0,0807232
3391,2090;0,0805197
3392,1733;0,0803015
3393,1375;0,0800862
3394,1018;0,0798843
3395,0659;0,0796952
3396,0303;0,0795112
3396,9944;0,079325
3397,9587;0,0791332
3398,9229;0,0789354
3399,8872;0,0787313
3400,8513;0,0785188
3401,8157;0,0782954
3402,7798;0,0780613
3403,7441;0,0778204
3404,7083;0,0775784
3405,6726;0,0773403
3406,6367;0,0771076
3407,6011;0,0768777
3408,5652;0,0766452
3409,5295;0,0764037
3410,4937;0,0761491
3411,4580;0,0758823
3412,4221;0,0756114
3413,3865;0,0753487
3414,3506;0,0751049
3415,3149;0,07488
3416,2791;0,0746606
3417,2434;0,074424
3418,2075;0,0741504
3419,1719;0,0738347
3420,1360;0,073492
3421,1003;0,0731501
3422,0645;0,0728345
3423,0288;0,072555
3423,9929;0,0723041
3424,9573;0,0720639
3425,9214;0,0718178
3426,8857;0,0715566
3427,8499;0,0712802
3428,8142;0,0709935
3429,7783;0,0707016
3430,7427;0,0704068
3431,7068;0,0701092
3432,6711;0,0698093
3433,6353;0,0695104
3434,5996;0,0692183
3435,5637;0,0689376
3436,5281;0,0686682
3437,4922;0,0684037
3438,4565;0,0681355
3439,4207;0,0678584
3440,3850;0,0675746
3441,3491;0,0672905
3442,3135;0,0670091
3443,2776;0,0667235
3444,2419;0,0664186
3445,2061;0,0660822
3446,1704;0,0657172
3447,1345;0,0653454
3448,0989;0,0649961
3449,0630;0,0646874
3450,0273;0,0644157
3450,9915;0,0641598
3451,9558;0,0638963
3452,9199;0,0636129
3453,8843;0,0633131
3454,8484;0,06301
3455,8127;0,0627156
3456,7769;0,0624322
3457,7412;0,0621533
3458,7053;0,0618688
3459,6697;0,0615722
3460,6338;0,0612632
3461,5981;0,060946
3462,5623;0,0606254
3463,5266;0,0603036
3464,4907;0,0599799
3465,4551;0,0596529
3466,4192;0,0593241
3467,3835;0,0589993
3468,3477;0,0586863
3469,3120;0,0583891
3470,2761;0,0581033
3471,2405;0,057817
3472,2046;0,0575185
3473,1689;0,057205
3474,1331;0,0568872
3475,0974;0,056583
3476,0615;0,0563036
3477,0259;0,0560437
3477,9900;0,0557827
3478,9543;0,0554978
3479,9185;0,0551803
3480,8828;0,0548435
3481,8469;0,0545138
3482,8113;0,0542123
3483,7754;0,0539391
3484,7397;0,0536744
3485,7039;0,0533934
3486,6682;0,0530839
3487,6323;0,0527544
3488,5967;0,0524286
3489,5608;0,052129
3490,5251;0,0518616
3491,4893;0,0516127
3492,4536;0,051358
3493,4177;0,0510787
3494,3821;0,0507755
3495,3462;0,0504707
3496,3105;0,0501949
3497,2747;0,0499657
3498,2390;0,0497716
3499,2031;0,049574
3500,1675;0,0493262
3501,1316;0,0490004
3502,0959;0,0486094
3503,0601;0,0482039
3504,0244;0,0478416
3504,9885;0,0475497
3505,9529;0,0473111
3506,9170;0,0470819
3507,8813;0,0468207
3508,8455;0,0465124
3509,8098;0,0461734
3510,7739;0,0458377
3511,7383;0,0455323
3512,7024;0,0452631
3513,6667;0,0450187
3514,6309;0,044785
3515,5952;0,0445559
3516,5593;0,044335
3517,5237;0,0441277
3518,4878;0,0439327
3519,4521;0,0437392
3520,4163;0,0435318
3521,3806;0,0432988
3522,3447;0,0430372
3523,3091;0,0427523
3524,2732;0,0424495
3525,2375;0,0421297
3526,2017;0,0417901
3527,1660;0,0414348
3528,1301;0,0410814
3529,0945;0,0407576
3530,0586;0,0404861
3531,0229;0,040268
3531,9871;0,0400802
3532,9514;0,0398863
3533,9155;0,0396544
3534,8799;0,0393746
3535,8440;0,039066
3536,8083;0,0387698
3537,7725;0,0385282
3538,7368;0,0383616
3539,7009;0,0382586
3540,6653;0,0381792
3541,6294;0,0380675
3542,5938;0,037869
3543,5579;0,0375537
3544,5222;0,0371396
3545,4863;0,0366943
3546,4507;0,0363007
3547,4148;0,0360043
3548,3792;0,03579
3549,3433;0,0356011
3550,3076;0,0353781
3551,2717;0,0350937
3552,2361;0,0347688
3553,2002;0,034458
3554,1646;0,0342107
3555,1287;0,0340378
3556,0930;0,0339094
3557,0571;0,033781
3558,0215;0,0336257
3558,9856;0,0334528
3559,9500;0,0333012
3560,9141;0,0332079
3561,8784;0,0331717
3562,8425;0,0331375
3563,8069;0,033006
3564,7710;0,0326708
3565,7354;0,0320907
3566,6995;0,0313654
3567,6638;0,0307052
3568,6279;0,0302707
3569,5923;0,0300691
3570,5564;0,0300025
3571,5208;0,0299615
3572,4849;0,0298772
3573,4492;0,0297317
3574,4133;0,0295439
3575,3777;0,029343
3576,3418;0,0291434
3577,3062;0,0289417
3578,2703;0,0287363
3579,2346;0,028547
3580,1987;0,0284126
3581,1631;0,0283638
3582,1272;0,0283904
3583,0916;0,0284299
3584,0557;0,0283804
3585,0200;0,0281395
3585,9841;0,0276743
3586,9485;0,0270907
3587,9126;0,0266004
3588,8770;0,0263572
3589,8411;0,0263494
3590,8054;0,0264486
3591,7695;0,0265114
3592,7339;0,0264442
3593,6980;0,0262321
3594,6624;0,0259359
3595,6265;0,0256434
3596,5908;0,0254027
3597,5549;0,0251979
3598,5193;0,0249854
3599,4834;0,0247482
3600,4478;0,0245194
3601,4119;0,0243548
3602,3762;0,0242798
3603,3403;0,0242628
3604,3047;0,0242312
3605,2688;0,0241093
3606,2332;0,0238566
3607,1973;0,0234919
3608,1616;0,0230856
3609,1257;0,0227146
3610,0901;0,022418
3611,0542;0,0221968
3612,0186;0,0220411
3612,9827;0,0219469
3613,9470;0,0219061
3614,9111;0,0218868
3615,8755;0,0218276
3616,8396;0,0216606
3617,8040;0,0213565
3618,7681;0,0209724
3619,7324;0,0206474
3620,6965;0,0205153
3621,6609;0,0206123
3622,6250;0,0208732
3623,5894;0,0211842
3624,5535;0,0214221
3625,5178;0,0214619
3626,4819;0,021188
3627,4463;0,0205647
3628,4104;0,0197514
3629,3748;0,0190619
3630,3389;0,018693
3631,3032;0,0185921
3632,2673;0,0185921
3633,2317;0,0185601
3634,1958;0,0184448
3635,1602;0,0182631
3636,1243;0,0180614
3637,0886;0,0178771
3638,0527;0,0177213
3639,0171;0,0175929
3639,9812;0,017502
3640,9456;0,0174771
3641,9097;0,0175476
3642,8740;0,0177155
3643,8381;0,0179385
3644,8025;0,018126
3645,7666;0,0181391
3646,7310;0,0178068
3647,6951;0,017033
3648,6594;0,016011
3649,6235;0,0152042
3650,5879;0,0148978
3651,5520;0,0149885
3652,5164;0,015216
3653,4805;0,0153669
3654,4448;0,0153303
3655,4089;0,015107
3656,3733;0,014801
3657,3374;0,0145522
3658,3018;0,0144367
3659,2659;0,014432
3660,2302;0,014471
3661,1943;0,0145116
3662,1587;0,0145633
3663,1228;0,0146622
3664,0872;0,0148228
3665,0513;0,0150078
3666,0156;0,0151375
3666,9797;0,0151305
3667,9441;0,0149627
3668,9082;0,0147184
3669,8726;0,0145555
3670,8367;0,0145644
3671,8010;0,0146767
3672,7651;0,0147209
3673,7295;0,0145377
3674,6936;0,0140926
3675,6580;0,0135475
3676,6221;0,0131573
3677,5864;0,0130417
3678,5505;0,0131317
3679,5149;0,0133047
3680,4790;0,0134905
3681,4434;0,0136859
3682,4075;0,0139167
3683,3718;0,0141924
3684,3359;0,0144805
3685,3003;0,0147097
3686,2644;0,0147917
3687,2288;0,014658
3688,1929;0,0143208
3689,1572;0,0139179
3690,1213;0,0136394
3691,0857;0,0135744
3692,0498;0,0136784
3693,0142;0,0138626
3693,9783;0,0140644
3694,9426;0,0142576
3695,9067;0,0144331
3696,8711;0,014578
3697,8352;0,014667
3698,7996;0,01467
3699,7637;0,0145744
3700,7280;0,0144112
3701,6921;0,014259
3702,6565;0,0142082
3703,6206;0,0143046
3704,5850;0,0145279
3705,5491;0,0148106
3706,5134;0,0150635
3707,4775;0,0151853
3708,4419;0,0150699
3709,4060;0,0146488
3710,3704;0,0139857
3711,3345;0,0133178
3712,2988;0,0129067
3713,2629;0,0128448
3714,2273;0,0130528
3715,1914;0,0133961
3716,1558;0,0137642
3717,1199;0,0140928
3718,0842;0,0143601
3719,0483;0,0145739
3720,0127;0,0147527
3720,9768;0,0149033
3721,9412;0,0150104
3722,9053;0,0150505
3723,8696;0,0150219
3724,8337;0,0149638
3725,7981;0,0149417
3726,7622;0,0150059
3727,7266;0,0151626
3728,6907;0,0153781
3729,6550;0,0156001
3730,6191;0,01577
3731,5835;0,0158198
3732,5476;0,0156709
3733,5120;0,0152679
3734,4761;0,0146669
3735,4404;0,014079
3736,4045;0,01374
3737,3689;0,0137326
3738,3330;0,0139705
3739,2974;0,0142952
3740,2615;0,0145475
3741,2258;0,0145965
3742,1899;0,0143724
3743,1543;0,0139349
3744,1184;0,0135119
3745,0828;0,0133542
3746,0469;0,0135018
3747,0112;0,01377
3747,9753;0,0139071
3748,9397;0,0137256
3749,9038;0,0132147
3750,8682;0,012621
3751,8323;0,0122894
3752,7966;0,0123468
3753,7607;0,0126582
3754,7251;0,0130129
3755,6892;0,0132506
3756,6536;0,0132929
3757,6177;0,0131543
3758,5820;0,0129382
3759,5461;0,0127806
3760,5105;0,0127623
3761,4746;0,0128737
3762,4390;0,0130494
3763,4031;0,0132173
3764,3674;0,0133253
3765,3315;0,0133466
3766,2959;0,0132761
3767,2600;0,0131241
3768,2244;0,0129168
3769,1885;0,0127012
3770,1528;0,012543
3771,1169;0,012501
3772,0813;0,0125947
3773,0454;0,0127921
3774,0098;0,0130262
3774,9739;0,0132211
3775,9382;0,0133149
3776,9023;0,0132807
3777,8667;0,0131444
3778,8308;0,0129807
3779,7952;0,0128683
3780,7593;0,0128399
3781,7236;0,012872
3782,6877;0,0129158
3783,6521;0,0129311
3784,6162;0,0129035
3785,5806;0,0128457
3786,5447;0,0127866
3787,5090;0,0127571
3788,4731;0,0127789
3789,4375;0,0128579
3790,4016;0,0129833
3791,3660;0,0131321
3792,3301;0,0132793
3793,2944;0,0134104
3794,2585;0,0135278
3795,2229;0,0136432
3796,1870;0,0137565
3797,1514;0,0138366
3798,1155;0,0138265
3799,0798;0,0136789
3800,0439;0,0134095
3801,0083;0,0131214
3801,9724;0,012941
3802,9368;0,0129055
3803,9009;0,0129346
3804,8652;0,0129073
3805,8293;0,0127613
3806,7937;0,0125523
3807,7578;0,0124269
3808,7222;0,0125047
3809,6863;0,0127825
3810,6506;0,0131556
3811,6147;0,0134959
3812,5791;0,0137094
3813,5432;0,013767
3814,5076;0,013719
3815,4717;0,0136651
3816,4360;0,0136698
3817,4001;0,0136975
3818,3645;0,0136441
3819,3286;0,0134334
3820,2930;0,0131038
3821,2571;0,0128041
3822,2214;0,0126745
3823,1855;0,0127349
3824,1499;0,0129032
3825,1140;0,0130816
3826,0784;0,0132134
3827,0425;0,0132921
3828,0068;0,0133434
3828,9709;0,0133987
3829,9353;0,0134767
3830,8994;0,0135808
3831,8638;0,0137061
3832,8279;0,0138412
3833,7922;0,0139633
3834,7563;0,0140337
3835,7207;0,0140057
3836,6848;0,0138515
3837,6492;0,0135942
3838,6133;0,0133099
3839,5776;0,0130776
3840,5417;0,0129256
3841,5061;0,0128341
3842,4702;0,0127805
3843,4346;0,0127753
3844,3987;0,0128614
3845,3630;0,0130817
3846,3271;0,0134444
3847,2915;0,0139097
3848,2556;0,0143972
3849,2200;0,0147916
3850,1841;0,0149369
3851,1484;0,0146508
3852,1125;0,0138541
3853,0769;0,0128189
3854,0410;0,012089
3855,0054;0,011937
3855,9695;0,012218
3856,9338;0,0126797
3857,8979;0,0131466
3858,8623;0,0135242
3859,8264;0,0137651
3860,7908;0,0138532
3861,7549;0,0138106
3862,7192;0,0137071
3863,6833;0,0136346
3864,6477;0,0136509
3865,6118;0,0137447
3866,5762;0,0138535
3867,5403;0,0139042
3868,5046;0,0138456
3869,4688;0,0136702
3870,4331;0,0134223
3871,3972;0,0131822
3872,3616;0,0130281
3873,3257;0,0130014
3874,2900;0,0130967
3875,2542;0,0132723
3876,2185;0,0134688
3877,1826;0,0136289
3878,1470;0,0137169
3879,1111;0,0137314
3880,0754;0,0137007
3881,0396;0,0136538
3882,0039;0,0135909
3882,9680;0,0134904
3883,9324;0,0133503
3884,8965;0,0132175
3885,8608;0,0131636
3886,8250;0,0132212
3887,7893;0,013346
3888,7534;0,0134419
3889,7178;0,0134249
3890,6819;0,0132886
3891,6462;0,0131293
3892,6104;0,0130832
3893,5747;0,0132172
3894,5388;0,0134892
3895,5032;0,0138012
3896,4673;0,0140618
3897,4316;0,0142167
3898,3958;0,014253
3899,3601;0,0141863
3900,3242;0,0140349
3901,2886;0,0138049
3902,2527;0,0135072
3903,2170;0,0131894
3904,1812;0,0129321
3905,1455;0,0127998
3906,1096;0,0127998
3907,0740;0,0128898
3908,0381;0,0130158
3909,0024;0,0131423
3909,9666;0,0132612
3910,9309;0,0133822
3911,8950;0,0135133
3912,8594;0,0136437
3913,8235;0,0137409
3914,7878;0,0137666
3915,7520;0,0137033
3916,7163;0,0135779
3917,6804;0,0134566
3918,6448;0,0134031
3919,6089;0,0134346
3920,5732;0,0135154
3921,5374;0,0135863
3922,5017;0,0136034
3923,4658;0,0135659
3924,4302;0,0135159
3925,3943;0,0135077
3926,3586;0,0135655
3927,3228;0,0136664
3928,2871;0,0137549
3929,2512;0,0137744
3930,2156;0,0136971
3931,1797;0,0135426
3932,1440;0,0133703
3933,1082;0,0132454
3934,0725;0,0132046
3935,0366;0,0132483
3936,0010;0,0133536
3936,9651;0,0134882
3937,9294;0,013617
3938,8936;0,0137072
3939,8579;0,0137366
3940,8220;0,0137053
3941,7864;0,0136414
3942,7505;0,0135887
3943,7148;0,0135797
3944,6790;0,0136141
3945,6433;0,0136611
3946,6074;0,0136812
3947,5718;0,0136511
3948,5359;0,0135783
3949,5002;0,0134955
3950,4644;0,0134371
3951,4287;0,013418
3952,3928;0,01343
3953,3572;0,0134554
3954,3213;0,0134822
3955,2856;0,0135088
3956,2498;0,0135387
3957,2141;0,0135708
3958,1782;0,013595
3959,1426;0,0135976
3960,1067;0,0135712
3961,0710;0,0135226
3962,0352;0,0134718
3962,9995;0,0134414
3963,9636;0,0134446
3964,9280;0,0134794
3965,8921;0,0135317
3966,8564;0,013583
3967,8206;0,0136194
3968,7849;0,0136358
3969,7490;0,0136351
3970,7134;0,0136234
3971,6775;0,0136062
3972,6418;0,0135859
3973,6060;0,0135637
3974,5703;0,0135422
3975,5344;0,0135254
3976,4988;0,013517
3977,4629;0,0135174
3978,4272;0,0135227
3979,3914;0,0135263
3980,3557;0,0135235
3981,3198;0,0135147
3982,2842;0,0135064
3983,2483;0,013507
3984,2126;0,0135221
3985,1768;0,0135502
3986,1411;0,0135833
3987,1052;0,0136118
3988,0696;0,0136286
3989,0337;0,0136332
3989,9980;0,0136297
3990,9622;0,0136237
3991,9265;0,0136177
3992,8906;0,013611
3993,8550;0,0136016
3994,8191;0,0135893
3995,7834;0,0135774
3996,7476;0,0135705
3997,7119;0,0135716
3998,6760;0,0135802
3999,6404;0,0135931
4000,6045;0,0136185

##### Extended Information
[Comments]
Sample name
Comment
Username
Division
Organization;UNIVERSIDAD INDUSTRIAL DE SANTANDER

[Detailed Information]
Creation date;4/02/2025 2:09 p.m.

Data array type;Linear data array
Horizontal axis;Wavenumber [cm-1]
Vertical axis;Abs
Start;399,193 cm-1
End;4000,6 cm-1
Data interval;0,964233 cm-1
Data points;3736    

[Measurement Information]
Model name;FT/IR-4X1typeA
Serial No.;A035162111

Accessory;ATR PRO 4X
Accessory S/N;A021162126
Incident angle;45 deg

Measurement date;4/02/2025 2:09 p.m.

Light source;Standard
Detector;TGS
Accumulation;Auto (76)
Resolution;4 cm-1
Zero filling;On
Apodization;Cosine
Gain;Auto (8)
Aperture;Auto (7 mm)
Scan speed;Auto (2 mm/sec)
Filter;Auto (12800 Hz)

