TITLE;
DATA TYPE;INFRARED SPECTRUM
ORIGIN;JASCO
OWNER;
DATE;25/02/04
TIME;14:34:29
SPECTROMETER/DATA SYSTEM;
LOCALE;9226
RESOLUTION;
DELTAX;0,964233
XUNITS;1/CM
YUNITS;ABSORBANCE
FIRSTX;  399,1927
LASTX; 4000,6047
NPOINTS;    3736
FIRSTY;     0,14069
MAXY;     0,22092
MINY;     0,01239
XYDATA
399,1927;0,140695
400,1569;0,140641
401,1211;0,140664
402,0854;0,140788
403,0496;0,141025
404,0138;0,141355
404,9781;0,1417
405,9423;0,141926
406,9065;0,141905
407,8708;0,141619
408,8350;0,141216
409,7992;0,140975
410,7635;0,141166
411,7277;0,141892
412,6919;0,143009
413,6562;0,144224
414,6204;0,145281
415,5846;0,146081
416,5489;0,146711
417,5131;0,147401
418,4773;0,148364
419,4416;0,149542
420,4058;0,150597
421,3700;0,151247
422,3343;0,151463
423,2985;0,151391
424,2627;0,151227
425,2270;0,15114
426,1912;0,15122
427,1554;0,151447
428,1197;0,151721
429,0839;0,151927
430,0481;0,151993
431,0124;0,151916
431,9766;0,151754
432,9408;0,151585
433,9051;0,151463
434,8693;0,151389
435,8335;0,151314
436,7978;0,151163
437,7620;0,150879
438,7262;0,150451
439,6905;0,149926
440,6547;0,149397
441,6189;0,148973
442,5832;0,148722
443,5474;0,148615
444,5116;0,148513
445,4759;0,148236
446,4401;0,147661
447,4043;0,146785
448,3686;0,145719
449,3328;0,144651
450,2970;0,143773
451,2613;0,143219
452,2255;0,143015
453,1897;0,143084
454,1540;0,143285
455,1182;0,14348
456,0824;0,143576
457,0467;0,14355
458,0109;0,143446
458,9751;0,143321
459,9394;0,143193
460,9036;0,143024
461,8678;0,142762
462,8321;0,142383
463,7963;0,141919
464,7605;0,141446
465,7248;0,141054
466,6890;0,140794
467,6532;0,140656
468,6175;0,140583
469,5817;0,140522
470,5459;0,14046
471,5102;0,14044
472,4744;0,140531
473,4386;0,140767
474,4029;0,141112
475,3671;0,14147
476,3313;0,141748
477,2956;0,141896
478,2598;0,141937
479,2240;0,141951
480,1883;0,142042
481,1525;0,142284
482,1167;0,142688
483,0810;0,143203
484,0452;0,143752
485,0094;0,144284
485,9737;0,144802
486,9379;0,145338
487,9021;0,14591
488,8664;0,146481
489,8306;0,146972
490,7948;0,147302
491,7591;0,147453
492,7233;0,147506
493,6875;0,147604
494,6518;0,147872
495,6160;0,148346
496,5802;0,148964
497,5445;0,149601
498,5087;0,15014
499,4729;0,150513
500,4372;0,150721
501,4014;0,150832
502,3656;0,150944
503,3299;0,151152
504,2941;0,151507
505,2583;0,152003
506,2226;0,152588
507,1868;0,15317
508,1510;0,15366
509,1153;0,154006
510,0795;0,154225
511,0437;0,154396
512,0080;0,154617
512,9722;0,15496
513,9365;0,155436
514,9007;0,156008
515,8649;0,156612
516,8292;0,157195
517,7934;0,157728
518,7576;0,15821
519,7219;0,158641
520,6861;0,159017
521,6503;0,159328
522,6146;0,15957
523,5788;0,159751
524,5430;0,15989
525,5073;0,160004
526,4715;0,160104
527,4357;0,160188
528,4000;0,160243
529,3642;0,160266
530,3284;0,160263
531,2927;0,160249
532,2569;0,160237
533,2211;0,160232
534,1854;0,160219
535,1496;0,160179
536,1138;0,160096
537,0781;0,15998
538,0423;0,159859
539,0065;0,159766
539,9708;0,159722
540,9350;0,159727
541,8992;0,159769
542,8635;0,159838
543,8277;0,159941
544,7919;0,160097
545,7562;0,160326
546,7204;0,160631
547,6846;0,160996
548,6489;0,16139
549,6131;0,161778
550,5773;0,162136
551,5416;0,162452
552,5058;0,162728
553,4700;0,162985
554,4343;0,163252
555,3985;0,163562
556,3627;0,163925
557,3270;0,164312
558,2912;0,164645
559,2554;0,164821
560,2197;0,164746
561,1839;0,164376
562,1481;0,163739
563,1124;0,162933
564,0766;0,162088
565,0408;0,161324
566,0051;0,160716
566,9693;0,160286
567,9335;0,160006
568,8978;0,159826
569,8620;0,159697
570,8262;0,159587
571,7905;0,159489
572,7547;0,15941
573,7189;0,159361
574,6832;0,159344
575,6474;0,15935
576,6116;0,15936
577,5759;0,15935
578,5401;0,159307
579,5043;0,159226
580,4686;0,159116
581,4328;0,158988
582,3970;0,158856
583,3613;0,158733
584,3255;0,158635
585,2897;0,158577
586,2540;0,158571
587,2182;0,158611
588,1824;0,158673
589,1467;0,158721
590,1109;0,158722
591,0751;0,158658
592,0394;0,158539
593,0036;0,158385
593,9678;0,158216
594,9321;0,158029
595,8963;0,1578
596,8605;0,157504
597,8248;0,157124
598,7890;0,156669
599,7532;0,156172
600,7175;0,155673
601,6817;0,155207
602,6459;0,154794
603,6102;0,154439
604,5744;0,154137
605,5386;0,153872
606,5029;0,153611
607,4671;0,153309
608,4313;0,152915
609,3956;0,152401
610,3598;0,151784
611,3240;0,15114
612,2883;0,150575
613,2525;0,150179
614,2167;0,149967
615,1810;0,149854
616,1452;0,149672
617,1094;0,14924
618,0737;0,148466
619,0379;0,147393
620,0021;0,146177
620,9664;0,144994
621,9306;0,143962
622,8948;0,143111
623,8591;0,142398
624,8233;0,141718
625,7875;0,141057
626,7518;0,140388
627,7160;0,139726
628,6802;0,139102
629,6445;0,138548
630,6087;0,138077
631,5729;0,137681
632,5372;0,137337
633,5014;0,137018
634,4656;0,136704
635,4299;0,136387
636,3941;0,136068
637,3583;0,135751
638,3226;0,135431
639,2868;0,135101
640,2510;0,134751
641,2153;0,134384
642,1795;0,13402
643,1437;0,133692
644,1080;0,133433
645,0722;0,133266
646,0364;0,133182
647,0007;0,133148
647,9649;0,133115
648,9291;0,133041
649,8934;0,13291
650,8576;0,132742
651,8218;0,132583
652,7861;0,132487
653,7503;0,132487
654,7145;0,132584
655,6788;0,132747
656,6430;0,132924
657,6072;0,133077
658,5715;0,133188
659,5357;0,133254
660,4999;0,133254
661,4642;0,13313
662,4284;0,132794
663,3926;0,132161
664,3569;0,131215
665,3211;0,130093
666,2853;0,12914
667,2496;0,128734
668,2138;0,128808
669,1780;0,128822
670,1423;0,128537
671,1065;0,128048
672,0707;0,127348
673,0350;0,126369
673,9992;0,125131
674,9634;0,123749
675,9277;0,122356
676,8919;0,121031
677,8561;0,119788
678,8204;0,118613
679,7846;0,117505
680,7488;0,116485
681,7131;0,115574
682,6773;0,114763
683,6415;0,114027
684,6058;0,113335
685,5700;0,112682
686,5342;0,112078
687,4985;0,111538
688,4627;0,111067
689,4269;0,110642
690,3912;0,110232
691,3554;0,109807
692,3196;0,109351
693,2839;0,108868
694,2481;0,108385
695,2123;0,107935
696,1766;0,107546
697,1408;0,107216
698,1050;0,106914
699,0693;0,106595
700,0335;0,106224
700,9977;0,105794
701,9620;0,105327
702,9262;0,104854
703,8904;0,104385
704,8547;0,103922
705,8189;0,103453
706,7831;0,102967
707,7474;0,102465
708,7116;0,101956
709,6758;0,101451
710,6401;0,100946
711,6043;0,100432
712,5685;0,0998955
713,5328;0,0993396
714,4970;0,0987874
715,4612;0,0977175
716,4255;0,0973821
717,3897;0,0971405
718,3539;0,0969049
719,3182;0,0965464
720,2824;0,0959576
721,2466;0,0951149
722,2109;0,0940923
723,1751;0,0930157
724,1393;0,0919969
725,1036;0,0910951
726,0678;0,0903152
727,0320;0,0896309
727,9963;0,0890096
728,9605;0,0884272
729,9247;0,0878691
730,8890;0,0873251
731,8532;0,0867876
732,8174;0,0862547
733,7817;0,0857344
734,7459;0,0852429
735,7101;0,084796
736,6744;0,0843988
737,6386;0,0840413
738,6028;0,0837019
739,5671;0,0833575
740,5313;0,0829925
741,4955;0,0826031
742,4598;0,082194
743,4240;0,0817728
744,3882;0,0813454
745,3525;0,0809156
746,3167;0,0804862
747,2809;0,08006
748,2452;0,0796388
749,2094;0,0792221
750,1736;0,0788072
751,1379;0,0783932
752,1021;0,0779824
753,0663;0,077579
754,0306;0,0771838
754,9948;0,0767894
755,9590;0,0763819
756,9233;0,0759508
757,8875;0,0754991
758,8517;0,0750469
759,8160;0,0746234
760,7802;0,0742511
761,7444;0,073934
762,7087;0,0736566
763,6729;0,0733954
764,6371;0,0731337
765,6014;0,0728697
766,5656;0,072613
767,5298;0,0723739
768,4941;0,0721543
769,4583;0,0719454
770,4225;0,0717349
771,3868;0,0715141
772,3510;0,0712823
773,3152;0,071045
774,2795;0,0708079
775,2437;0,0705734
776,2079;0,07034
777,1722;0,0701049
778,1364;0,0698657
779,1006;0,069621
780,0649;0,069369
781,0291;0,069107
781,9933;0,068832
782,9576;0,0685428
783,9218;0,0682412
784,8860;0,0679325
785,8503;0,0676242
786,8145;0,0673247
787,7787;0,0670433
788,7430;0,0667892
789,7072;0,0665701
790,6714;0,0663894
791,6357;0,0662442
792,5999;0,0661251
793,5641;0,0660199
794,5284;0,0659173
795,4926;0,0658099
796,4568;0,0656946
797,4211;0,0655709
798,3853;0,0654393
799,3495;0,0653022
800,3138;0,0651656
801,2780;0,0650388
802,2422;0,064931
803,2065;0,0648462
804,1707;0,0647796
805,1349;0,0647204
806,0992;0,0646575
807,0634;0,0645865
808,0276;0,0645113
808,9919;0,0644397
809,9561;0,0643766
810,9203;0,0643201
811,8846;0,0642635
812,8488;0,064202
813,8130;0,0641373
814,7773;0,0640769
815,7415;0,0640275
816,7057;0,063988
817,6700;0,0639478
818,6342;0,0638938
819,5984;0,0638203
820,5627;0,0637365
821,5269;0,0636638
822,4911;0,0636251
823,4554;0,063632
824,4196;0,0636779
825,3839;0,0637413
826,3481;0,0637978
827,3123;0,0638309
828,2766;0,0638368
829,2408;0,0638199
830,2050;0,0637847
831,1693;0,0637298
832,1335;0,0636494
833,0977;0,0635386
834,0620;0,0633992
835,0262;0,063239
835,9904;0,0630675
836,9547;0,0628912
837,9189;0,0627127
838,8831;0,0625345
839,8474;0,0623628
840,8116;0,0622076
841,7758;0,0620784
842,7401;0,0619787
843,7043;0,0619045
844,6685;0,0618496
845,6328;0,0618117
846,5970;0,0617968
847,5612;0,0618144
848,5255;0,0618696
849,4897;0,0619544
850,4539;0,0620471
851,4182;0,0621196
852,3824;0,0621486
853,3466;0,0621245
854,3109;0,0620538
855,2751;0,0619531
856,2393;0,0618409
857,2036;0,0617311
858,1678;0,0616301
859,1320;0,061539
860,0963;0,0614568
861,0605;0,0613837
862,0247;0,061321
862,9890;0,0612709
863,9532;0,0612346
864,9174;0,0612126
865,8817;0,0612045
866,8459;0,0612107
867,8101;0,061233
868,7744;0,0612741
869,7386;0,0613362
870,7028;0,0614184
871,6671;0,0615158
872,6313;0,0616193
873,5955;0,0617193
874,5598;0,0618102
875,5240;0,0618931
876,4882;0,0619757
877,4525;0,0620686
878,4167;0,06218
879,3809;0,0623144
880,3452;0,0624747
881,3094;0,062667
882,2736;0,0629039
883,2379;0,0632024
884,2021;0,0635779
885,1663;0,0640372
886,1306;0,0645759
887,0948;0,065181
888,0590;0,0658378
889,0233;0,0665345
889,9875;0,0672625
890,9517;0,0680119
891,9160;0,0687656
892,8802;0,0694963
893,8444;0,0701678
894,8087;0,0707417
895,7729;0,0711843
896,7371;0,0714738
897,7014;0,0716023
898,6656;0,0715754
899,6298;0,0714082
900,5941;0,0711211
901,5583;0,0707369
902,5225;0,0702807
903,4868;0,0697801
904,4510;0,0692658
905,4152;0,0687696
906,3795;0,068322
907,3437;0,0679488
908,3079;0,067668
909,2722;0,0674883
910,2364;0,0674078
911,2007;0,0674141
912,1649;0,0674871
913,1292;0,0676045
914,0934;0,0677485
915,0576;0,0679119
916,0219;0,0680986
916,9861;0,0683189
917,9503;0,0685811
918,9146;0,0688852
919,8788;0,0692196
920,8430;0,0695646
921,8073;0,0698976
922,7715;0,0701991
923,7357;0,0704561
924,7000;0,0706628
925,6642;0,0708203
926,6284;0,070935
927,5927;0,0710166
928,5569;0,0710757
929,5211;0,071122
930,4854;0,0711626
931,4496;0,0712034
932,4138;0,0712507
933,3781;0,0713131
934,3423;0,0714022
935,3065;0,0715299
936,2708;0,0717046
937,2350;0,0719283
938,1992;0,0721971
939,1635;0,0725047
940,1277;0,0728471
941,0919;0,0732259
942,0562;0,0736471
943,0204;0,0741183
943,9846;0,0746455
944,9489;0,0752322
945,9131;0,0758803
946,8773;0,0765922
947,8416;0,0773697
948,8058;0,0782128
949,7700;0,0791181
950,7343;0,0800803
951,6985;0,0810951
952,6627;0,0821626
953,6270;0,083287
954,5912;0,0844734
955,5554;0,0857245
956,5197;0,087039
957,4839;0,0884138
958,4481;0,0898472
959,4124;0,0913398
960,3766;0,0928921
961,3408;0,0945001
962,3051;0,096153
963,2693;0,0978357
964,2335;0,0995346
965,1978;0,101244
966,1620;0,102971
967,1262;0,104732
968,0905;0,106552
969,0547;0,108459
970,0189;0,110482
970,9832;0,112649
971,9474;0,114987
972,9116;0,117522
973,8759;0,120271
974,8401;0,123248
975,8043;0,126455
976,7686;0,129887
977,7328;0,133528
978,6970;0,13734
979,6613;0,14126
980,6255;0,145193
981,5897;0,149015
982,5540;0,152598
983,5182;0,155832
984,4824;0,158656
985,4467;0,161064
986,4109;0,163099
987,3751;0,164825
988,3394;0,166303
989,3036;0,167575
990,2678;0,168663
991,2321;0,169581
992,1963;0,170346
993,1605;0,170988
994,1248;0,171547
995,0890;0,172065
996,0532;0,172581
997,0175;0,173118
997,9817;0,173686
998,9459;0,17428
999,9102;0,17489
1000,8744;0,175509
1001,8386;0,176141
1002,8029;0,176813
1003,7671;0,177563
1004,7313;0,178441
1005,6956;0,179486
1006,6598;0,180725
1007,6240;0,182168
1008,5883;0,183811
1009,5525;0,185638
1010,5167;0,187625
1011,4810;0,189736
1012,4452;0,191927
1013,4094;0,194144
1014,3737;0,196339
1015,3379;0,198474
1016,3021;0,200529
1017,2664;0,202497
1018,2306;0,204381
1019,1948;0,206182
1020,1591;0,207901
1021,1233;0,20954
1022,0875;0,211105
1023,0518;0,212605
1024,0160;0,214049
1024,9802;0,215436
1025,9445;0,216754
1026,9087;0,217977
1027,8729;0,219063
1028,8372;0,21996
1029,8014;0,220603
1030,7656;0,220921
1031,7299;0,220844
1032,6941;0,220319
1033,6583;0,219324
1034,6226;0,217886
1035,5868;0,216082
1036,5510;0,214032
1037,5153;0,211887
1038,4795;0,209799
1039,4437;0,207903
1040,4080;0,206294
1041,3722;0,205015
1042,3364;0,204054
1043,3007;0,203353
1044,2649;0,202826
1045,2291;0,20238
1046,1934;0,201934
1047,1576;0,201425
1048,1218;0,200812
1049,0861;0,200068
1050,0503;0,199169
1051,0145;0,198096
1051,9788;0,196839
1052,9430;0,195399
1053,9072;0,193791
1054,8715;0,192029
1055,8357;0,190113
1056,7999;0,188017
1057,7642;0,185688
1058,7284;0,183069
1059,6926;0,180129
1060,6569;0,176892
1061,6211;0,173446
1062,5853;0,16992
1063,5496;0,166457
1064,5138;0,16317
1065,4780;0,160127
1066,4423;0,157351
1067,4065;0,154829
1068,3707;0,152535
1069,3350;0,150438
1070,2992;0,148504
1071,2634;0,146697
1072,2277;0,144971
1073,1919;0,143279
1074,1561;0,141576
1075,1204;0,139828
1076,0846;0,138022
1077,0488;0,136166
1078,0131;0,134296
1078,9773;0,132465
1079,9415;0,130735
1080,9058;0,129158
1081,8700;0,127766
1082,8342;0,126562
1083,7985;0,125527
1084,7627;0,124632
1085,7269;0,123853
1086,6912;0,123177
1087,6554;0,122606
1088,6196;0,12215
1089,5839;0,121815
1090,5481;0,121603
1091,5123;0,121506
1092,4766;0,121512
1093,4408;0,121608
1094,4050;0,121785
1095,3693;0,122039
1096,3335;0,122373
1097,2977;0,122784
1098,2620;0,123265
1099,2262;0,123795
1100,1904;0,124339
1101,1547;0,124859
1102,1189;0,125312
1103,0831;0,125665
1104,0474;0,125896
1105,0116;0,126002
1105,9758;0,12599
1106,9401;0,125874
1107,9043;0,125662
1108,8685;0,125349
1109,8328;0,124912
1110,7970;0,124316
1111,7612;0,123533
1112,7255;0,122555
1113,6897;0,121415
1114,6539;0,120177
1115,6182;0,118928
1116,5824;0,117746
1117,5466;0,11668
1118,5109;0,115732
1119,4751;0,114862
1120,4393;0,114
1121,4036;0,113067
1122,3678;0,111994
1123,3320;0,110736
1124,2963;0,109272
1125,2605;0,10761
1126,2247;0,105772
1127,1890;0,103797
1128,1532;0,101728
1129,1174;0,099605
1130,0817;0,0974676
1131,0459;0,0953472
1132,0101;0,093272
1132,9744;0,0912702
1133,9386;0,089374
1134,9028;0,08762
1135,8671;0,0860454
1136,8313;0,0846819
1137,7955;0,0835487
1138,7598;0,0826498
1139,7240;0,0819741
1140,6882;0,0814992
1141,6525;0,0811959
1142,6167;0,081033
1143,5809;0,0809818
1144,5452;0,0810199
1145,5094;0,0811336
1146,4736;0,0813187
1147,4379;0,081578
1148,4021;0,081916
1149,3663;0,0823327
1150,3306;0,08282
1151,2948;0,0833596
1152,2590;0,0839248
1153,2233;0,0844832
1154,1875;0,0849994
1155,1517;0,085436
1156,1160;0,0857524
1157,0802;0,0859025
1158,0444;0,0858331
1159,0087;0,085485
1159,9729;0,0847977
1160,9371;0,0837206
1161,9014;0,082226
1162,8656;0,0803215
1163,8298;0,0780546
1164,7941;0,0755085
1165,7583;0,0727893
1166,7225;0,0700093
1167,6868;0,0672721
1168,6510;0,0646616
1169,6152;0,0622379
1170,5795;0,0600366
1171,5437;0,0580731
1172,5079;0,0563466
1173,4722;0,0548458
1174,4364;0,0535524
1175,4006;0,0524445
1176,3649;0,0514997
1177,3291;0,0506968
1178,2933;0,0500184
1179,2576;0,0494518
1180,2218;0,0489887
1181,1860;0,0486229
1182,1503;0,0483471
1183,1145;0,0481521
1184,0787;0,048027
1185,0430;0,0479623
1186,0072;0,0479529
1186,9714;0,0479997
1187,9357;0,0481082
1188,8999;0,0482856
1189,8641;0,0485372
1190,8284;0,0488653
1191,7926;0,0492695
1192,7568;0,0497483
1193,7211;0,0502994
1194,6853;0,0509194
1195,6495;0,0516016
1196,6138;0,0523351
1197,5780;0,0531055
1198,5422;0,0538976
1199,5065;0,0546292
1200,4707;0,0554354
1201,4349;0,056233
1202,3992;0,0570168
1203,3634;0,0577822
1204,3276;0,0585246
1205,2919;0,0592407
1206,2561;0,0599302
1207,2203;0,0605992
1208,1846;0,0612609
1209,1488;0,0619361
1210,1130;0,0626488
1211,0773;0,0634206
1212,0415;0,0642641
1213,0057;0,0651787
1213,9700;0,0661507
1214,9342;0,0671578
1215,8984;0,0681763
1216,8627;0,0691864
1217,8269;0,0701748
1218,7911;0,0711348
1219,7554;0,0720629
1220,7196;0,0729556
1221,6838;0,073807
1222,6481;0,0746093
1223,6123;0,0753551
1224,5765;0,0760403
1225,5408;0,0766651
1226,5050;0,077234
1227,4692;0,0777537
1228,4335;0,0782296
1229,3977;0,0786643
1230,3619;0,079057
1231,3262;0,0794042
1232,2904;0,0797018
1233,2546;0,079947
1234,2189;0,0801403
1235,1831;0,0802867
1236,1473;0,080395
1237,1116;0,0804754
1238,0758;0,0805364
1239,0400;0,080582
1240,0043;0,0806107
1240,9685;0,0806164
1241,9327;0,08059
1242,8970;0,0805222
1243,8612;0,0804048
1244,8254;0,080233
1245,7897;0,0800069
1246,7539;0,0797329
1247,7181;0,0794225
1248,6824;0,0790894
1249,6466;0,0787454
1250,6108;0,0783977
1251,5751;0,0780503
1252,5393;0,0777058
1253,5035;0,0773682
1254,4678;0,0770415
1255,4320;0,0767255
1256,3962;0,0764131
1257,3605;0,07609
1258,3247;0,0757396
1259,2889;0,0753503
1260,2532;0,0749189
1261,2174;0,0744505
1262,1816;0,0739524
1263,1459;0,0734297
1264,1101;0,0728821
1265,0743;0,0723063
1266,0386;0,0716975
1267,0028;0,0710513
1267,9670;0,0703642
1268,9313;0,0696343
1269,8955;0,0688632
1270,8597;0,068057
1271,8240;0,0672261
1272,7882;0,0663831
1273,7524;0,0655397
1274,7167;0,0647063
1275,6809;0,0638924
1276,6451;0,0631069
1277,6094;0,0623563
1278,5736;0,0616408
1279,5378;0,0609531
1280,5021;0,0602812
1281,4663;0,0596156
1282,4305;0,058956
1283,3948;0,0583131
1284,3590;0,0577037
1285,3232;0,0571435
1286,2875;0,0566416
1287,2517;0,0562002
1288,2159;0,0558175
1289,1802;0,0554926
1290,1444;0,0552268
1291,1086;0,0550233
1292,0729;0,0548854
1293,0371;0,0548159
1294,0013;0,0548182
1294,9656;0,0548965
1295,9298;0,0550547
1296,8940;0,0552948
1297,8583;0,0556139
1298,8225;0,0560047
1299,7867;0,0564569
1300,7510;0,0569601
1301,7152;0,0575082
1302,6794;0,0580992
1303,6437;0,058735
1304,6079;0,0594177
1305,5721;0,0601454
1306,5364;0,0609094
1307,5006;0,0616957
1308,4648;0,0624892
1309,4291;0,0632766
1310,3933;0,0640465
1311,3575;0,0647851
1312,3218;0,0654739
1313,2860;0,0660895
1314,2502;0,0666085
1315,2145;0,067012
1316,1787;0,0672872
1317,1429;0,0674278
1318,1072;0,0674363
1319,0714;0,0673275
1320,0356;0,0671291
1320,9999;0,0668762
1321,9641;0,0666019
1322,9283;0,0663302
1323,8926;0,0660754
1324,8568;0,0658454
1325,8210;0,0656451
1326,7853;0,0654768
1327,7495;0,0653384
1328,7137;0,0652215
1329,6780;0,0651104
1330,6422;0,0649858
1331,6064;0,0648309
1332,5707;0,0646369
1333,5349;0,0644045
1334,4991;0,064137
1335,4634;0,0638318
1336,4276;0,0634741
1337,3918;0,0630401
1338,3561;0,0625144
1339,3203;0,0619144
1340,2845;0,0612959
1341,2488;0,0607252
1342,2130;0,060243
1343,1772;0,0598548
1344,1415;0,0595468
1345,1057;0,0593049
1346,0699;0,0591256
1347,0342;0,0590151
1347,9984;0,0589848
1348,9626;0,059043
1349,9269;0,0591892
1350,8911;0,0594132
1351,8553;0,0596984
1352,8196;0,0600282
1353,7838;0,0603918
1354,7480;0,060787
1355,7123;0,0612167
1356,6765;0,0616841
1357,6407;0,0621881
1358,6050;0,0627233
1359,5692;0,0632794
1360,5334;0,0638372
1361,4977;0,0643647
1362,4619;0,0648289
1363,4261;0,0652189
1364,3904;0,0655511
1365,3546;0,0658493
1366,3188;0,0661256
1367,2831;0,066377
1368,2473;0,0665923
1369,2115;0,0667581
1370,1758;0,0668605
1371,1400;0,0668823
1372,1042;0,0668019
1373,0685;0,066598
1374,0327;0,0662665
1374,9969;0,0658311
1375,9612;0,065329
1376,9254;0,0647757
1377,8896;0,064151
1378,8539;0,0634236
1379,8181;0,0625903
1380,7823;0,0616956
1381,7466;0,0608111
1382,7108;0,0599877
1383,6750;0,0592243
1384,6393;0,0584776
1385,6035;0,0577043
1386,5677;0,0569132
1387,5320;0,056184
1388,4962;0,0556164
1389,4604;0,0552498
1390,4247;0,0550453
1391,3889;0,0549321
1392,3531;0,0548559
1393,3174;0,054796
1394,2816;0,0547572
1395,2458;0,0547522
1396,2101;0,0547882
1397,1743;0,054866
1398,1385;0,0549879
1399,1028;0,0551619
1400,0670;0,0553948
1401,0313;0,0556831
1401,9955;0,0560115
1402,9597;0,0563613
1403,9240;0,0567216
1404,8882;0,0570951
1405,8524;0,0574971
1406,8167;0,0579446
1407,7809;0,0584448
1408,7451;0,0589943
1409,7094;0,0595865
1410,6736;0,0602167
1411,6378;0,0608784
1412,6021;0,0615584
1413,5663;0,0622356
1414,5305;0,0628852
1415,4948;0,0634836
1416,4590;0,064005
1417,4232;0,0644163
1418,3875;0,0646935
1419,3517;0,0648586
1420,3159;0,0649654
1421,2802;0,0650299
1422,2444;0,0650078
1423,2086;0,0648415
1424,1729;0,0645098
1425,1371;0,0640365
1426,1013;0,0634567
1427,0656;0,062778
1428,0298;0,0619786
1428,9940;0,0610512
1429,9583;0,0600521
1430,9225;0,0590873
1431,8867;0,0582322
1432,8510;0,0574701
1433,8152;0,0567068
1434,7794;0,0558396
1435,7437;0,0548519
1436,7079;0,0538839
1437,6721;0,0531619
1438,6364;0,0528066
1439,6006;0,0527624
1440,5648;0,0529035
1441,5291;0,0531396
1442,4933;0,0534402
1443,4575;0,0538104
1444,4218;0,054256
1445,3860;0,0547639
1446,3502;0,0553036
1447,3145;0,0558425
1448,2787;0,0563624
1449,2429;0,0568635
1450,2072;0,0573495
1451,1714;0,0578092
1452,1356;0,0582131
1453,0999;0,0585258
1454,0641;0,058714
1455,0283;0,0587319
1455,9926;0,0585036
1456,9568;0,058015
1457,9210;0,0574913
1458,8853;0,0572207
1459,8495;0,0572206
1460,8137;0,0573079
1461,7780;0,0572872
1462,7422;0,0570083
1463,7064;0,0563784
1464,6707;0,0554162
1465,6349;0,0542908
1466,5991;0,0532081
1467,5634;0,052237
1468,5276;0,0512879
1469,4918;0,0501996
1470,4561;0,0488113
1471,4203;0,0470241
1472,3845;0,0449118
1473,3488;0,0427945
1474,3130;0,0410448
1475,2772;0,0397844
1476,2415;0,0388921
1477,2057;0,0382013
1478,1699;0,0376051
1479,1342;0,0370585
1480,0984;0,0365533
1481,0626;0,0361029
1482,0269;0,0357335
1482,9911;0,0354719
1483,9553;0,0353292
1484,9196;0,0352935
1485,8838;0,0353368
1486,8480;0,0354265
1487,8123;0,035533
1488,7765;0,0356474
1489,7407;0,0358089
1490,7050;0,0360839
1491,6692;0,036498
1492,6334;0,0370224
1493,5977;0,0376209
1494,5619;0,038285
1495,5261;0,0390326
1496,4904;0,0398791
1497,4546;0,0408089
1498,4188;0,0417823
1499,3831;0,0427565
1500,3473;0,0436818
1501,3115;0,0444994
1502,2758;0,0451607
1503,2400;0,0456501
1504,2042;0,0459918
1505,1685;0,0462146
1506,1327;0,0462604
1507,0969;0,0460038
1508,0612;0,0455388
1509,0254;0,0451285
1509,9896;0,0448443
1510,9539;0,0445969
1511,9181;0,0442929
1512,8823;0,0438773
1513,8466;0,0433227
1514,8108;0,0426221
1515,7750;0,0417962
1516,7393;0,0408928
1517,7035;0,0399607
1518,6677;0,0390233
1519,6320;0,0380857
1520,5962;0,0371784
1521,5604;0,0363823
1522,5247;0,0357844
1523,4889;0,0354044
1524,4531;0,0351879
1525,4174;0,0350651
1526,3816;0,0350021
1527,3458;0,0350026
1528,3101;0,0350741
1529,2743;0,0352044
1530,2385;0,0353699
1531,2028;0,0355571
1532,1670;0,0357738
1533,1312;0,0360401
1534,0955;0,0363669
1535,0597;0,036735
1536,0239;0,0370993
1536,9882;0,0374196
1537,9524;0,037683
1538,9166;0,0378854
1539,8809;0,0379785
1540,8451;0,0379112
1541,8093;0,037799
1542,7736;0,0378147
1543,7378;0,0379709
1544,7020;0,038192
1545,6663;0,0384285
1546,6305;0,0386682
1547,5947;0,0389063
1548,5590;0,0391276
1549,5232;0,0393129
1550,4874;0,039459
1551,4517;0,0395887
1552,4159;0,0397351
1553,3801;0,039908
1554,3444;0,0400784
1555,3086;0,040192
1556,2728;0,0401887
1557,2371;0,0400113
1558,2013;0,0396755
1559,1655;0,0394487
1560,1298;0,0396687
1561,0940;0,0403152
1562,0582;0,0411469
1563,0225;0,0419756
1563,9867;0,0427151
1564,9509;0,0433431
1565,9152;0,0438722
1566,8794;0,0443432
1567,8436;0,0448215
1568,8079;0,0453764
1569,7721;0,0460373
1570,7363;0,0467704
1571,7006;0,0475073
1572,6648;0,0481992
1573,6290;0,0488487
1574,5933;0,049503
1575,5575;0,0502104
1576,5217;0,0509738
1577,4860;0,0517627
1578,4502;0,0525559
1579,4144;0,0533445
1580,3787;0,0541208
1581,3429;0,054881
1582,3071;0,0556259
1583,2714;0,0563595
1584,2356;0,05709
1585,1998;0,0578282
1586,1641;0,0585778
1587,1283;0,0593245
1588,0925;0,0600344
1589,0568;0,0606645
1590,0210;0,0611765
1590,9852;0,0615427
1591,9495;0,0617434
1592,9137;0,061763
1593,8779;0,061597
1594,8422;0,0612627
1595,8064;0,0608023
1596,7706;0,0602677
1597,7349;0,0597008
1598,6991;0,0591238
1599,6633;0,0585433
1600,6276;0,0579612
1601,5918;0,057385
1602,5560;0,0568303
1603,5203;0,0563158
1604,4845;0,0558507
1605,4487;0,0554252
1606,4130;0,055013
1607,3772;0,0545883
1608,3414;0,0541508
1609,3057;0,053739
1610,2699;0,0534065
1611,2341;0,0531771
1612,1984;0,0530227
1613,1626;0,05288
1614,1268;0,0526839
1615,0911;0,0524022
1616,0553;0,0520778
1617,0195;0,0518349
1617,9838;0,0517814
1618,9480;0,0519029
1619,9122;0,0520944
1620,8765;0,0522517
1621,8407;0,0523218
1622,8049;0,0523122
1623,7692;0,0522752
1624,7334;0,0522689
1625,6976;0,0523148
1626,6619;0,0523964
1627,6261;0,0524925
1628,5903;0,0526001
1629,5546;0,0527263
1630,5188;0,0528639
1631,4830;0,0529841
1632,4473;0,0530499
1633,4115;0,0530299
1634,3757;0,0529018
1635,3400;0,0526762
1636,3042;0,0524498
1637,2684;0,0523583
1638,2327;0,0524344
1639,1969;0,0526048
1640,1611;0,052787
1641,1254;0,052935
1642,0896;0,0530321
1643,0538;0,0530717
1644,0181;0,0530418
1644,9823;0,0529222
1645,9465;0,0527132
1646,9108;0,0524874
1647,8750;0,0523491
1648,8392;0,0523071
1649,8035;0,0522576
1650,7677;0,0520537
1651,7319;0,0515402
1652,6962;0,0506403
1653,6604;0,0496279
1654,6246;0,0490154
1655,5889;0,0489049
1656,5531;0,0490164
1657,5173;0,0490872
1658,4816;0,048984
1659,4458;0,0486591
1660,4100;0,0481102
1661,3743;0,0473848
1662,3385;0,0466033
1663,3027;0,0459176
1664,2670;0,0454045
1665,2312;0,045021
1666,1954;0,0446511
1667,1597;0,0441668
1668,1239;0,0434794
1669,0881;0,0426038
1670,0524;0,0416875
1671,0166;0,0408986
1671,9808;0,0402685
1672,9451;0,0396937
1673,9093;0,0390586
1674,8735;0,038344
1675,8378;0,0376536
1676,8020;0,0371294
1677,7662;0,0368234
1678,7305;0,0366631
1679,6947;0,0365132
1680,6589;0,0362319
1681,6232;0,0356842
1682,5874;0,0347731
1683,5516;0,0335789
1684,5159;0,0324609
1685,4801;0,0317562
1686,4443;0,0314533
1687,4086;0,0313338
1688,3728;0,0312156
1689,3370;0,0310276
1690,3013;0,0307813
1691,2655;0,0305188
1692,2297;0,0302737
1693,1940;0,0300561
1694,1582;0,0298563
1695,1224;0,0296521
1696,0867;0,0294152
1697,0509;0,0291226
1698,0151;0,0287792
1698,9794;0,0284444
1699,9436;0,0282262
1700,9078;0,028216
1701,8721;0,0284203
1702,8363;0,0287655
1703,8005;0,0291565
1704,7648;0,0295265
1705,7290;0,0298564
1706,6932;0,0301694
1707,6575;0,0305082
1708,6217;0,0309031
1709,5859;0,0313559
1710,5502;0,0318457
1711,5144;0,0323441
1712,4786;0,032823
1713,4429;0,0332572
1714,4071;0,0336239
1715,3713;0,0339035
1716,3356;0,0340986
1717,2998;0,0342748
1718,2640;0,0345464
1719,2283;0,0349744
1720,1925;0,0355239
1721,1567;0,0361204
1722,1210;0,0367023
1723,0852;0,0372354
1724,0494;0,0377104
1725,0137;0,0381393
1725,9779;0,038548
1726,9421;0,0389595
1727,9064;0,0393769
1728,8706;0,0397747
1729,8348;0,0401027
1730,7991;0,0402957
1731,7633;0,0402891
1732,7275;0,0400628
1733,6918;0,0397095
1734,6560;0,0394088
1735,6202;0,0392644
1736,5845;0,0392209
1737,5487;0,0391485
1738,5129;0,0389425
1739,4772;0,0385677
1740,4414;0,0380606
1741,4056;0,037497
1742,3699;0,036937
1743,3341;0,0363887
1744,2983;0,0358224
1745,2626;0,0352018
1746,2268;0,0344915
1747,1910;0,0336429
1748,1553;0,0325948
1749,1195;0,0313318
1750,0837;0,0299622
1751,0480;0,0286862
1752,0122;0,0276453
1752,9764;0,0268348
1753,9407;0,0261534
1754,9049;0,0254951
1755,8691;0,0248068
1756,8334;0,0240965
1757,7976;0,0233973
1758,7618;0,0227217
1759,7261;0,0220473
1760,6903;0,0213514
1761,6545;0,0206563
1762,6188;0,0200309
1763,5830;0,0195386
1764,5472;0,0191864
1765,5115;0,0189268
1766,4757;0,0186965
1767,4399;0,0184492
1768,4042;0,0181647
1769,3684;0,017838
1770,3326;0,0174671
1771,2969;0,0170607
1772,2611;0,0166654
1773,2253;0,0163624
1774,1896;0,0162085
1775,1538;0,0161896
1776,1180;0,0162386
1777,0823;0,0162822
1778,0465;0,0162736
1779,0107;0,016203
1779,9750;0,0160915
1780,9392;0,0159721
1781,9034;0,0158676
1782,8677;0,0157839
1783,8319;0,0157218
1784,7961;0,0156894
1785,7604;0,0156995
1786,7246;0,0157545
1787,6888;0,0158358
1788,6531;0,0159087
1789,6173;0,0159339
1790,5815;0,0158816
1791,5458;0,0157519
1792,5100;0,0155941
1793,4742;0,0154843
1794,4385;0,015463
1795,4027;0,0155083
1796,3669;0,0155674
1797,3312;0,0155961
1798,2954;0,0155749
1799,2596;0,0155091
1800,2239;0,0154212
1801,1881;0,0153397
1802,1523;0,0152876
1803,1166;0,0152751
1804,0808;0,0153003
1805,0450;0,0153535
1806,0093;0,0154191
1806,9735;0,0154761
1807,9377;0,0155009
1808,9020;0,0154753
1809,8662;0,0153991
1810,8304;0,0152959
1811,7947;0,0152025
1812,7589;0,0151466
1813,7231;0,0151324
1814,6874;0,0151448
1815,6516;0,0151639
1816,6158;0,0151778
1817,5801;0,0151882
1818,5443;0,0152059
1819,5085;0,0152409
1820,4728;0,015293
1821,4370;0,0153512
1822,4012;0,0154006
1823,3655;0,0154308
1824,3297;0,0154396
1825,2939;0,0154315
1826,2582;0,0154091
1827,2224;0,0153665
1828,1866;0,0152936
1829,1509;0,0151918
1830,1151;0,015087
1831,0793;0,0150212
1832,0436;0,0150215
1833,0078;0,0150798
1833,9720;0,0151622
1834,9363;0,0152331
1835,9005;0,0152738
1836,8647;0,0152889
1837,8290;0,0152986
1838,7932;0,0153196
1839,7574;0,0153511
1840,7217;0,0153782
1841,6859;0,0153847
1842,6501;0,0153646
1843,6144;0,0153262
1844,5786;0,0152894
1845,5428;0,015271
1846,5071;0,0152682
1847,4713;0,0152607
1848,4355;0,0152311
1849,3998;0,0151813
1850,3640;0,015131
1851,3282;0,0151028
1852,2925;0,0151062
1853,2567;0,0151334
1854,2209;0,0151695
1855,1852;0,0152067
1856,1494;0,0152481
1857,1136;0,0153001
1858,0779;0,0153604
1859,0421;0,0154134
1860,0063;0,0154405
1860,9706;0,0154349
1861,9348;0,0154099
1862,8990;0,0153904
1863,8633;0,0153967
1864,8275;0,0154335
1865,7917;0,0154876
1866,7560;0,0155328
1867,7202;0,0155427
1868,6844;0,0155103
1869,6487;0,0154574
1870,6129;0,0154139
1871,5771;0,0153905
1872,5414;0,0153766
1873,5056;0,0153569
1874,4698;0,0153268
1875,4341;0,0152948
1876,3983;0,0152759
1877,3625;0,0152802
1878,3268;0,0153065
1879,2910;0,015344
1880,2552;0,0153801
1881,2195;0,0154078
1882,1837;0,0154282
1883,1479;0,015448
1884,1122;0,0154735
1885,0764;0,0155061
1886,0406;0,0155425
1887,0049;0,0155755
1887,9691;0,0155974
1888,9333;0,0156032
1889,8976;0,0155935
1890,8618;0,0155749
1891,8260;0,0155558
1892,7903;0,015541
1893,7545;0,015531
1894,7188;0,0155235
1895,6830;0,0155164
1896,6472;0,0155108
1897,6115;0,0155115
1898,5757;0,0155256
1899,5399;0,0155579
1900,5042;0,0156076
1901,4684;0,0156667
1902,4326;0,0157213
1903,3969;0,015757
1904,3611;0,0157635
1905,3253;0,0157385
1906,2896;0,0156874
1907,2538;0,0156218
1908,2180;0,0155585
1909,1823;0,015517
1910,1465;0,0155144
1911,1107;0,0155589
1912,0750;0,0156437
1913,0392;0,0157495
1914,0034;0,015851
1914,9677;0,0159265
1915,9319;0,0159648
1916,8961;0,0159695
1917,8604;0,0159569
1918,8246;0,0159463
1919,7888;0,0159463
1920,7531;0,0159506
1921,7173;0,0159454
1922,6815;0,0159216
1923,6458;0,0158819
1924,6100;0,015839
1925,5742;0,0158042
1926,5385;0,0157799
1927,5027;0,0157614
1928,4669;0,0157465
1929,4312;0,0157438
1930,3954;0,015771
1931,3596;0,0158414
1932,3239;0,0159471
1933,2881;0,0160522
1934,2523;0,0161061
1935,2166;0,0160715
1936,1808;0,0159518
1937,1450;0,0157968
1938,1093;0,0156825
1939,0735;0,0156768
1940,0377;0,0158068
1941,0020;0,016042
1941,9662;0,0163019
1942,9304;0,0164941
1943,8947;0,016564
1944,8589;0,016518
1945,8231;0,0164043
1946,7874;0,0162791
1947,7516;0,0161824
1948,7158;0,0161298
1949,6801;0,0161161
1950,6443;0,0161238
1951,6085;0,0161344
1952,5728;0,0161394
1953,5370;0,0161457
1954,5012;0,0161721
1955,4655;0,0162365
1956,4297;0,0163401
1957,3939;0,0164584
1958,3582;0,0165476
1959,3224;0,016566
1960,2866;0,0165001
1961,2509;0,0163774
1962,2151;0,0162545
1963,1793;0,0161859
1964,1436;0,0161958
1965,1078;0,0162667
1966,0720;0,0163503
1967,0363;0,0163941
1968,0005;0,0163704
1968,9647;0,0162872
1969,9290;0,0161783
1970,8932;0,0160828
1971,8574;0,016032
1972,8217;0,0160464
1973,7859;0,0161362
1974,7501;0,0162987
1975,7144;0,016513
1976,6786;0,0167404
1977,6428;0,0169372
1978,6071;0,0170751
1979,5713;0,0171521
1980,5355;0,0171842
1981,4998;0,0171847
1982,4640;0,0171489
1983,4282;0,0170574
1984,3925;0,0168963
1985,3567;0,0166828
1986,3209;0,016475
1987,2852;0,0163562
1988,2494;0,016397
1989,2136;0,0166174
1990,1779;0,0169678
1991,1421;0,0173445
1992,1063;0,0176346
1993,0706;0,0177682
1994,0348;0,0177407
1994,9990;0,0175964
1995,9633;0,0173951
1996,9275;0,0171899
1997,8917;0,0170214
1998,8560;0,0169213
1999,8202;0,0169129
2000,7844;0,017003
2001,7487;0,0171756
2002,7129;0,0173933
2003,6771;0,0176109
2004,6414;0,0177955
2005,6056;0,0179377
2006,5698;0,0180475
2007,5341;0,0181343
2008,4983;0,0181907
2009,4625;0,0181975
2010,4268;0,0181466
2011,3910;0,0180602
2012,3552;0,017988
2013,3195;0,0179793
2014,2837;0,0180511
2015,2479;0,018175
2016,2122;0,018298
2017,1764;0,0183844
2018,1406;0,018448
2019,1049;0,0185417
2020,0691;0,0187104
2021,0333;0,0189452
2021,9976;0,0191737
2022,9618;0,0192964
2023,9260;0,0192464
2024,8903;0,0190342
2025,8545;0,0187479
2026,8187;0,0185043
2027,7830;0,0183859
2028,7472;0,0184011
2029,7114;0,0184935
2030,6757;0,0185881
2031,6399;0,0186411
2032,6041;0,0186619
2033,5684;0,0186973
2034,5326;0,0187916
2035,4968;0,0189558
2036,4611;0,019161
2037,4253;0,019356
2038,3895;0,0194877
2039,3538;0,0195152
2040,3180;0,0194183
2041,2822;0,0192066
2042,2465;0,0189279
2043,2107;0,0186631
2044,1749;0,018501
2045,1392;0,0184979
2046,1034;0,0186409
2047,0676;0,0188437
2048,0320;0,0189867
2048,9961;0,0189862
2049,9604;0,0188397
2050,9246;0,018617
2051,8889;0,0184102
2052,8530;0,0182838
2053,8174;0,01825
2054,7815;0,0182756
2055,7458;0,0183117
2056,7100;0,018325
2057,6743;0,0183131
2058,6384;0,0182978
2059,6028;0,0183064
2060,5669;0,0183555
2061,5313;0,018445
2062,4954;0,0185607
2063,4597;0,0186806
2064,4238;0,0187807
2065,3882;0,0188413
2066,3523;0,0188512
2067,3167;0,0188113
2068,2808;0,0187322
2069,2451;0,0186292
2070,2092;0,0185187
2071,1736;0,0184166
2072,1377;0,0183395
2073,1021;0,0183038
2074,0662;0,0183195
2075,0305;0,0183828
2075,9946;0,0184724
2076,9590;0,0185556
2077,9231;0,0186016
2078,8875;0,0185964
2079,8516;0,0185482
2080,8159;0,0184812
2081,7800;0,0184228
2082,7444;0,0183909
2083,7085;0,0183893
2084,6729;0,0184099
2085,6370;0,0184386
2086,6013;0,0184619
2087,5654;0,018471
2088,5298;0,0184646
2089,4939;0,0184503
2090,4583;0,018442
2091,4224;0,0184531
2092,3867;0,0184871
2093,3508;0,018532
2094,3152;0,0185631
2095,2793;0,0185574
2096,2437;0,01851
2097,2078;0,0184414
2098,1721;0,0183881
2099,1362;0,018381
2100,1006;0,0184279
2101,0647;0,0185075
2102,0291;0,0185842
2102,9932;0,0186249
2103,9575;0,0186136
2104,9216;0,0185539
2105,8860;0,0184623
2106,8501;0,0183607
2107,8145;0,0182715
2108,7786;0,0182165
2109,7429;0,0182127
2110,7070;0,0182656
2111,6714;0,0183627
2112,6355;0,0184741
2113,5999;0,0185637
2114,5640;0,0186044
2115,5283;0,0185903
2116,4924;0,0185379
2117,4568;0,018477
2118,4209;0,0184381
2119,3853;0,0184418
2120,3494;0,0184944
2121,3137;0,0185893
2122,2778;0,0187103
2123,2422;0,018837
2124,2063;0,0189507
2125,1707;0,0190394
2126,1348;0,0191004
2127,0991;0,0191381
2128,0632;0,0191579
2129,0276;0,0191626
2129,9917;0,0191538
2130,9561;0,0191397
2131,9202;0,0191421
2132,8845;0,0191945
2133,8486;0,0193251
2134,8130;0,0195331
2135,7771;0,0197755
2136,7415;0,0199799
2137,7056;0,0200799
2138,6699;0,0200511
2139,6340;0,0199247
2140,5984;0,0197701
2141,5625;0,0196595
2142,5269;0,0196351
2143,4910;0,0196989
2144,4553;0,0198262
2145,4194;0,0199888
2146,3838;0,0201714
2147,3479;0,020369
2148,3123;0,0205738
2149,2764;0,0207658
2150,2407;0,0209165
2151,2048;0,0210049
2152,1692;0,021034
2153,1333;0,0210363
2154,0977;0,021067
2155,0618;0,0211852
2156,0261;0,0214287
2156,9902;0,0217852
2157,9546;0,0221743
2158,9187;0,0224666
2159,8831;0,0225474
2160,8472;0,0223824
2161,8115;0,0220315
2162,7756;0,0216114
2163,7400;0,0212419
2164,7041;0,0210029
2165,6685;0,0209138
2166,6326;0,0209385
2167,5969;0,0210119
2168,5610;0,0210724
2169,5254;0,0210828
2170,4895;0,021034
2171,4539;0,0209366
2172,4180;0,0208118
2173,3823;0,0206859
2174,3464;0,0205872
2175,3108;0,0205418
2176,2749;0,0205655
2177,2393;0,020655
2178,2034;0,0207844
2179,1677;0,0209102
2180,1318;0,0209861
2181,0962;0,0209828
2182,0603;0,0209034
2183,0247;0,020784
2183,9888;0,0206746
2184,9531;0,0206108
2185,9172;0,0205956
2186,8816;0,0206009
2187,8457;0,0205886
2188,8101;0,0205352
2189,7742;0,0204431
2190,7385;0,0203341
2191,7026;0,0202312
2192,6670;0,0201442
2193,6311;0,0200687
2194,5955;0,0199959
2195,5596;0,0199225
2196,5239;0,0198523
2197,4880;0,0197906
2198,4524;0,0197398
2199,4165;0,0197013
2200,3809;0,019681
2201,3450;0,0196896
2202,3093;0,0197335
2203,2734;0,0198026
2204,2378;0,0198678
2205,2019;0,0198937
2206,1663;0,0198602
2207,1304;0,019778
2208,0947;0,0196841
2209,0588;0,0196209
2210,0232;0,0196115
2210,9873;0,0196492
2211,9517;0,0197055
2212,9158;0,0197475
2213,8801;0,0197538
2214,8442;0,0197189
2215,8086;0,0196495
2216,7727;0,0195599
2217,7371;0,019469
2218,7012;0,0193989
2219,6655;0,0193696
2220,6296;0,0193904
2221,5940;0,0194529
2222,5581;0,0195317
2223,5225;0,0195934
2224,4866;0,0196102
2225,4509;0,0195689
2226,4150;0,0194742
2227,3794;0,0193439
2228,3435;0,0192051
2229,3079;0,0190863
2230,2720;0,0190115
2231,2363;0,0189931
2232,2004;0,0190271
2233,1648;0,0190942
2234,1289;0,0191668
2235,0933;0,0192206
2236,0574;0,0192445
2237,0217;0,0192421
2237,9858;0,0192271
2238,9502;0,0192139
2239,9143;0,019211
2240,8787;0,0192187
2241,8428;0,0192323
2242,8071;0,0192464
2243,7712;0,019259
2244,7356;0,0192715
2245,6997;0,0192863
2246,6641;0,0193028
2247,6282;0,0193157
2248,5925;0,0193167
2249,5566;0,0192999
2250,5210;0,0192676
2251,4851;0,0192306
2252,4495;0,0192029
2253,4136;0,0191932
2254,3779;0,0191983
2255,3420;0,0192045
2256,3064;0,0191971
2257,2705;0,0191701
2258,2349;0,0191297
2259,1990;0,0190892
2260,1633;0,0190596
2261,1274;0,0190418
2262,0918;0,0190272
2263,0559;0,0190043
2264,0203;0,0189678
2264,9844;0,0189243
2265,9487;0,018891
2266,9128;0,0188867
2267,8772;0,0189219
2268,8413;0,0189911
2269,8057;0,0190721
2270,7698;0,0191345
2271,7341;0,0191514
2272,6982;0,0191113
2273,6626;0,0190216
2274,6267;0,0189043
2275,5911;0,0187858
2276,5552;0,0186867
2277,5195;0,018617
2278,4836;0,0185776
2279,4480;0,0185643
2280,4121;0,0185724
2281,3765;0,0185987
2282,3406;0,0186423
2283,3049;0,0187035
2284,2690;0,0187831
2285,2334;0,0188804
2286,1975;0,018992
2287,1619;0,0191118
2288,1260;0,0192332
2289,0903;0,0193516
2290,0544;0,0194655
2291,0188;0,0195753
2291,9829;0,0196803
2292,9473;0,0197778
2293,9114;0,0198641
2294,8757;0,0199376
2295,8398;0,019999
2296,8042;0,0200495
2297,7683;0,0200863
2298,7327;0,0201009
2299,6968;0,0200828
2300,6611;0,0200266
2301,6252;0,01994
2302,5896;0,0198446
2303,5537;0,0197703
2304,5181;0,0197436
2305,4822;0,0197749
2306,4465;0,0198504
2307,4106;0,019933
2308,3750;0,0199738
2309,3391;0,0199304
2310,3035;0,0197852
2311,2676;0,0195546
2312,2319;0,0192834
2313,1960;0,019026
2314,1604;0,0188245
2315,1245;0,0186951
2316,0889;0,0186288
2317,0530;0,0186033
2318,0173;0,0185954
2318,9814;0,0185908
2319,9458;0,0185889
2320,9099;0,0186064
2321,8743;0,0186735
2322,8384;0,0188158
2323,8027;0,0190282
2324,7668;0,0192613
2325,7312;0,019439
2326,6953;0,0194957
2327,6597;0,0194123
2328,6238;0,01923
2329,5881;0,0190374
2330,5522;0,0189309
2331,5166;0,0189681
2332,4807;0,0191387
2333,4451;0,0193751
2334,4092;0,0195959
2335,3735;0,0197525
2336,3376;0,0198506
2337,3020;0,0199388
2338,2661;0,0200714
2339,2305;0,0202631
2340,1946;0,0204584
2341,1589;0,0205302
2342,1230;0,0203342
2343,0874;0,0198455
2344,0515;0,0193044
2345,0159;0,0191213
2345,9800;0,0195165
2346,9443;0,0203226
2347,9084;0,0211497
2348,8728;0,0216559
2349,8369;0,0217021
2350,8013;0,0213733
2351,7654;0,0209059
2352,7297;0,020549
2353,6938;0,0204305
2354,6582;0,0205326
2355,6223;0,0207743
2356,5867;0,0210714
2357,5508;0,0213275
2358,5151;0,0214406
2359,4792;0,0213617
2360,4436;0,0211308
2361,4077;0,0208246
2362,3721;0,0204705
2363,3362;0,0200293
2364,3005;0,0194592
2365,2646;0,0187831
2366,2290;0,0180895
2367,1931;0,0174756
2368,1575;0,0169924
2369,1216;0,0166345
2370,0859;0,0163656
2371,0500;0,0161538
2372,0144;0,0159909
2372,9785;0,0158942
2373,9429;0,0158942
2374,9070;0,0160178
2375,8713;0,0162743
2376,8354;0,016649
2377,7998;0,0171055
2378,7639;0,0175942
2379,7283;0,0180626
2380,6924;0,0184648
2381,6567;0,0187687
2382,6208;0,0189608
2383,5852;0,0190474
2384,5493;0,0190518
2385,5137;0,0190078
2386,4778;0,0189501
2387,4421;0,0189045
2388,4063;0,0188831
2389,3706;0,0188839
2390,3347;0,0188969
2391,2991;0,0189115
2392,2632;0,0189223
2393,2275;0,01893
2394,1917;0,0189378
2395,1560;0,0189473
2396,1201;0,0189574
2397,0845;0,0189662
2398,0486;0,0189759
2399,0129;0,0189916
2399,9771;0,0190194
2400,9414;0,019062
2401,9055;0,0191138
2402,8699;0,0191635
2403,8340;0,0191998
2404,7983;0,0192179
2405,7625;0,0192218
2406,7268;0,0192209
2407,6909;0,0192237
2408,6553;0,0192334
2409,6194;0,0192468
2410,5837;0,0192597
2411,5479;0,0192707
2412,5122;0,0192833
2413,4763;0,0193033
2414,4407;0,0193352
2415,4048;0,0193788
2416,3691;0,0194289
2417,3333;0,0194772
2418,2976;0,0195153
2419,2617;0,0195379
2420,2261;0,0195448
2421,1902;0,0195415
2422,1545;0,0195376
2423,1187;0,019543
2424,0830;0,0195638
2425,0471;0,0195992
2426,0115;0,0196433
2426,9756;0,0196886
2427,9399;0,0197307
2428,9041;0,0197696
2429,8684;0,0198075
2430,8325;0,0198457
2431,7969;0,0198826
2432,7610;0,0199147
2433,7253;0,0199398
2434,6895;0,0199579
2435,6538;0,0199716
2436,6179;0,0199835
2437,5823;0,0199952
2438,5464;0,0200075
2439,5107;0,0200216
2440,4749;0,0200396
2441,4392;0,0200636
2442,4033;0,0200928
2443,3677;0,0201231
2444,3318;0,0201479
2445,2961;0,0201619
2446,2603;0,0201641
2447,2246;0,020159
2448,1887;0,0201547
2449,1531;0,0201599
2450,1172;0,0201802
2451,0815;0,0202165
2452,0457;0,0202647
2453,0100;0,0203175
2453,9741;0,0203674
2454,9385;0,0204088
2455,9026;0,0204398
2456,8669;0,0204611
2457,8311;0,0204747
2458,7954;0,0204824
2459,7595;0,0204849
2460,7239;0,0204842
2461,6880;0,0204843
2462,6523;0,0204915
2463,6165;0,0205116
2464,5808;0,0205457
2465,5449;0,0205886
2466,5093;0,0206306
2467,4734;0,0206626
2468,4377;0,0206815
2469,4019;0,0206911
2470,3662;0,0206992
2471,3303;0,0207124
2472,2947;0,020732
2473,2588;0,0207544
2474,2231;0,0207745
2475,1873;0,0207901
2476,1516;0,020803
2477,1157;0,0208177
2478,0801;0,0208379
2479,0442;0,0208648
2480,0085;0,020896
2480,9727;0,020928
2481,9370;0,0209568
2482,9011;0,0209799
2483,8655;0,020996
2484,8296;0,0210052
2485,7939;0,0210092
2486,7581;0,021011
2487,7224;0,0210141
2488,6865;0,0210209
2489,6509;0,0210325
2490,6150;0,0210484
2491,5793;0,0210675
2492,5435;0,0210901
2493,5078;0,0211171
2494,4719;0,0211499
2495,4363;0,0211884
2496,4004;0,0212298
2497,3647;0,0212691
2498,3289;0,0213015
2499,2932;0,0213244
2500,2573;0,0213387
2501,2217;0,0213477
2502,1858;0,0213541
2503,1501;0,0213582
2504,1143;0,0213583
2505,0786;0,0213526
2506,0427;0,0213431
2507,0071;0,0213363
2507,9712;0,0213409
2508,9355;0,0213628
2509,8997;0,0214016
2510,8640;0,0214491
2511,8281;0,0214937
2512,7925;0,0215252
2513,7566;0,0215396
2514,7209;0,0215392
2515,6851;0,0215303
2516,6494;0,0215201
2517,6135;0,0215136
2518,5779;0,021514
2519,5420;0,021523
2520,5063;0,0215414
2521,4705;0,0215675
2522,4348;0,021597
2523,3989;0,021623
2524,3633;0,0216393
2525,3274;0,021643
2526,2917;0,0216375
2527,2559;0,0216306
2528,2202;0,0216313
2529,1843;0,0216454
2530,1487;0,0216722
2531,1128;0,021706
2532,0771;0,0217385
2533,0413;0,0217634
2534,0056;0,0217785
2534,9697;0,0217861
2535,9341;0,0217919
2536,8982;0,0218021
2537,8625;0,0218213
2538,8267;0,0218503
2539,7910;0,0218848
2540,7551;0,0219166
2541,7195;0,0219361
2542,6836;0,0219364
2543,6479;0,0219173
2544,6121;0,0218856
2545,5764;0,0218536
2546,5405;0,021834
2547,5049;0,0218357
2548,4690;0,0218607
2549,4333;0,0219039
2550,3975;0,021955
2551,3618;0,022001
2552,3259;0,0220308
2553,2903;0,0220383
2554,2544;0,0220256
2555,2188;0,0220022
2556,1829;0,0219815
2557,1472;0,0219748
2558,1113;0,0219867
2559,0757;0,0220127
2560,0398;0,0220431
2561,0042;0,0220677
2561,9683;0,0220814
2562,9326;0,0220856
2563,8967;0,0220865
2564,8611;0,0220912
2565,8252;0,0221041
2566,7896;0,0221247
2567,7537;0,0221482
2568,7180;0,0221678
2569,6821;0,0221785
2570,6465;0,0221794
2571,6106;0,022175
2572,5750;0,0221726
2573,5391;0,0221791
2574,5034;0,022196
2575,4675;0,0222188
2576,4319;0,0222397
2577,3960;0,0222524
2578,3604;0,0222566
2579,3245;0,0222577
2580,2888;0,0222631
2581,2529;0,0222773
2582,2173;0,0222996
2583,1814;0,0223256
2584,1458;0,022351
2585,1099;0,0223744
2586,0742;0,0223969
2587,0383;0,0224189
2588,0027;0,0224382
2588,9668;0,0224511
2589,9312;0,0224557
2590,8953;0,0224553
2591,8596;0,0224576
2592,8237;0,0224704
2593,7881;0,0224963
2594,7522;0,0225302
2595,7166;0,0225623
2596,6807;0,0225834
2597,6450;0,0225904
2598,6091;0,0225883
2599,5735;0,0225874
2600,5376;0,0225981
2601,5020;0,0226254
2602,4661;0,0226669
2603,4304;0,0227138
2604,3945;0,0227546
2605,3589;0,022781
2606,3230;0,0227919
2607,2874;0,0227946
2608,2515;0,0228011
2609,2158;0,0228219
2610,1799;0,0228601
2611,1443;0,0229095
2612,1084;0,0229577
2613,0728;0,0229934
2614,0369;0,023012
2615,0012;0,0230174
2615,9653;0,0230191
2616,9297;0,0230259
2617,8938;0,023042
2618,8582;0,0230659
2619,8223;0,0230932
2620,7866;0,0231205
2621,7507;0,0231469
2622,7151;0,0231735
2623,6792;0,0232016
2624,6436;0,0232313
2625,6077;0,0232614
2626,5720;0,0232907
2627,5361;0,0233189
2628,5005;0,0233469
2629,4646;0,0233758
2630,4290;0,0234058
2631,3931;0,0234359
2632,3574;0,0234643
2633,3215;0,0234894
2634,2859;0,0235107
2635,2500;0,0235288
2636,2144;0,0235453
2637,1785;0,0235626
2638,1428;0,0235834
2639,1069;0,0236103
2640,0713;0,0236448
2641,0354;0,0236862
2641,9998;0,0237311
2642,9639;0,0237747
2643,9282;0,023813
2644,8923;0,0238449
2645,8567;0,0238723
2646,8208;0,0238988
2647,7852;0,0239277
2648,7493;0,0239596
2649,7136;0,0239929
2650,6777;0,0240249
2651,6421;0,0240537
2652,6062;0,0240792
2653,5706;0,0241026
2654,5347;0,0241258
2655,4990;0,0241505
2656,4631;0,0241774
2657,4275;0,0242066
2658,3916;0,024237
2659,3560;0,0242673
2660,3201;0,0242958
2661,2844;0,0243219
2662,2485;0,0243457
2663,2129;0,0243684
2664,1770;0,0243918
2665,1414;0,0244169
2666,1055;0,0244444
2667,0698;0,0244742
2668,0339;0,0245055
2668,9983;0,0245374
2669,9624;0,0245679
2670,9268;0,0245948
2671,8909;0,0246166
2672,8552;0,0246333
2673,8193;0,0246471
2674,7837;0,0246618
2675,7478;0,0246805
2676,7122;0,0247047
2677,6763;0,0247342
2678,6406;0,0247674
2679,6047;0,0248035
2680,5691;0,024842
2681,5332;0,0248827
2682,4976;0,0249245
2683,4617;0,0249658
2684,4260;0,025005
2685,3901;0,0250416
2686,3545;0,0250763
2687,3186;0,0251103
2688,2830;0,0251434
2689,2471;0,0251742
2690,2114;0,0252005
2691,1755;0,0252215
2692,1399;0,0252388
2693,1040;0,0252565
2694,0684;0,0252793
2695,0325;0,0253109
2695,9968;0,0253524
2696,9609;0,0254018
2697,9253;0,025455
2698,8894;0,0255073
2699,8538;0,0255549
2700,8179;0,0255958
2701,7822;0,0256307
2702,7463;0,0256622
2703,7107;0,0256933
2704,6748;0,0257258
2705,6392;0,0257593
2706,6033;0,0257924
2707,5676;0,0258239
2708,5317;0,0258547
2709,4961;0,0258874
2710,4602;0,0259249
2711,4246;0,0259681
2712,3887;0,0260152
2713,3530;0,0260623
2714,3171;0,0261057
2715,2815;0,026144
2716,2456;0,0261782
2717,2100;0,02621
2718,1741;0,0262407
2719,1384;0,0262697
2720,1025;0,0262952
2721,0669;0,026316
2722,0310;0,0263324
2722,9954;0,0263466
2723,9595;0,0263619
2724,9238;0,0263817
2725,8879;0,0264088
2726,8523;0,026445
2727,8164;0,0264906
2728,7808;0,0265441
2729,7449;0,0266025
2730,7092;0,026661
2731,6733;0,0267141
2732,6377;0,026757
2733,6018;0,0267867
2734,5662;0,0268033
2735,5303;0,02681
2736,4946;0,0268127
2737,4587;0,0268177
2738,4231;0,0268303
2739,3872;0,0268529
2740,3516;0,0268841
2741,3157;0,0269194
2742,2800;0,026953
2743,2441;0,0269801
2744,2085;0,0269988
2745,1726;0,0270107
2746,1370;0,0270197
2747,1011;0,0270309
2748,0654;0,0270483
2749,0295;0,0270744
2749,9939;0,0271093
2750,9580;0,027151
2751,9224;0,0271964
2752,8865;0,0272418
2753,8508;0,0272844
2754,8149;0,0273229
2755,7793;0,0273586
2756,7434;0,027394
2757,7078;0,027432
2758,6719;0,0274735
2759,6362;0,0275168
2760,6003;0,0275587
2761,5647;0,0275959
2762,5288;0,0276275
2763,4932;0,0276547
2764,4573;0,0276809
2765,4216;0,0277092
2766,3857;0,0277419
2767,3501;0,0277794
2768,3142;0,0278206
2769,2786;0,027864
2770,2427;0,0279076
2771,2070;0,02795
2772,1711;0,0279909
2773,1355;0,0280318
2774,0996;0,0280753
2775,0640;0,028124
2776,0281;0,0281787
2776,9924;0,0282373
2777,9565;0,0282957
2778,9209;0,0283508
2779,8850;0,0284023
2780,8494;0,0284537
2781,8135;0,0285101
2782,7778;0,0285747
2783,7419;0,0286464
2784,7063;0,0287195
2785,6704;0,0287868
2786,6348;0,0288439
2787,5989;0,028892
2788,5632;0,0289379
2789,5273;0,0289909
2790,4917;0,0290578
2791,4558;0,02914
2792,4202;0,0292323
2793,3843;0,0293264
2794,3486;0,0294158
2795,3127;0,029499
2796,2771;0,0295801
2797,2412;0,0296657
2798,2056;0,0297613
2799,1697;0,0298674
2800,1340;0,0299803
2801,0981;0,0300943
2802,0625;0,0302045
2803,0266;0,0303091
2803,9910;0,0304091
2804,9551;0,0305064
2805,9194;0,030603
2806,8835;0,0307006
2807,8479;0,0308011
2808,8120;0,0309069
2809,7764;0,0310202
2810,7405;0,0311425
2811,7048;0,0312742
2812,6689;0,0314149
2813,6333;0,0315644
2814,5974;0,0317223
2815,5618;0,0318874
2816,5259;0,0320569
2817,4902;0,0322266
2818,4543;0,0323922
2819,4187;0,0325524
2820,3828;0,0327101
2821,3472;0,032872
2822,3113;0,0330455
2823,2756;0,0332359
2824,2397;0,0334444
2825,2041;0,0336693
2826,1682;0,0339073
2827,1326;0,0341566
2828,0967;0,0344167
2829,0610;0,0346883
2830,0251;0,0349724
2830,9895;0,0352691
2831,9536;0,0355783
2832,9180;0,0358997
2833,8821;0,0362335
2834,8464;0,036581
2835,8105;0,0369448
2836,7749;0,0373296
2837,7390;0,0377424
2838,7034;0,0381921
2839,6675;0,0386882
2840,6318;0,039239
2841,5959;0,03985
2842,5603;0,0405225
2843,5244;0,0412521
2844,4888;0,0420267
2845,4529;0,0428235
2846,4172;0,0436091
2847,3813;0,0443421
2848,3457;0,0449798
2849,3098;0,0454871
2850,2742;0,0458439
2851,2383;0,0460479
2852,2026;0,0461127
2853,1667;0,0460617
2854,1311;0,045921
2855,0952;0,0457153
2856,0596;0,0454659
2857,0237;0,0451924
2857,9880;0,0449139
2858,9521;0,0446496
2859,9165;0,0444174
2860,8806;0,0442314
2861,8450;0,0441002
2862,8091;0,0440269
2863,7734;0,0440102
2864,7375;0,044046
2865,7019;0,0441272
2866,6660;0,0442431
2867,6304;0,0443792
2868,5945;0,0445178
2869,5588;0,0446417
2870,5229;0,0447385
2871,4873;0,0448033
2872,4514;0,0448397
2873,4158;0,0448571
2874,3799;0,0448669
2875,3442;0,044879
2876,3083;0,0448998
2877,2727;0,0449323
2878,2368;0,0449779
2879,2012;0,0450375
2880,1653;0,0451125
2881,1296;0,045204
2882,0938;0,0453127
2883,0581;0,0454379
2884,0222;0,0455772
2884,9866;0,045727
2885,9507;0,0458832
2886,9150;0,0460429
2887,8792;0,0462049
2888,8435;0,0463703
2889,8076;0,0465408
2890,7720;0,0467173
2891,7361;0,0468982
2892,7004;0,0470797
2893,6646;0,0472575
2894,6289;0,0474302
2895,5930;0,0476003
2896,5574;0,047774
2897,5215;0,0479573
2898,4858;0,0481522
2899,4500;0,0483547
2900,4143;0,0485571
2901,3784;0,0487527
2902,3428;0,0489408
2903,3069;0,0491276
2904,2712;0,0493241
2905,2354;0,0495412
2906,1997;0,049787
2907,1638;0,0500662
2908,1282;0,0503838
2909,0923;0,0507467
2910,0566;0,0511626
2911,0208;0,0516345
2911,9851;0,0521543
2912,9492;0,0526994
2913,9136;0,0532368
2914,8777;0,0537311
2915,8420;0,0541554
2916,8062;0,0544964
2917,7705;0,0547538
2918,7346;0,0549334
2919,6990;0,0550401
2920,6631;0,0550725
2921,6274;0,0550244
2922,5916;0,0548891
2923,5559;0,0546647
2924,5200;0,0543567
2925,4844;0,0539778
2926,4485;0,0535441
2927,4128;0,0530722
2928,3770;0,0525757
2929,3413;0,0520643
2930,3054;0,0515434
2931,2698;0,0510157
2932,2339;0,0504826
2933,1982;0,0499461
2934,1624;0,0494095
2935,1267;0,0488769
2936,0908;0,0483518
2937,0552;0,0478361
2938,0193;0,0473304
2938,9836;0,0468347
2939,9478;0,0463499
2940,9121;0,0458784
2941,8762;0,0454231
2942,8406;0,0449869
2943,8047;0,0445722
2944,7690;0,0441808
2945,7332;0,0438153
2946,6975;0,0434786
2947,6616;0,0431741
2948,6260;0,0429047
2949,5901;0,0426708
2950,5544;0,0424695
2951,5186;0,0422928
2952,4829;0,0421282
2953,4470;0,0419607
2954,4114;0,0417764
2955,3755;0,0415681
2956,3398;0,0413367
2957,3040;0,041091
2958,2683;0,0408417
2959,2324;0,0405951
2960,1968;0,04035
2961,1609;0,0400985
2962,1252;0,0398317
2963,0894;0,0395445
2964,0537;0,0392391
2965,0178;0,0389231
2965,9822;0,0386052
2966,9463;0,0382921
2967,9106;0,0379867
2968,8748;0,0376887
2969,8391;0,0373966
2970,8032;0,0371092
2971,7676;0,0368261
2972,7317;0,0365476
2973,6960;0,0362754
2974,6602;0,0360119
2975,6245;0,0357594
2976,5886;0,0355195
2977,5530;0,035293
2978,5171;0,0350803
2979,4814;0,034883
2980,4456;0,034704
2981,4099;0,0345461
2982,3740;0,03441
2983,3384;0,0342929
2984,3025;0,034189
2985,2668;0,0340923
2986,2310;0,0339987
2987,1953;0,0339074
2988,1594;0,0338198
2989,1238;0,0337378
2990,0879;0,0336625
2991,0522;0,0335942
2992,0164;0,033534
2992,9807;0,0334842
2993,9448;0,0334479
2994,9092;0,0334271
2995,8733;0,0334212
2996,8376;0,0334276
2997,8018;0,0334424
2998,7661;0,0334628
2999,7302;0,0334875
3000,6946;0,0335167
3001,6587;0,0335506
3002,6230;0,0335879
3003,5872;0,0336256
3004,5515;0,0336596
3005,5156;0,0336863
3006,4800;0,0337044
3007,4441;0,0337152
3008,4084;0,033722
3009,3726;0,0337287
3010,3369;0,033738
3011,3010;0,0337503
3012,2654;0,0337638
3013,2295;0,0337767
3014,1938;0,0337892
3015,1580;0,0338045
3016,1223;0,0338282
3017,0864;0,0338656
3018,0508;0,0339185
3019,0149;0,0339832
3019,9792;0,0340521
3020,9434;0,0341164
3021,9077;0,0341713
3022,8718;0,0342185
3023,8362;0,0342658
3024,8003;0,034323
3025,7646;0,034397
3026,7288;0,0344875
3027,6931;0,034587
3028,6572;0,0346852
3029,6216;0,0347729
3030,5857;0,034847
3031,5500;0,0349105
3032,5142;0,0349708
3033,4785;0,0350356
3034,4426;0,0351098
3035,4070;0,0351946
3036,3711;0,0352882
3037,3354;0,0353869
3038,2996;0,0354871
3039,2639;0,0355862
3040,2280;0,035684
3041,1924;0,035783
3042,1565;0,0358871
3043,1208;0,036
3044,0850;0,0361219
3045,0493;0,0362485
3046,0134;0,036373
3046,9778;0,0364893
3047,9419;0,036596
3048,9063;0,0366981
3049,8704;0,0368042
3050,8347;0,0369213
3051,7988;0,0370506
3052,7632;0,0371868
3053,7273;0,0373211
3054,6917;0,0374469
3055,6558;0,0375634
3056,6201;0,0376764
3057,5842;0,037794
3058,5486;0,0379224
3059,5127;0,038062
3060,4771;0,0382081
3061,4412;0,0383526
3062,4055;0,0384883
3063,3696;0,0386112
3064,3340;0,0387216
3065,2981;0,0388234
3066,2625;0,0389222
3067,2266;0,039023
3068,1909;0,0391292
3069,1550;0,0392418
3070,1194;0,0393612
3071,0835;0,0394878
3072,0479;0,0396223
3073,0120;0,0397639
3073,9763;0,039909
3074,9404;0,0400506
3075,9048;0,0401813
3076,8689;0,0402967
3077,8333;0,0403982
3078,7974;0,0404927
3079,7617;0,0405893
3080,7258;0,0406943
3081,6902;0,0408097
3082,6543;0,0409336
3083,6187;0,0410626
3084,5828;0,0411937
3085,5471;0,0413245
3086,5112;0,0414521
3087,4756;0,0415739
3088,4397;0,0416889
3089,4041;0,0418
3090,3682;0,041913
3091,3325;0,0420342
3092,2966;0,0421657
3093,2610;0,0423048
3094,2251;0,0424449
3095,1895;0,0425803
3096,1536;0,0427086
3097,1179;0,0428322
3098,0820;0,0429548
3099,0464;0,0430795
3100,0105;0,0432073
3100,9749;0,0433389
3101,9390;0,0434758
3102,9033;0,0436203
3103,8674;0,0437737
3104,8318;0,0439334
3105,7959;0,0440934
3106,7603;0,0442456
3107,7244;0,044385
3108,6887;0,0445122
3109,6528;0,0446338
3110,6172;0,0447592
3111,5813;0,0448957
3112,5457;0,0450453
3113,5098;0,0452047
3114,4741;0,0453674
3115,4382;0,0455271
3116,4026;0,0456803
3117,3667;0,0458272
3118,3311;0,0459701
3119,2952;0,0461128
3120,2595;0,0462591
3121,2236;0,0464119
3122,1880;0,0465721
3123,1521;0,0467386
3124,1165;0,0469084
3125,0806;0,0470781
3126,0449;0,0472454
3127,0090;0,04741
3127,9734;0,0475726
3128,9375;0,0477334
3129,9019;0,0478912
3130,8660;0,0480445
3131,8303;0,0481938
3132,7944;0,048343
3133,7588;0,0484984
3134,7229;0,0486656
3135,6873;0,0488456
3136,6514;0,0490341
3137,6157;0,0492236
3138,5798;0,049408
3139,5442;0,0495849
3140,5083;0,0497568
3141,4727;0,0499279
3142,4368;0,0501018
3143,4011;0,0502796
3144,3652;0,0504602
3145,3296;0,0506417
3146,2937;0,0508225
3147,2581;0,0510014
3148,2222;0,0511778
3149,1865;0,0513523
3150,1506;0,0515278
3151,1150;0,0517088
3152,0791;0,0518991
3153,0435;0,0520989
3154,0076;0,0523036
3154,9719;0,0525052
3155,9360;0,0526969
3156,9004;0,052878
3157,8645;0,0530548
3158,8289;0,0532369
3159,7930;0,0534311
3160,7573;0,0536375
3161,7214;0,0538496
3162,6858;0,0540582
3163,6499;0,0542578
3164,6143;0,0544487
3165,5784;0,0546357
3166,5427;0,0548245
3167,5068;0,0550175
3168,4712;0,0552134
3169,4353;0,0553513
3170,3997;0,0555468
3171,3638;0,0557424
3172,3281;0,0559387
3173,2922;0,056135
3174,2566;0,0563283
3175,2207;0,056515
3176,1851;0,0566941
3177,1492;0,056869
3178,1135;0,0570467
3179,0776;0,0572341
3180,0420;0,0574339
3181,0061;0,0576428
3181,9705;0,0578529
3182,9346;0,0580567
3183,8989;0,0582506
3184,8630;0,0584365
3185,8274;0,0586199
3186,7915;0,058805
3187,7559;0,0589929
3188,7200;0,059181
3189,6843;0,0593665
3190,6484;0,0595492
3191,6128;0,0597315
3192,5769;0,0599164
3193,5413;0,0601042
3194,5054;0,060292
3195,4697;0,0604748
3196,4338;0,0606498
3197,3982;0,0608179
3198,3623;0,0609841
3199,3267;0,0611534
3200,2908;0,0613286
3201,2551;0,0615082
3202,2192;0,061688
3203,1836;0,0618638
3204,1477;0,0620347
3205,1121;0,0622034
3206,0762;0,0623751
3207,0405;0,0625545
3208,0046;0,0627427
3208,9690;0,0629357
3209,9331;0,0631265
3210,8975;0,0633088
3211,8616;0,0634814
3212,8259;0,0636483
3213,7900;0,0638167
3214,7544;0,0639908
3215,7185;0,0641687
3216,6829;0,0643438
3217,6470;0,0645102
3218,6113;0,0646685
3219,5754;0,0648273
3220,5398;0,0649981
3221,5039;0,0651873
3222,4683;0,0653912
3223,4324;0,0655968
3224,3967;0,0657906
3225,3608;0,0659661
3226,3252;0,0661277
3227,2893;0,0662867
3228,2537;0,0664532
3229,2178;0,0666297
3230,1821;0,0668109
3231,1462;0,0669885
3232,1106;0,0671576
3233,0747;0,0673196
3234,0391;0,0674802
3235,0032;0,0676449
3235,9675;0,0678158
3236,9316;0,0679925
3237,8960;0,0681738
3238,8601;0,0683596
3239,8245;0,06855
3240,7886;0,068744
3241,7529;0,0689378
3242,7170;0,0691273
3243,6814;0,0693107
3244,6455;0,0694907
3245,6099;0,0696736
3246,5740;0,0698658
3247,5383;0,0700696
3248,5024;0,0702815
3249,4668;0,0704946
3250,4309;0,0707017
3251,3953;0,0708992
3252,3594;0,0710891
3253,3237;0,0712776
3254,2878;0,071472
3255,2522;0,0716774
3256,2163;0,0718935
3257,1807;0,0721156
3258,1448;0,0723367
3259,1091;0,0725516
3260,0732;0,0727592
3261,0376;0,0729631
3262,0017;0,0731679
3262,9661;0,0733768
3263,9302;0,0735888
3264,8945;0,0737996
3265,8586;0,0740043
3266,8230;0,0741995
3267,7871;0,0743842
3268,7515;0,0745589
3269,7156;0,0747241
3270,6799;0,0748793
3271,6440;0,0750229
3272,6084;0,0751537
3273,5725;0,0752712
3274,5369;0,0753766
3275,5010;0,075473
3276,4653;0,075565
3277,4294;0,0756578
3278,3938;0,0757548
3279,3579;0,0758559
3280,3223;0,0759572
3281,2864;0,0760525
3282,2507;0,0761363
3283,2148;0,0762068
3284,1792;0,0762663
3285,1433;0,0763199
3286,1077;0,0763717
3287,0718;0,0764237
3288,0361;0,0764752
3289,0002;0,0765239
3289,9646;0,0765676
3290,9287;0,0766041
3291,8931;0,0766318
3292,8572;0,0766496
3293,8215;0,0766577
3294,7856;0,0766582
3295,7500;0,0766543
3296,7141;0,0766491
3297,6785;0,0766436
3298,6426;0,0766377
3299,6069;0,0766312
3300,5710;0,0766267
3301,5354;0,0766292
3302,4995;0,0766445
3303,4639;0,0766745
3304,4280;0,0767145
3305,3923;0,0767539
3306,3564;0,0767804
3307,3208;0,0767862
3308,2849;0,0767714
3309,2493;0,0767444
3310,2134;0,0767179
3311,1777;0,0767038
3312,1418;0,0767098
3313,1062;0,0767385
3314,0703;0,0767881
3315,0347;0,0768541
3315,9988;0,0769309
3316,9631;0,0770123
3317,9272;0,0770936
3318,8916;0,0771718
3319,8557;0,0772467
3320,8201;0,0773201
3321,7842;0,0773943
3322,7485;0,0774713
3323,7126;0,0775513
3324,6770;0,0776331
3325,6411;0,0777147
3326,6055;0,0777942
3327,5696;0,0778702
3328,5339;0,0779417
3329,4980;0,0780085
3330,4624;0,0780692
3331,4265;0,0781219
3332,3909;0,0781628
3333,3550;0,0781878
3334,3193;0,0781935
3335,2834;0,0781789
3336,2478;0,0781463
3337,2119;0,0780998
3338,1763;0,0780427
3339,1404;0,0779755
3340,1047;0,0778953
3341,0688;0,0777984
3342,0332;0,0776836
3342,9973;0,0775541
3343,9617;0,0774168
3344,9258;0,0772791
3345,8901;0,0771459
3346,8542;0,0770172
3347,8186;0,0768892
3348,7827;0,0767562
3349,7471;0,0766117
3350,7112;0,0764505
3351,6755;0,0762694
3352,6396;0,0760695
3353,6040;0,075857
3354,5681;0,0756442
3355,5325;0,0754451
3356,4966;0,0752708
3357,4609;0,0751237
3358,4250;0,0749965
3359,3894;0,0748758
3360,3535;0,0747486
3361,3179;0,0746081
3362,2820;0,0744552
3363,2463;0,0742952
3364,2104;0,0741332
3365,1748;0,0739706
3366,1389;0,0738048
3367,1033;0,0736312
3368,0674;0,0734464
3369,0317;0,0732496
3369,9958;0,0730435
3370,9602;0,0728339
3371,9243;0,0726285
3372,8887;0,0724351
3373,8528;0,0722581
3374,8171;0,072096
3375,7813;0,0719411
3376,7456;0,0717834
3377,7097;0,0716157
3378,6741;0,0714372
3379,6382;0,0712524
3380,6025;0,0710663
3381,5667;0,0708804
3382,5310;0,0706925
3383,4951;0,0705011
3384,4595;0,0703112
3385,4236;0,0701335
3386,3879;0,069979
3387,3521;0,0698495
3388,3164;0,0697344
3389,2805;0,0696151
3390,2449;0,0694754
3391,2090;0,0693106
3392,1733;0,0691291
3393,1375;0,0689461
3394,1018;0,0687729
3395,0659;0,0686113
3396,0303;0,068455
3396,9944;0,0682955
3397,9587;0,0681275
3398,9229;0,0679505
3399,8872;0,067766
3400,8513;0,0675765
3401,8157;0,0673839
3402,7798;0,0671907
3403,7441;0,0669993
3404,7083;0,0668103
3405,6726;0,0666223
3406,6367;0,0664323
3407,6011;0,0662382
3408,5652;0,06604
3409,5295;0,0658386
3410,4937;0,0656337
3411,4580;0,0654237
3412,4221;0,0652084
3413,3865;0,0649918
3414,3506;0,0647814
3415,3149;0,0645837
3416,2791;0,0643979
3417,2434;0,0642131
3418,2075;0,0640129
3419,1719;0,0637841
3420,1360;0,0635251
3421,1003;0,0632482
3422,0645;0,0629734
3423,0288;0,0627179
3423,9929;0,0624891
3424,9573;0,0622832
3425,9214;0,0620885
3426,8857;0,0618903
3427,8499;0,0616763
3428,8142;0,06144
3429,7783;0,0611839
3430,7427;0,0609174
3431,7068;0,0606534
3432,6711;0,060402
3433,6353;0,0601673
3434,5996;0,0599468
3435,5637;0,0597333
3436,5281;0,0595189
3437,4922;0,0592973
3438,4565;0,0590663
3439,4207;0,0588283
3440,3850;0,0585895
3441,3491;0,0583561
3442,3135;0,0581294
3443,2776;0,0579026
3444,2419;0,0576627
3445,2061;0,0573979
3446,1704;0,057107
3447,1345;0,056804
3448,0989;0,0565113
3449,0630;0,0562468
3450,0273;0,0560135
3450,9915;0,0557997
3451,9558;0,0555884
3452,9199;0,055367
3453,8843;0,0551331
3454,8484;0,0548933
3455,8127;0,054656
3456,7769;0,0544256
3457,7412;0,0541997
3458,7053;0,0539709
3459,6697;0,0537318
3460,6338;0,053479
3461,5981;0,0532148
3462,5623;0,0529459
3463,5266;0,0526794
3464,4907;0,0524192
3465,4551;0,0521648
3466,4192;0,0519135
3467,3835;0,0516641
3468,3477;0,0514189
3469,3120;0,0511811
3470,2761;0,0509506
3471,2405;0,0507213
3472,2046;0,0504845
3473,1689;0,0502358
3474,1331;0,0499809
3475,0974;0,0497333
3476,0615;0,0495046
3477,0259;0,0492947
3477,9900;0,0490895
3478,9543;0,0488697
3479,9185;0,0486246
3480,8828;0,0483606
3481,8469;0,0480977
3482,8113;0,0478542
3483,7754;0,0476326
3484,7397;0,0474167
3485,7039;0,0471834
3486,6682;0,0469189
3487,6323;0,0466294
3488,5967;0,0463383
3489,5608;0,0460724
3490,5251;0,0458453
3491,4893;0,0456501
3492,4536;0,045465
3493,4177;0,0452669
3494,3821;0,0450457
3495,3462;0,0448115
3496,3105;0,0445876
3497,2747;0,0443939
3498,2390;0,0442303
3499,2031;0,0440731
3500,1675;0,0438867
3501,1316;0,0436442
3502,0959;0,0433474
3503,0601;0,043031
3504,0244;0,0427407
3504,9885;0,0425021
3505,9529;0,0423048
3506,9170;0,0421134
3507,8813;0,0418918
3508,8455;0,0416261
3509,8098;0,0413315
3510,7739;0,0410409
3511,7383;0,0407817
3512,7024;0,0405596
3513,6667;0,0403613
3514,6309;0,040169
3515,5952;0,0399738
3516,5593;0,0397798
3517,5237;0,0395973
3518,4878;0,0394329
3519,4521;0,0392828
3520,4163;0,0391344
3521,3806;0,0389732
3522,3447;0,0387891
3523,3091;0,0385788
3524,2732;0,0383428
3525,2375;0,0380811
3526,2017;0,037794
3527,1660;0,0374873
3528,1301;0,0371782
3529,0945;0,0368925
3530,0586;0,0366535
3531,0229;0,0364678
3531,9871;0,0363204
3532,9514;0,0361813
3533,9155;0,0360186
3534,8799;0,0358128
3535,8440;0,0355675
3536,8083;0,0353101
3537,7725;0,0350796
3538,7368;0,0349068
3539,7009;0,0347983
3540,6653;0,0347326
3541,6294;0,0346658
3542,5938;0,0345451
3543,5579;0,034329
3544,5222;0,0340131
3545,4863;0,0336431
3546,4507;0,0332934
3547,4148;0,0330195
3548,3792;0,0328253
3549,3433;0,0326696
3550,3076;0,0324976
3551,2717;0,0322744
3552,2361;0,0320053
3553,2002;0,0317316
3554,1646;0,0315002
3555,1287;0,0313312
3556,0930;0,0312084
3557,0571;0,0310982
3558,0215;0,0309776
3558,9856;0,0308528
3559,9500;0,0307557
3560,9141;0,0307181
3561,8784;0,030739
3562,8425;0,0307689
3563,8069;0,0307156
3564,7710;0,0304725
3565,7354;0,0299829
3566,6995;0,0293218
3567,6638;0,0286889
3568,6279;0,0282593
3569,5923;0,028062
3570,5564;0,0280106
3571,5208;0,0279961
3572,4849;0,0279449
3573,4492;0,0278331
3574,4133;0,0276757
3575,3777;0,0275018
3576,3418;0,0273311
3577,3062;0,0271682
3578,2703;0,0270157
3579,2346;0,0268906
3580,1987;0,0268224
3581,1631;0,0268314
3582,1272;0,0269037
3583,0916;0,0269834
3584,0557;0,0269834
3585,0200;0,0268162
3585,9841;0,0264498
3586,9485;0,0259709
3587,9126;0,0255677
3588,8770;0,0253898
3589,8411;0,0254385
3590,8054;0,0255999
3591,7695;0,0257375
3592,7339;0,0257545
3593,6980;0,0256242
3594,6624;0,0253929
3595,6265;0,0251423
3596,5908;0,0249272
3597,5549;0,024743
3598,5193;0,0245516
3599,4834;0,0243323
3600,4478;0,0241107
3601,4119;0,0239391
3602,3762;0,0238476
3603,3403;0,0238134
3604,3047;0,0237704
3605,2688;0,0236428
3606,2332;0,0233826
3607,1973;0,0229971
3608,1616;0,0225508
3609,1257;0,022128
3610,0901;0,0217863
3611,0542;0,0215447
3612,0186;0,0214022
3612,9827;0,0213525
3613,9470;0,0213772
3614,9111;0,0214325
3615,8755;0,0214499
3616,8396;0,0213613
3617,8040;0,0211417
3618,7681;0,0208523
3619,7324;0,0206321
3620,6965;0,0206094
3621,6609;0,0208105
3622,6250;0,0211573
3623,5894;0,0215262
3624,5535;0,0217917
3625,5178;0,0218362
3626,4819;0,0215576
3627,4463;0,0209287
3628,4104;0,0201073
3629,3748;0,0194057
3630,3389;0,019027
3631,3032;0,0189203
3632,2673;0,0189117
3633,2317;0,0188605
3634,1958;0,0187128
3635,1602;0,0184886
3636,1243;0,0182407
3637,0886;0,0180116
3638,0527;0,0178155
3639,0171;0,0176503
3639,9812;0,017523
3640,9456;0,0174589
3641,9097;0,017485
3642,8740;0,0176044
3643,8381;0,0177801
3644,8025;0,0179327
3645,7666;0,0179403
3646,7310;0,0176453
3647,6951;0,0169374
3648,6594;0,0159619
3649,6235;0,0151509
3650,5879;0,0148134
3651,5520;0,0148809
3652,5164;0,015105
3653,4805;0,0152711
3654,4448;0,0152659
3655,4089;0,015087
3656,3733;0,0148298
3657,3374;0,0146231
3658,3018;0,0145352
3659,2659;0,0145428
3660,2302;0,0145816
3661,1943;0,0146145
3662,1587;0,0146552
3663,1228;0,0147426
3664,0872;0,0148919
3665,0513;0,015067
3666,0156;0,0151918
3666,9797;0,0151904
3667,9441;0,0150395
3668,9082;0,0148128
3669,8726;0,0146538
3670,8367;0,0146507
3671,8010;0,014748
3672,7651;0,014793
3673,7295;0,014641
3674,6936;0,0142593
3675,6580;0,0137929
3676,6221;0,0134768
3677,5864;0,0134244
3678,5505;0,0135693
3679,5149;0,013789
3680,4790;0,0140105
3681,4434;0,0142269
3682,4075;0,0144623
3683,3718;0,0147277
3684,3359;0,0149966
3685,3003;0,0152091
3686,2644;0,0152918
3687,2288;0,0151892
3688,1929;0,0149132
3689,1572;0,0145855
3690,1213;0,0143804
3691,0857;0,0143851
3692,0498;0,0145594
3693,0142;0,0148149
3693,9783;0,0150847
3694,9426;0,0153372
3695,9067;0,0155603
3696,8711;0,0157413
3697,8352;0,0158586
3698,7996;0,0158873
3699,7637;0,0158181
3700,7280;0,0156799
3701,6921;0,0155457
3702,6565;0,0155004
3703,6206;0,0155898
3704,5850;0,0157966
3705,5491;0,016057
3706,5134;0,0162847
3707,4775;0,0163799
3708,4419;0,0162322
3709,4060;0,0157605
3710,3704;0,0150134
3711,3345;0,0142335
3712,2988;0,0137146
3713,2629;0,0135822
3714,2273;0,0137702
3715,1914;0,0141411
3716,1558;0,0145776
3717,1199;0,0150101
3718,0842;0,0154105
3719,0483;0,0157765
3720,0127;0,0161117
3720,9768;0,0164081
3721,9412;0,0166417
3722,9053;0,0167858
3723,8696;0,016836
3724,8337;0,0168267
3725,7981;0,0168179
3726,7622;0,016859
3727,7266;0,0169616
3728,6907;0,0171022
3729,6550;0,0172422
3730,6191;0,0173396
3731,5835;0,0173436
3732,5476;0,0171827
3733,5120;0,0167857
3734,4761;0,016168
3735,4404;0,0155062
3736,4045;0,0150428
3737,3689;0,014894
3738,3330;0,0150006
3739,2974;0,0152121
3740,2615;0,0153682
3741,2258;0,0153366
3742,1899;0,015046
3743,1543;0,0145489
3744,1184;0,0140615
3745,0828;0,0138313
3746,0469;0,0139092
3747,0112;0,0141231
3747,9753;0,0142282
3748,9397;0,0140379
3749,9038;0,0135327
3750,8682;0,012942
3751,8323;0,0126027
3752,7966;0,0126508
3753,7607;0,0129609
3754,7251;0,0133243
3755,6892;0,0135785
3756,6536;0,0136408
3757,6177;0,0135187
3758,5820;0,0133073
3759,5461;0,0131392
3760,5105;0,0131
3761,4746;0,013188
3762,4390;0,0133437
3763,4031;0,0134982
3764,3674;0,0136013
3765,3315;0,0136274
3766,2959;0,0135705
3767,2600;0,0134367
3768,2244;0,013245
3769,1885;0,0130342
3770,1528;0,012866
3771,1169;0,0128033
3772,0813;0,0128749
3773,0454;0,0130581
3774,0098;0,0132907
3774,9739;0,0134974
3775,9382;0,013613
3776,9023;0,013604
3777,8667;0,0134879
3778,8308;0,0133329
3779,7952;0,013219
3780,7593;0,0131854
3781,7236;0,0132149
3782,6877;0,0132611
3783,6521;0,0132829
3784,6162;0,013264
3785,5806;0,0132155
3786,5447;0,0131646
3787,5090;0,0131396
3788,4731;0,0131585
3789,4375;0,0132242
3790,4016;0,0133267
3791,3660;0,013448
3792,3301;0,0135718
3793,2944;0,0136908
3794,2585;0,01381
3795,2229;0,0139371
3796,1870;0,0140648
3797,1514;0,0141571
3798,1155;0,0141571
3799,0798;0,0140197
3800,0439;0,0137599
3801,0083;0,0134755
3801,9724;0,0132895
3802,9368;0,0132431
3803,9009;0,0132638
3804,8652;0,0132356
3805,8293;0,0130951
3806,7937;0,0128914
3807,7578;0,0127642
3808,7222;0,0128326
3809,6863;0,0130984
3810,6506;0,0134624
3811,6147;0,0137996
3812,5791;0,014017
3813,5432;0,0140836
3814,5076;0,0140438
3815,4717;0,0139931
3816,4360;0,014
3817,4001;0,0140393
3818,3645;0,0140131
3819,3286;0,013839
3820,2930;0,0135365
3821,2571;0,0132385
3822,2214;0,0130866
3823,1855;0,0131172
3824,1499;0,0132635
3825,1140;0,0134337
3826,0784;0,0135686
3827,0425;0,0136545
3828,0068;0,0137102
3828,9709;0,0137632
3829,9353;0,0138329
3830,8994;0,0139261
3831,8638;0,0140409
3832,8279;0,0141683
3833,7922;0,0142869
3834,7563;0,0143599
3835,7207;0,014343
3836,6848;0,0142098
3837,6492;0,013981
3838,6133;0,0137272
3839,5776;0,0135212
3840,5417;0,0133877
3841,5061;0,0133048
3842,4702;0,0132483
3843,4346;0,0132278
3844,3987;0,013287
3845,3630;0,0134721
3846,3271;0,0137959
3847,2915;0,0142241
3848,2556;0,014683
3849,2200;0,015067
3850,1841;0,0152334
3851,1484;0,0150084
3852,1125;0,0142962
3853,0769;0,0133192
3854,0410;0,0125876
3855,0054;0,0123946
3855,9695;0,0126312
3856,9338;0,0130614
3857,8979;0,0135121
3858,8623;0,0138877
3859,8264;0,0141391
3860,7908;0,0142461
3861,7549;0,014222
3862,7192;0,0141254
3863,6833;0,0140438
3864,6477;0,014041
3865,6118;0,0141183
3866,5762;0,0142242
3867,5403;0,0142897
3868,5046;0,0142596
3869,4688;0,0141156
3870,4331;0,0138885
3871,3972;0,0136501
3872,3616;0,0134792
3873,3257;0,0134254
3874,2900;0,0134931
3875,2542;0,013649
3876,2185;0,0138386
3877,1826;0,0140066
3878,1470;0,0141147
3879,1111;0,0141553
3880,0754;0,0141488
3881,0396;0,0141181
3882,0039;0,0140617
3882,9680;0,0139579
3883,9324;0,0138038
3884,8965;0,013646
3885,8608;0,0135614
3886,8250;0,0135935
3887,7893;0,0137101
3888,7534;0,013821
3889,7178;0,0138379
3890,6819;0,013739
3891,6462;0,0136014
3892,6104;0,0135526
3893,5747;0,0136665
3894,5388;0,0139166
3895,5032;0,0142161
3896,4673;0,0144776
3897,4316;0,0146449
3898,3958;0,0147006
3899,3601;0,0146573
3900,3242;0,0145337
3901,2886;0,014335
3902,2527;0,0140642
3903,2170;0,0137534
3904,1812;0,0134726
3905,1455;0,01329
3906,1096;0,0132286
3907,0740;0,0132633
3908,0381;0,0133501
3909,0024;0,0134548
3909,9666;0,0135645
3910,9309;0,0136821
3911,8950;0,013811
3912,8594;0,0139408
3913,8235;0,014043
3914,7878;0,0140824
3915,7520;0,0140401
3916,7163;0,0139369
3917,6804;0,013832
3918,6448;0,0137884
3919,6089;0,0138286
3920,5732;0,0139229
3921,5374;0,0140119
3922,5017;0,0140438
3923,4658;0,0140049
3924,4302;0,0139306
3925,3943;0,013881
3926,3586;0,013898
3927,3228;0,013977
3928,2871;0,0140729
3929,2512;0,0141255
3930,2156;0,0140913
3931,1797;0,0139691
3932,1440;0,0138044
3933,1082;0,0136624
3934,0725;0,0135907
3935,0366;0,0136026
3936,0010;0,0136834
3936,9651;0,013804
3937,9294;0,0139303
3938,8936;0,014029
3939,8579;0,0140756
3940,8220;0,0140652
3941,7864;0,0140192
3942,7505;0,0139762
3943,7148;0,013968
3944,6790;0,0139985
3945,6433;0,0140417
3946,6074;0,0140596
3947,5718;0,0140262
3948,5359;0,0139448
3949,5002;0,0138461
3950,4644;0,0137677
3951,4287;0,0137296
3952,3928;0,0137275
3953,3572;0,0137437
3954,3213;0,0137634
3955,2856;0,0137822
3956,2498;0,013804
3957,2141;0,0138311
3958,1782;0,0138577
3959,1426;0,0138715
3960,1067;0,0138618
3961,0710;0,0138285
3962,0352;0,0137844
3962,9995;0,0137484
3963,9636;0,0137355
3964,9280;0,0137496
3965,8921;0,0137832
3966,8564;0,0138225
3967,8206;0,0138542
3968,7849;0,0138705
3969,7490;0,0138711
3970,7134;0,0138612
3971,6775;0,0138477
3972,6418;0,0138356
3973,6060;0,0138261
3974,5703;0,0138181
3975,5344;0,0138096
3976,4988;0,0137998
3977,4629;0,0137892
3978,4272;0,0137787
3979,3914;0,0137687
3980,3557;0,0137592
3981,3198;0,0137508
3982,2842;0,0137463
3983,2483;0,0137495
3984,2126;0,013763
3985,1768;0,0137859
3986,1411;0,0138123
3987,1052;0,0138345
3988,0696;0,0138462
3989,0337;0,0138465
3989,9980;0,0138392
3990,9622;0,0138304
3991,9265;0,0138235
3992,8906;0,0138178
3993,8550;0,0138102
3994,8191;0,013798
3995,7834;0,0137819
3996,7476;0,0137655
3997,7119;0,0137536
3998,6760;0,0137493
3999,6404;0,0137539
4000,6045;0,0137785

##### Extended Information
[Comments]
Sample name
Comment
Username
Division
Organization;UNIVERSIDAD INDUSTRIAL DE SANTANDER

[Detailed Information]
Creation date;4/02/2025 2:34 p.m.

Data array type;Linear data array
Horizontal axis;Wavenumber [cm-1]
Vertical axis;Abs
Start;399,193 cm-1
End;4000,6 cm-1
Data interval;0,964233 cm-1
Data points;3736    

[Measurement Information]
Model name;FT/IR-4X1typeA
Serial No.;A035162111

Accessory;ATR PRO 4X
Accessory S/N;A021162126
Incident angle;45 deg

Measurement date;4/02/2025 2:34 p.m.

Light source;Standard
Detector;TGS
Accumulation;Auto (75)
Resolution;4 cm-1
Zero filling;On
Apodization;Cosine
Gain;Auto (8)
Aperture;Auto (7 mm)
Scan speed;Auto (2 mm/sec)
Filter;Auto (12800 Hz)

