TITLE;
DATA TYPE;INFRARED SPECTRUM
ORIGIN;JASCO
OWNER;
DATE;25/01/29
TIME;14:00:04
SPECTROMETER/DATA SYSTEM;
LOCALE;9226
RESOLUTION;
DELTAX;0,964233
XUNITS;1/CM
YUNITS;ABSORBANCE
FIRSTX;  399,1927
LASTX; 4000,6047
NPOINTS;    3736
FIRSTY;     0,15725
MAXY;     0,21158
MINY;     0,01192
XYDATA
399,1927;0,157247
400,1569;0,157092
401,1211;0,156408
402,0854;0,1556
403,0496;0,154871
404,0138;0,154249
404,9781;0,153717
405,9423;0,15332
406,9065;0,153189
407,8708;0,153453
408,8350;0,154115
409,7992;0,154982
410,7635;0,155736
411,7277;0,156107
412,6919;0,156037
413,6562;0,155687
414,6204;0,155302
415,5846;0,155079
416,5489;0,155119
417,5131;0,155419
418,4773;0,155867
419,4416;0,156293
420,4058;0,15661
421,3700;0,156868
422,3343;0,157176
423,2985;0,157633
424,2627;0,158302
425,2270;0,159188
426,1912;0,160212
427,1554;0,16123
428,1197;0,162081
429,0839;0,162659
430,0481;0,162955
431,0124;0,163058
431,9766;0,163107
432,9408;0,163208
433,9051;0,163375
434,8693;0,163526
435,8335;0,163551
436,7978;0,163389
437,7620;0,163066
438,7262;0,162649
439,6905;0,162194
440,6547;0,161727
441,6189;0,16127
442,5832;0,160892
443,5474;0,160698
444,5116;0,160767
445,4759;0,161068
446,4401;0,161453
447,4043;0,161735
448,3686;0,161779
449,3328;0,161567
450,2970;0,161193
451,2613;0,160811
452,2255;0,160548
453,1897;0,160446
454,1540;0,160457
455,1182;0,160481
456,0824;0,160422
457,0467;0,160246
458,0109;0,16002
458,9751;0,159879
459,9394;0,159944
460,9036;0,160235
461,8678;0,160674
462,8321;0,161125
463,7963;0,16145
464,7605;0,161552
465,7248;0,161414
466,6890;0,161092
467,6532;0,160677
468,6175;0,160241
469,5817;0,159834
470,5459;0,159509
471,5102;0,159341
472,4744;0,1594
473,4386;0,15969
474,4029;0,160102
475,3671;0,160462
476,3313;0,160613
477,2956;0,160473
478,2598;0,160054
479,2240;0,159449
480,1883;0,158797
481,1525;0,158243
482,1167;0,157909
483,0810;0,157868
484,0452;0,158126
485,0094;0,15861
485,9737;0,159187
486,9379;0,15972
487,9021;0,160121
488,8664;0,160371
489,8306;0,1605
490,7948;0,160553
491,7591;0,160559
492,7233;0,160524
493,6875;0,160441
494,6518;0,160325
495,6160;0,160216
496,5802;0,160164
497,5445;0,160197
498,5087;0,160302
499,4729;0,160436
500,4372;0,160551
501,4014;0,160634
502,3656;0,160721
503,3299;0,160875
504,2941;0,161135
505,2583;0,161487
506,2226;0,161866
507,1868;0,162195
508,1510;0,162425
509,1153;0,162564
510,0795;0,162669
511,0437;0,162812
512,0080;0,163044
512,9722;0,16337
513,9365;0,163763
514,9007;0,164181
515,8649;0,164587
516,8292;0,164973
517,7934;0,165347
518,7576;0,165725
519,7219;0,166103
520,6861;0,166451
521,6503;0,16672
522,6146;0,166866
523,5788;0,16687
524,5430;0,166756
525,5073;0,166588
526,4715;0,166447
527,4357;0,166388
528,4000;0,166411
529,3642;0,166469
530,3284;0,1665
531,2927;0,166455
532,2569;0,166308
533,2211;0,166059
534,1854;0,165726
535,1496;0,165346
536,1138;0,164969
537,0781;0,16465
538,0423;0,164432
539,0065;0,164332
539,9708;0,164331
540,9350;0,164383
541,8992;0,164442
542,8635;0,164482
543,8277;0,164512
544,7919;0,164561
545,7562;0,164653
546,7204;0,164787
547,6846;0,164937
548,6489;0,16507
549,6131;0,16517
550,5773;0,165255
551,5416;0,16537
552,5058;0,165565
553,4700;0,165865
554,4343;0,166253
555,3985;0,166666
556,3627;0,167005
557,3270;0,167162
558,2912;0,167045
559,2554;0,166608
560,2197;0,165869
561,1839;0,164904
562,1481;0,163831
563,1124;0,162763
564,0766;0,16178
565,0408;0,160907
566,0051;0,160132
566,9693;0,159433
567,9335;0,158799
568,8978;0,158239
569,8620;0,157767
570,8262;0,157381
571,7905;0,157062
572,7547;0,156782
573,7189;0,156519
574,6832;0,156271
575,6474;0,156052
576,6116;0,15588
577,5759;0,155767
578,5401;0,155708
579,5043;0,155677
580,4686;0,155633
581,4328;0,155537
582,3970;0,155367
583,3613;0,155134
584,3255;0,154885
585,2897;0,154682
586,2540;0,154577
587,2182;0,154582
588,1824;0,154661
589,1467;0,154752
590,1109;0,154792
591,0751;0,154744
592,0394;0,154606
593,0036;0,154406
593,9678;0,154178
594,9321;0,153949
595,8963;0,153728
596,8605;0,153516
597,8248;0,153306
598,7890;0,153081
599,7532;0,152815
600,7175;0,152481
601,6817;0,152065
602,6459;0,15158
603,6102;0,151066
604,5744;0,150574
605,5386;0,150141
606,5029;0,149768
607,4671;0,149423
608,4313;0,149055
609,3956;0,148628
610,3598;0,148129
611,3240;0,147571
612,2883;0,146974
613,2525;0,14635
614,2167;0,145697
615,1810;0,145008
616,1452;0,14428
617,1094;0,143519
618,0737;0,142736
619,0379;0,141939
620,0021;0,141129
620,9664;0,140307
621,9306;0,139481
622,8948;0,138673
623,8591;0,13791
624,8233;0,137212
625,7875;0,136575
626,7518;0,135984
627,7160;0,135419
628,6802;0,134863
629,6445;0,134308
630,6087;0,133743
631,5729;0,133161
632,5372;0,132556
633,5014;0,131931
634,4656;0,131303
635,4299;0,130697
636,3941;0,130132
637,3583;0,129613
638,3226;0,129134
639,2868;0,128681
640,2510;0,128247
641,2153;0,127825
642,1795;0,127403
643,1437;0,126961
644,1080;0,126475
645,0722;0,125932
646,0364;0,125339
647,0007;0,124731
647,9649;0,124166
648,9291;0,123707
649,8934;0,123394
650,8576;0,123233
651,8218;0,123192
652,7861;0,12322
653,7503;0,123275
654,7145;0,123338
655,6788;0,123417
656,6430;0,123533
657,6072;0,123697
658,5715;0,123896
659,5357;0,124101
660,4999;0,12428
661,4642;0,124419
662,4284;0,124526
663,3926;0,124602
664,3569;0,124602
665,3211;0,124396
666,2853;0,123744
667,2496;0,122408
668,2138;0,120523
669,1780;0,1188
670,1423;0,117751
671,1065;0,117188
672,0707;0,116702
673,0350;0,116023
673,9992;0,115045
674,9634;0,113797
675,9277;0,112408
676,8919;0,11104
677,8561;0,109789
678,8204;0,108669
679,7846;0,10766
680,7488;0,106763
681,7131;0,106002
682,6773;0,105391
683,6415;0,104906
684,6058;0,104493
685,5700;0,104108
686,5342;0,103738
687,4985;0,103397
688,4627;0,103108
689,4269;0,102877
690,3912;0,102687
691,3554;0,10251
692,3196;0,10232
693,2839;0,102111
694,2481;0,101895
695,2123;0,101691
696,1766;0,101514
697,1408;0,101354
698,1050;0,101181
699,0693;0,100959
700,0335;0,100669
700,9977;0,100318
701,9620;0,0999436
702,9262;0,0995841
703,8904;0,0992609
704,8547;0,0989622
705,8189;0,0986532
706,7831;0,0982997
707,7474;0,0978888
708,7116;0,0974344
709,6758;0,0969634
710,6401;0,0964963
711,6043;0,0960343
712,5685;0,0955624
713,5328;0,0950619
714,4970;0,0945227
715,4612;0,0940063
716,4255;0,0933888
717,3897;0,092746
718,3539;0,0920899
719,3182;0,0914383
720,2824;0,0908113
721,2466;0,0902201
722,2109;0,089655
723,1751;0,089087
724,1393;0,0884827
725,1036;0,0878238
726,0678;0,0871191
727,0320;0,086401
727,9963;0,0857091
728,9605;0,0850704
729,9247;0,0844892
730,8890;0,0839528
731,8532;0,0834449
732,8174;0,0829572
733,7817;0,0824918
734,7459;0,0820561
735,7101;0,0816552
736,6744;0,0812859
737,6386;0,0809363
738,6028;0,0805888
739,5671;0,0802273
740,5313;0,0798451
741,4955;0,0794486
742,4598;0,0790543
743,4240;0,0786793
744,3882;0,0783309
745,3525;0,0780028
746,3167;0,0776808
747,2809;0,0773516
748,2452;0,0770106
749,2094;0,0766595
750,1736;0,0762999
751,1379;0,0759271
752,1021;0,0755322
753,0663;0,0751102
754,0306;0,0746675
754,9948;0,0742225
755,9590;0,0737974
756,9233;0,0734067
757,8875;0,0730496
758,8517;0,0727133
759,8160;0,0723818
760,7802;0,0720474
761,7444;0,0717151
762,7087;0,0713987
763,6729;0,0711132
764,6371;0,0708655
765,6014;0,0706517
766,5656;0,0704593
767,5298;0,0702723
768,4941;0,0700767
769,4583;0,069864
770,4225;0,0696331
771,3868;0,0693896
772,3510;0,0691438
773,3152;0,0689065
774,2795;0,0686831
775,2437;0,0684712
776,2079;0,0682605
777,1722;0,0680382
778,1364;0,0677953
779,1006;0,0675305
780,0649;0,0672495
781,0291;0,0669612
781,9933;0,0666732
782,9576;0,0663909
783,9218;0,0661176
784,8860;0,0658566
785,8503;0,0656103
786,8145;0,0653792
787,7787;0,0651605
788,7430;0,0649493
789,7072;0,0647418
790,6714;0,0645391
791,6357;0,0643482
792,5999;0,0641809
793,5641;0,0640477
794,5284;0,0639521
795,4926;0,0638861
796,4568;0,0638312
797,4211;0,0637642
798,3853;0,0636662
799,3495;0,0635302
800,3138;0,0633635
801,2780;0,0631837
802,2422;0,0630103
803,2065;0,0628571
804,1707;0,0627281
805,1349;0,0626196
806,0992;0,0625245
807,0634;0,0624368
808,0276;0,0623528
808,9919;0,0622705
809,9561;0,062188
810,9203;0,0621029
811,8846;0,062014
812,8488;0,0619226
813,8130;0,061833
814,7773;0,0617507
815,7415;0,0616799
816,7057;0,0616221
817,6700;0,0615772
818,6342;0,0615455
819,5984;0,0615299
820,5627;0,0615342
821,5269;0,0615595
822,4911;0,0616009
823,4554;0,0616485
824,4196;0,0616914
825,3839;0,0617235
826,3481;0,0617451
827,3123;0,0617603
828,2766;0,0617713
829,2408;0,0617738
830,2050;0,0617574
831,1693;0,0617105
832,1335;0,0616252
833,0977;0,0615003
834,0620;0,0613401
835,0262;0,0611525
835,9904;0,0609474
836,9547;0,0607359
837,9189;0,0605298
838,8831;0,060339
839,8474;0,0601686
840,8116;0,0600178
841,7758;0,0598827
842,7401;0,059761
843,7043;0,0596559
844,6685;0,0595748
845,6328;0,0595242
846,5970;0,0595027
847,5612;0,0594994
848,5255;0,0594981
849,4897;0,0594852
850,4539;0,0594567
851,4182;0,0594187
852,3824;0,059381
853,3466;0,0593501
854,3109;0,0593237
855,2751;0,0592932
856,2393;0,0592501
857,2036;0,0591932
858,1678;0,0591305
859,1320;0,0590752
860,0963;0,059039
861,0605;0,059026
862,0247;0,0590326
862,9890;0,0590511
863,9532;0,059076
864,9174;0,0591084
865,8817;0,0591575
866,8459;0,0592375
867,8101;0,0593629
868,7744;0,0595425
869,7386;0,0597752
870,7028;0,060048
871,6671;0,0603377
872,6313;0,0606166
873,5955;0,0608603
874,5598;0,0610548
875,5240;0,0612008
876,4882;0,0613115
877,4525;0,061407
878,4167;0,0615074
879,3809;0,061629
880,3452;0,0617841
881,3094;0,0619849
882,2736;0,062246
883,2379;0,0625841
884,2021;0,0630134
885,1663;0,0635388
886,1306;0,0641527
887,0948;0,0648351
888,0590;0,0655604
889,0233;0,0663051
889,9875;0,0670526
890,9517;0,0677933
891,9160;0,0685192
892,8802;0,0692171
893,8444;0,0698651
894,8087;0,0704329
895,7729;0,0708884
896,7371;0,0712049
897,7014;0,0713682
898,6656;0,07138
899,6298;0,0712566
900,5941;0,071024
901,5583;0,0707123
902,5225;0,0703509
903,4868;0,0699672
904,4510;0,0695873
905,4152;0,0692373
906,3795;0,0689416
907,3437;0,0687193
908,3079;0,0685793
909,2722;0,068518
910,2364;0,0685218
911,2007;0,068573
912,1649;0,0686572
913,1292;0,068768
914,0934;0,0689068
915,0576;0,0690794
916,0219;0,0692912
916,9861;0,0695429
917,9503;0,0698285
918,9146;0,0701363
919,8788;0,0704521
920,8430;0,0707626
921,8073;0,0710589
922,7715;0,0713381
923,7357;0,071601
924,7000;0,0718497
925,6642;0,0720847
926,6284;0,0723045
927,5927;0,0725079
928,5569;0,0726959
929,5211;0,0728726
930,4854;0,0730445
931,4496;0,0732182
932,4138;0,0734001
933,3781;0,073597
934,3423;0,0738178
935,3065;0,0740738
936,2708;0,074377
937,2350;0,0747371
938,1992;0,0751588
939,1635;0,0756419
940,1277;0,0761828
941,0919;0,0767768
942,0562;0,0774204
943,0204;0,0781118
943,9846;0,0788512
944,9489;0,0796391
945,9131;0,0804764
946,8773;0,0813628
947,8416;0,0822978
948,8058;0,0832814
949,7700;0,0843152
950,7343;0,085403
951,6985;0,0865503
952,6627;0,0877612
953,6270;0,0890371
954,5912;0,0903765
955,5554;0,0917762
956,5197;0,0932345
957,4839;0,0947509
958,4481;0,096325
959,4124;0,0979526
960,3766;0,0996242
961,3408;0,101326
962,3051;0,103043
963,2693;0,104764
964,2335;0,106484
965,1978;0,108207
966,1620;0,109943
967,1262;0,111708
968,0905;0,113523
969,0547;0,115413
970,0189;0,117401
970,9832;0,119508
971,9474;0,121753
972,9116;0,124151
973,8759;0,12672
974,8401;0,129477
975,8043;0,132434
976,7686;0,135585
977,7328;0,138903
978,6970;0,14233
979,6613;0,14579
980,6255;0,149188
981,5897;0,152435
982,5540;0,155452
983,5182;0,158183
984,4824;0,160601
985,4467;0,162705
986,4109;0,164521
987,3751;0,166091
988,3394;0,16746
989,3036;0,168668
990,2678;0,169741
991,2321;0,170696
992,1963;0,171543
993,1605;0,172293
994,1248;0,172968
995,0890;0,173591
996,0532;0,174186
997,0175;0,174772
997,9817;0,175356
998,9459;0,175944
999,9102;0,176545
1000,8744;0,17718
1001,8386;0,177876
1002,8029;0,178664
1003,7671;0,179569
1004,7313;0,180607
1005,6956;0,181788
1006,6598;0,183121
1007,6240;0,184613
1008,5883;0,186262
1009,5525;0,188051
1010,5167;0,189944
1011,4810;0,19189
1012,4452;0,193839
1013,4094;0,195742
1014,3737;0,197563
1015,3379;0,199271
1016,3021;0,200839
1017,2664;0,202246
1018,2306;0,20348
1019,1948;0,204548
1020,1591;0,205476
1021,1233;0,206304
1022,0875;0,207073
1023,0518;0,207815
1024,0160;0,208545
1024,9802;0,209259
1025,9445;0,209936
1026,9087;0,210545
1027,8729;0,211051
1028,8372;0,211412
1029,8014;0,211581
1030,7656;0,211503
1031,7299;0,211121
1032,6941;0,210388
1033,6583;0,209282
1034,6226;0,207827
1035,5868;0,206095
1036,5510;0,204202
1037,5153;0,20228
1038,4795;0,200459
1039,4437;0,198837
1040,4080;0,197476
1041,3722;0,196398
1042,3364;0,195589
1043,3007;0,195008
1044,2649;0,194594
1045,2291;0,194276
1046,1934;0,193977
1047,1576;0,193632
1048,1218;0,193192
1049,0861;0,192624
1050,0503;0,191915
1051,0145;0,191054
1051,9788;0,190036
1052,9430;0,188856
1053,9072;0,187512
1054,8715;0,186007
1055,8357;0,184345
1056,7999;0,182516
1057,7642;0,180495
1058,7284;0,178244
1059,6926;0,175737
1060,6569;0,172984
1061,6211;0,170043
1062,5853;0,167021
1063,5496;0,164041
1064,5138;0,161211
1065,4780;0,158596
1066,4423;0,156215
1067,4065;0,154049
1068,3707;0,152063
1069,3350;0,150221
1070,2992;0,148489
1071,2634;0,146835
1072,2277;0,145222
1073,1919;0,143611
1074,1561;0,141966
1075,1204;0,140261
1076,0846;0,138495
1077,0488;0,136685
1078,0131;0,134866
1078,9773;0,133086
1079,9415;0,13139
1080,9058;0,12982
1081,8700;0,128407
1082,8342;0,127167
1083,7985;0,126105
1084,7627;0,12521
1085,7269;0,124468
1086,6912;0,123856
1087,6554;0,123354
1088,6196;0,122946
1089,5839;0,122618
1090,5481;0,122366
1091,5123;0,122187
1092,4766;0,122083
1093,4408;0,122058
1094,4050;0,122111
1095,3693;0,122238
1096,3335;0,122426
1097,2977;0,122659
1098,2620;0,122916
1099,2262;0,123177
1100,1904;0,123424
1101,1547;0,123637
1102,1189;0,123795
1103,0831;0,12388
1104,0474;0,123878
1105,0116;0,123783
1105,9758;0,123601
1106,9401;0,123345
1107,9043;0,123024
1108,8685;0,122631
1109,8328;0,122143
1110,7970;0,121522
1111,7612;0,120731
1112,7255;0,119755
1113,6897;0,118615
1114,6539;0,117366
1115,6182;0,116087
1116,5824;0,114855
1117,5466;0,11372
1118,5109;0,112694
1119,4751;0,111744
1120,4393;0,110807
1121,4036;0,109807
1122,3678;0,108675
1123,3320;0,107364
1124,2963;0,105856
1125,2605;0,104159
1126,2247;0,102304
1127,1890;0,100328
1128,1532;0,0982726
1129,1174;0,0961765
1130,0817;0,0940715
1131,0459;0,091986
1132,0101;0,0899471
1132,9744;0,087984
1133,9386;0,0861295
1134,9028;0,084419
1135,8671;0,0828877
1136,8313;0,0815649
1137,7955;0,0804697
1138,7598;0,0796084
1139,7240;0,0789744
1140,6882;0,0785507
1141,6525;0,0783132
1142,6167;0,0782338
1143,5809;0,0782832
1144,5452;0,078434
1145,5094;0,078663
1146,4736;0,0789542
1147,4379;0,079299
1148,4021;0,0796948
1149,3663;0,080141
1150,3306;0,0806331
1151,2948;0,0811579
1152,2590;0,0816915
1153,2233;0,0821999
1154,1875;0,0826435
1155,1517;0,0829816
1156,1160;0,0831743
1157,0802;0,083182
1158,0444;0,0829626
1159,0087;0,0824702
1159,9729;0,0816588
1160,9371;0,080491
1161,9014;0,0789495
1162,8656;0,077047
1163,8298;0,0748284
1164,7941;0,0723667
1165,7583;0,0697539
1166,7225;0,0670898
1167,6868;0,0644708
1168,6510;0,0619805
1169,6152;0,0596811
1170,5795;0,057609
1171,5437;0,0557754
1172,5079;0,0541716
1173,4722;0,0527783
1174,4364;0,0515731
1175,4006;0,0505356
1176,3649;0,0496486
1177,3291;0,0488975
1178,2933;0,0482689
1179,2576;0,0477498
1180,2218;0,0473274
1181,1860;0,0469887
1182,1503;0,0467213
1183,1145;0,0465149
1184,0787;0,0463632
1185,0430;0,0462663
1186,0072;0,0462298
1186,9714;0,0462626
1187,9357;0,0463729
1188,8999;0,0465641
1189,8641;0,0468346
1190,8284;0,0471788
1191,7926;0,0475895
1192,7568;0,0480598
1193,7211;0,0485843
1194,6853;0,0491576
1195,6495;0,049775
1196,6138;0,0504311
1197,5780;0,0511192
1198,5422;0,0518311
1199,5065;0,0525449
1200,4707;0,053273
1201,4349;0,0539905
1202,3992;0,0546876
1203,3634;0,0553585
1204,3276;0,0560021
1205,2919;0,0566215
1206,2561;0,0572234
1207,2203;0,0578186
1208,1846;0,0584218
1209,1488;0,059051
1210,1130;0,059725
1211,0773;0,0604597
1212,0415;0,0612648
1213,0057;0,0621418
1213,9700;0,0630852
1214,9342;0,0640845
1215,8984;0,0651254
1216,8627;0,0661907
1217,8269;0,0672604
1218,7911;0,0683138
1219,7554;0,0693336
1220,7196;0,0703086
1221,6838;0,0712355
1222,6481;0,0721158
1223,6123;0,0729521
1224,5765;0,0737442
1225,5408;0,0744887
1226,5050;0,0751811
1227,4692;0,0758176
1228,4335;0,0763975
1229,3977;0,0769213
1230,3619;0,0773887
1231,3262;0,0777973
1232,2904;0,0781422
1233,2546;0,0784186
1234,2189;0,0786252
1235,1831;0,0787666
1236,1473;0,0788526
1237,1116;0,0788954
1238,0758;0,0789046
1239,0400;0,078884
1240,0043;0,0788305
1240,9685;0,0787371
1241,9327;0,0785969
1242,8970;0,078406
1243,8612;0,0781638
1244,8254;0,0778718
1245,7897;0,0775318
1246,7539;0,0771459
1247,7181;0,0767192
1248,6824;0,0762605
1249,6466;0,0757831
1250,6108;0,0753015
1251,5751;0,0748286
1252,5393;0,0743723
1253,5035;0,0739347
1254,4678;0,0735123
1255,4320;0,0730976
1256,3962;0,0726807
1257,3605;0,0722517
1258,3247;0,0718029
1259,2889;0,0713305
1260,2532;0,0708333
1261,2174;0,0703108
1262,1816;0,0697598
1263,1459;0,0691746
1264,1101;0,0685489
1265,0743;0,0678794
1266,0386;0,067168
1267,0028;0,0664206
1267,9670;0,0656451
1268,9313;0,0648488
1269,8955;0,0640382
1270,8597;0,0632195
1271,8240;0,0623992
1272,7882;0,0615841
1273,7524;0,0607806
1274,7167;0,0599942
1275,6809;0,05923
1276,6451;0,0584924
1277,6094;0,0577836
1278,5736;0,0571017
1279,5378;0,0564409
1280,5021;0,0557934
1281,4663;0,0551542
1282,4305;0,0545244
1283,3948;0,0539114
1284,3590;0,0533268
1285,3232;0,0527837
1286,2875;0,0522948
1287,2517;0,0518711
1288,2159;0,0515206
1289,1802;0,0512458
1290,1444;0,0510422
1291,1086;0,0508997
1292,0729;0,0508084
1293,0371;0,0507634
1294,0013;0,0507683
1294,9656;0,0508326
1295,9298;0,0509659
1296,8940;0,0511719
1297,8583;0,0514469
1298,8225;0,0517828
1299,7867;0,0521715
1300,7510;0,0526082
1301,7152;0,0530906
1302,6794;0,0536165
1303,6437;0,0541823
1304,6079;0,0547826
1305,5721;0,0554111
1306,5364;0,0560606
1307,5006;0,0567235
1308,4648;0,0573916
1309,4291;0,0580568
1310,3933;0,058711
1311,3575;0,0593452
1312,3218;0,0599468
1313,2860;0,0604976
1314,2502;0,060974
1315,2145;0,0613505
1316,1787;0,0616055
1317,1429;0,061729
1318,1072;0,0617286
1319,0714;0,0616314
1320,0356;0,0614752
1320,9999;0,0612956
1321,9641;0,0611145
1322,9283;0,0609398
1323,8926;0,0607722
1324,8568;0,0606127
1325,8210;0,0604662
1326,7853;0,0603386
1327,7495;0,0602309
1328,7137;0,060136
1329,6780;0,060039
1330,6422;0,0599221
1331,6064;0,0597708
1332,5707;0,059577
1333,5349;0,0593369
1334,4991;0,059045
1335,4634;0,05869
1336,4276;0,0582569
1337,3918;0,0577399
1338,3561;0,0571607
1339,3203;0,0565751
1340,2845;0,056051
1341,2488;0,0556305
1342,2130;0,0553134
1343,1772;0,0550721
1344,1415;0,054877
1345,1057;0,054712
1346,0699;0,0545797
1347,0342;0,0544969
1347,9984;0,0544852
1348,9626;0,0545602
1349,9269;0,0547243
1350,8911;0,0549653
1351,8553;0,0552631
1352,8196;0,0556001
1353,7838;0,0559699
1354,7480;0,0563787
1355,7123;0,056836
1356,6765;0,0573415
1357,6407;0,057879
1358,6050;0,0584205
1359,5692;0,0589382
1360,5334;0,0594148
1361,4977;0,0598508
1362,4619;0,0602629
1363,4261;0,0606702
1364,3904;0,0610793
1365,3546;0,0614814
1366,3188;0,0618604
1367,2831;0,0622008
1368,2473;0,0624892
1369,2115;0,0627114
1370,1758;0,0628473
1371,1400;0,0628685
1372,1042;0,0627445
1373,0685;0,0624598
1374,0327;0,0620345
1374,9969;0,0615236
1375,9612;0,0609798
1376,9254;0,0604121
1377,8896;0,0597854
1378,8539;0,059059
1379,8181;0,0582305
1380,7823;0,05735
1381,7466;0,0564909
1382,7108;0,0556972
1383,6750;0,0549526
1384,6393;0,0541982
1385,6035;0,0533875
1386,5677;0,0525482
1387,5320;0,0517918
1388,4962;0,0512355
1389,4604;0,0509111
1390,4247;0,0507608
1391,3889;0,0506946
1392,3531;0,0506393
1393,3174;0,050559
1394,2816;0,0504581
1395,2458;0,0503701
1396,2101;0,0503337
1397,1743;0,050373
1398,1385;0,0504943
1399,1028;0,0506928
1400,0670;0,0509558
1401,0313;0,0512634
1401,9955;0,0515917
1402,9597;0,0519211
1403,9240;0,0522458
1404,8882;0,0525774
1405,8524;0,052938
1406,8167;0,0533439
1407,7809;0,0537956
1408,7451;0,054285
1409,7094;0,0548073
1410,6736;0,0553668
1411,6378;0,0559699
1412,6021;0,0566126
1413,5663;0,057273
1414,5305;0,0579149
1415,4948;0,0584931
1416,4590;0,0589605
1417,4232;0,0592849
1418,3875;0,059479
1419,3517;0,0596027
1420,3159;0,0597066
1421,2802;0,0597815
1422,2444;0,0597778
1423,2086;0,0596546
1424,1729;0,0594083
1425,1371;0,0590645
1426,1013;0,0586421
1427,0656;0,0581243
1428,0298;0,0574702
1428,9940;0,0566699
1429,9583;0,0557937
1430,9225;0,0549666
1431,8867;0,0542757
1432,8510;0,0537016
1433,8152;0,0531319
1434,7794;0,0524367
1435,7437;0,0515796
1436,7079;0,0507021
1437,6721;0,0500397
1438,6364;0,049714
1439,6006;0,0496739
1440,5648;0,0498038
1441,5291;0,0500162
1442,4933;0,0502702
1443,4575;0,0505557
1444,4218;0,0508714
1445,3860;0,0512114
1446,3502;0,0515644
1447,3145;0,0519222
1448,2787;0,0522864
1449,2429;0,0526672
1450,2072;0,0530723
1451,1714;0,0534974
1452,1356;0,0539211
1453,0999;0,0542984
1454,0641;0,0545437
1455,0283;0,0545178
1455,9926;0,0540876
1456,9568;0,0533444
1457,9210;0,0526947
1458,8853;0,0524354
1459,8495;0,0524942
1460,8137;0,0526538
1461,7780;0,0527171
1462,7422;0,0525176
1463,7064;0,0519395
1464,6707;0,0510043
1465,6349;0,0499129
1466,5991;0,0488991
1467,5634;0,0480417
1468,5276;0,0472484
1469,4918;0,0463372
1470,4561;0,0451054
1471,4203;0,0434145
1472,3845;0,0413499
1473,3488;0,0392949
1474,3130;0,0376515
1475,2772;0,0365077
1476,2415;0,0357077
1477,2057;0,0350825
1478,1699;0,0345389
1479,1342;0,0340453
1480,0984;0,033601
1481,0626;0,0332207
1482,0269;0,0329255
1482,9911;0,0327315
1483,9553;0,0326361
1484,9196;0,0326117
1485,8838;0,0326117
1486,8480;0,0325913
1487,8123;0,0325447
1488,7765;0,03254
1489,7407;0,0326843
1490,7050;0,0330214
1491,6692;0,0335038
1492,6334;0,0340612
1493,5977;0,0346488
1494,5619;0,0352493
1495,5261;0,0358624
1496,4904;0,0365005
1497,4546;0,0371836
1498,4188;0,0379227
1499,3831;0,038706
1500,3473;0,039508
1501,3115;0,0403023
1502,2758;0,0410599
1503,2400;0,0417324
1504,2042;0,0422219
1505,1685;0,0423486
1506,1327;0,0419195
1507,0969;0,0410463
1508,0612;0,040248
1509,0254;0,0398366
1509,9896;0,0397031
1510,9539;0,039653
1511,9181;0,0395571
1512,8823;0,0393362
1513,8466;0,0389426
1514,8108;0,0383701
1515,7750;0,0376689
1516,7393;0,0369263
1517,7035;0,0362082
1518,6677;0,0355178
1519,6320;0,0348159
1520,5962;0,0340895
1521,5604;0,033398
1522,5247;0,0328346
1523,4889;0,0324455
1524,4531;0,0322098
1525,4174;0,032085
1526,3816;0,0320472
1527,3458;0,0320934
1528,3101;0,0322181
1529,2743;0,0323972
1530,2385;0,032592
1531,2028;0,032768
1532,1670;0,0329216
1533,1312;0,0330955
1534,0955;0,0333506
1535,0597;0,0337124
1536,0239;0,0341514
1536,9882;0,0346008
1537,9524;0,0349616
1538,9166;0,0350986
1539,8809;0,0349084
1540,8451;0,0345123
1541,8093;0,0342369
1542,7736;0,0342294
1543,7378;0,0343966
1544,7020;0,0346247
1545,6663;0,0348606
1546,6305;0,0350901
1547,5947;0,0353077
1548,5590;0,0355032
1549,5232;0,0356644
1550,4874;0,0357929
1551,4517;0,0359145
1552,4159;0,0360707
1553,3801;0,03629
1554,3444;0,0365626
1555,3086;0,0368281
1556,2728;0,036967
1557,2371;0,0368272
1558,2013;0,0364055
1559,1655;0,0360441
1560,1298;0,0360564
1561,0940;0,0363798
1562,0582;0,0368451
1563,0225;0,0373573
1563,9867;0,0378717
1564,9509;0,038356
1565,9152;0,0387801
1566,8794;0,0391314
1567,8436;0,0394399
1568,8079;0,0397822
1569,7721;0,0402296
1570,7363;0,0407874
1571,7006;0,0414029
1572,6648;0,0420168
1573,6290;0,0425914
1574,5933;0,0431162
1575,5575;0,0436127
1576,5217;0,0441301
1577,4860;0,0447075
1578,4502;0,0453453
1579,4144;0,0460248
1580,3787;0,0467312
1581,3429;0,0474528
1582,3071;0,048177
1583,2714;0,0488936
1584,2356;0,0496017
1585,1998;0,0503077
1586,1641;0,0510144
1587,1283;0,0517096
1588,0925;0,0523653
1589,0568;0,0529465
1590,0210;0,0534228
1590,9852;0,0537721
1591,9495;0,0539774
1592,9137;0,0540263
1593,8779;0,0539192
1594,8422;0,0536794
1595,8064;0,0533486
1596,7706;0,05297
1597,7349;0,0525701
1598,6991;0,0521551
1599,6633;0,0517223
1600,6276;0,0512738
1601,5918;0,0508251
1602,5560;0,0504018
1603,5203;0,0500262
1604,4845;0,0497032
1605,4487;0,0494146
1606,4130;0,0491293
1607,3772;0,0488256
1608,3414;0,0485165
1609,3057;0,0482545
1610,2699;0,0481006
1611,2341;0,0480783
1612,1984;0,0481558
1613,1626;0,0482576
1614,1268;0,0482901
1615,0911;0,0481866
1616,0553;0,0479768
1617,0195;0,0477994
1617,9838;0,0477787
1618,9480;0,0479167
1619,9122;0,0481323
1620,8765;0,0483388
1621,8407;0,0484829
1622,8049;0,0485612
1623,7692;0,0486163
1624,7334;0,0486971
1625,6976;0,0488186
1626,6619;0,0489663
1627,6261;0,0491306
1628,5903;0,0493254
1629,5546;0,0495751
1630,5188;0,0498859
1631,4830;0,0502283
1632,4473;0,050531
1633,4115;0,0506841
1634,3757;0,0505783
1635,3400;0,0502271
1636,3042;0,0498496
1637,2684;0,0496775
1638,2327;0,0497402
1639,1969;0,0499449
1640,1611;0,0502116
1641,1254;0,0505
1642,0896;0,0507821
1643,0538;0,0510088
1644,0181;0,0510923
1644,9823;0,0509413
1645,9465;0,0505769
1646,9108;0,0502158
1647,8750;0,050099
1648,8392;0,050264
1649,8035;0,0505569
1650,7677;0,0507167
1651,7319;0,0504059
1652,6962;0,0494198
1653,6604;0,0481494
1654,6246;0,0472984
1655,5889;0,0470071
1656,5531;0,0470071
1657,5173;0,0470618
1658,4816;0,04703
1659,4458;0,0468109
1660,4100;0,0463332
1661,3743;0,0456098
1662,3385;0,0447885
1663,3027;0,0440759
1664,2670;0,0435808
1665,2312;0,0432597
1666,1954;0,042972
1667,1597;0,0425473
1668,1239;0,0418589
1669,0881;0,0409277
1670,0524;0,0399583
1671,0166;0,0391709
1671,9808;0,0386039
1672,9451;0,0381281
1673,9093;0,0375894
1674,8735;0,0369261
1675,8378;0,0362136
1676,8020;0,0356006
1677,7662;0,0351849
1678,7305;0,0349577
1679,6947;0,0348309
1680,6589;0,0346656
1681,6232;0,0342777
1682,5874;0,0334975
1683,5516;0,032365
1684,5159;0,0312352
1685,4801;0,0304361
1686,4443;0,0299734
1687,4086;0,0296913
1688,3728;0,0294721
1689,3370;0,0292763
1690,3013;0,029113
1691,2655;0,0289985
1692,2297;0,0289272
1693,1940;0,0288651
1694,1582;0,0287634
1695,1224;0,0285843
1696,0867;0,0283245
1697,0509;0,0280162
1698,0151;0,0277055
1698,9794;0,0274324
1699,9436;0,0272307
1700,9078;0,0271282
1701,8721;0,0271367
1702,8363;0,0272466
1703,8005;0,027436
1704,7648;0,0276818
1705,7290;0,0279677
1706,6932;0,0282884
1707,6575;0,028647
1708,6217;0,0290496
1709,5859;0,0295009
1710,5502;0,0299995
1711,5144;0,0305334
1712,4786;0,0310751
1713,4429;0,0315818
1714,4071;0,0320054
1715,3713;0,0323204
1716,3356;0,032569
1717,2998;0,0328596
1718,2640;0,0332708
1719,2283;0,0337926
1720,1925;0,0343818
1721,1567;0,0350112
1722,1210;0,0356675
1723,0852;0,0363379
1724,0494;0,0370076
1725,0137;0,0376675
1725,9779;0,0383207
1726,9421;0,0389782
1727,9064;0,0396456
1728,8706;0,0403086
1729,8348;0,0409244
1730,7991;0,0414185
1731,7633;0,0417012
1732,7275;0,0417269
1733,6918;0,0415718
1734,6560;0,0413993
1735,6202;0,041307
1736,5845;0,0412645
1737,5487;0,0411752
1738,5129;0,0409401
1739,4772;0,0404982
1740,4414;0,0398565
1741,4056;0,0390887
1742,3699;0,0382829
1743,3341;0,0374843
1744,2983;0,0366875
1745,2626;0,0358593
1746,2268;0,0349506
1747,1910;0,0338924
1748,1553;0,032615
1749,1195;0,0311198
1750,0837;0,029544
1751,0480;0,028097
1752,0122;0,0269038
1752,9764;0,0259429
1753,9407;0,0251093
1754,9049;0,0243017
1755,8691;0,0234765
1756,8334;0,0226554
1757,7976;0,0218861
1758,7618;0,0211877
1759,7261;0,0205314
1760,6903;0,0198777
1761,6545;0,0192297
1762,6188;0,0186428
1763,5830;0,0181765
1764,5472;0,0178448
1765,5115;0,0176113
1766,4757;0,0174194
1767,4399;0,0172202
1768,4042;0,0169829
1769,3684;0,01669
1770,3326;0,0163328
1771,2969;0,0159241
1772,2611;0,0155183
1773,2253;0,0151936
1774,1896;0,0149976
1775,1538;0,0149204
1776,1180;0,0149142
1777,0823;0,0149239
1778,0465;0,0149082
1779,0107;0,014851
1779,9750;0,0147643
1780,9392;0,0146738
1781,9034;0,0145975
1782,8677;0,0145368
1783,8319;0,0144875
1784,7961;0,0144541
1785,7604;0,0144506
1786,7246;0,0144883
1787,6888;0,0145615
1788,6531;0,0146411
1789,6173;0,0146801
1790,5815;0,0146337
1791,5458;0,0144959
1792,5100;0,0143219
1793,4742;0,0141908
1794,4385;0,0141424
1795,4027;0,0141633
1796,3669;0,0142144
1797,3312;0,0142544
1798,2954;0,0142529
1799,2596;0,0142013
1800,2239;0,014117
1801,1881;0,0140337
1802,1523;0,0139801
1803,1166;0,0139663
1804,0808;0,0139876
1805,0450;0,0140316
1806,0093;0,0140831
1806,9735;0,0141243
1807,9377;0,014137
1808,9020;0,0141094
1809,8662;0,0140445
1810,8304;0,0139625
1811,7947;0,0138911
1812,7589;0,013848
1813,7231;0,0138329
1814,6874;0,013832
1815,6516;0,0138298
1816,6158;0,0138216
1817,5801;0,0138185
1818,5443;0,01384
1819,5085;0,0138985
1820,4728;0,013987
1821,4370;0,0140817
1822,4012;0,0141542
1823,3655;0,0141869
1824,3297;0,0141818
1825,2939;0,0141543
1826,2582;0,0141162
1827,2224;0,0140628
1828,1866;0,0139811
1829,1509;0,0138711
1830,1151;0,0137612
1831,0793;0,0136945
1832,0436;0,013696
1833,0078;0,0137572
1833,9720;0,0138458
1834,9363;0,0139255
1835,9005;0,0139737
1836,8647;0,0139941
1837,8290;0,0140126
1838,7932;0,0140555
1839,7574;0,0141267
1840,7217;0,0142016
1841,6859;0,0142371
1842,6501;0,0141968
1843,6144;0,0140838
1844,5786;0,0139506
1845,5428;0,0138605
1846,5071;0,0138363
1847,4713;0,0138558
1848,4355;0,0138812
1849,3998;0,0138855
1850,3640;0,0138627
1851,3282;0,0138265
1852,2925;0,0137986
1853,2567;0,0137943
1854,2209;0,0138142
1855,1852;0,013847
1856,1494;0,0138783
1857,1136;0,0138988
1858,0779;0,0139066
1859,0421;0,0139058
1860,0063;0,0139018
1860,9706;0,0138995
1861,9348;0,0139024
1862,8990;0,0139111
1863,8633;0,0139223
1864,8275;0,0139272
1865,7917;0,0139147
1866,7560;0,0138788
1867,7202;0,0138307
1868,6844;0,0137966
1869,6487;0,0137983
1870,6129;0,0138343
1871,5771;0,0138854
1872,5414;0,0139297
1873,5056;0,0139519
1874,4698;0,0139452
1875,4341;0,0139132
1876,3983;0,0138687
1877,3625;0,0138295
1878,3268;0,0138113
1879,2910;0,0138232
1880,2552;0,0138664
1881,2195;0,0139349
1882,1837;0,0140161
1883,1479;0,0140937
1884,1122;0,0141527
1885,0764;0,0141834
1886,0406;0,0141837
1887,0049;0,0141574
1887,9691;0,0141107
1888,9333;0,0140499
1889,8976;0,0139803
1890,8618;0,0139072
1891,8260;0,0138394
1892,7903;0,0137894
1893,7545;0,0137707
1894,7188;0,0137898
1895,6830;0,0138404
1896,6472;0,0139022
1897,6115;0,0139502
1898,5757;0,0139677
1899,5399;0,013955
1900,5042;0,0139271
1901,4684;0,0139044
1902,4326;0,0139007
1903,3969;0,0139154
1904,3611;0,0139353
1905,3253;0,0139439
1906,2896;0,0139326
1907,2538;0,0139061
1908,2180;0,0138797
1909,1823;0,0138706
1910,1465;0,0138885
1911,1107;0,0139312
1912,0750;0,0139893
1913,0392;0,0140523
1914,0034;0,0141116
1914,9677;0,0141598
1915,9319;0,014191
1916,8961;0,014203
1917,8604;0,0141988
1918,8246;0,0141828
1919,7888;0,0141555
1920,7531;0,0141121
1921,7173;0,0140465
1922,6815;0,0139608
1923,6458;0,0138703
1924,6100;0,0137997
1925,5742;0,01377
1926,5385;0,0137872
1927,5027;0,0138417
1928,4669;0,0139157
1929,4312;0,0139938
1930,3954;0,0140681
1931,3596;0,0141364
1932,3239;0,0141957
1933,2881;0,0142377
1934,2523;0,0142514
1935,2166;0,0142311
1936,1808;0,014183
1937,1450;0,0141236
1938,1093;0,0140706
1939,0735;0,0140335
1940,0377;0,0140099
1941,0020;0,0139895
1941,9662;0,0139633
1942,9304;0,0139301
1943,8947;0,0138965
1944,8589;0,0138705
1945,8231;0,0138553
1946,7874;0,0138465
1947,7516;0,0138346
1948,7158;0,0138101
1949,6801;0,0137706
1950,6443;0,013724
1951,6085;0,0136868
1952,5728;0,0136758
1953,5370;0,013698
1954,5012;0,0137457
1955,4655;0,0137998
1956,4297;0,0138406
1957,3939;0,0138582
1958,3582;0,0138568
1959,3224;0,0138496
1960,2866;0,0138502
1961,2509;0,0138653
1962,2151;0,0138935
1963,1793;0,0139275
1964,1436;0,0139536
1965,1078;0,01395
1966,0720;0,0138899
1967,0363;0,0137544
1968,0005;0,0135511
1968,9647;0,013323
1969,9290;0,0131353
1970,8932;0,013049
1971,8574;0,0130979
1972,8217;0,0132775
1973,7859;0,01355
1974,7501;0,0138583
1975,7144;0,0141422
1976,6786;0,0143523
1977,6428;0,0144582
1978,6071;0,0144538
1979,5713;0,0143564
1980,5355;0,0142
1981,4998;0,0140259
1982,4640;0,0138734
1983,4282;0,0137729
1984,3925;0,0137409
1985,3567;0,013777
1986,3209;0,0138657
1987,2852;0,0139825
1988,2494;0,0141049
1989,2136;0,014221
1990,1779;0,0143321
1991,1421;0,0144445
1992,1063;0,0145564
1993,0706;0,0146492
1994,0348;0,0146944
1994,9990;0,014672
1995,9633;0,0145859
1996,9275;0,0144673
1997,8917;0,014362
1998,8560;0,014309
1999,8202;0,0143231
2000,7844;0,014392
2001,7487;0,0144909
2002,7129;0,0145994
2003,6771;0,0147069
2004,6414;0,0148036
2005,6056;0,0148688
2006,5698;0,0148733
2007,5341;0,0148013
2008,4983;0,0146742
2009,4625;0,0145513
2010,4268;0,0145002
2011,3910;0,0145546
2012,3552;0,0146905
2013,3195;0,0148366
2014,2837;0,0149123
2015,2479;0,014873
2016,2122;0,014735
2017,1764;0,0145626
2018,1406;0,0144266
2019,1049;0,0143669
2020,0691;0,0143853
2021,0333;0,0144684
2021,9976;0,0146108
2022,9618;0,0148148
2023,9260;0,0150668
2024,8903;0,0153141
2025,8545;0,015471
2026,8187;0,015462
2027,7830;0,0152762
2028,7472;0,0149915
2029,7114;0,014746
2030,6757;0,0146662
2031,6399;0,0147999
2032,6041;0,0150946
2033,5684;0,015435
2034,5326;0,0157102
2035,4968;0,0158643
2036,4611;0,0159022
2037,4253;0,0158611
2038,3895;0,0157801
2039,3538;0,0156878
2040,3180;0,015606
2041,2822;0,0155549
2042,2465;0,0155491
2043,2107;0,0155913
2044,1749;0,015671
2045,1392;0,0157722
2046,1034;0,0158812
2047,0676;0,0159876
2048,0320;0,0160778
2048,9961;0,0161309
2049,9604;0,0161254
2050,9246;0,0160529
2051,8889;0,0159288
2052,8530;0,0157904
2053,8174;0,0156822
2054,7815;0,0156358
2055,7458;0,0156533
2056,7100;0,0157071
2057,6743;0,0157573
2058,6384;0,015776
2059,6028;0,0157635
2060,5669;0,015747
2061,5313;0,0157632
2062,4954;0,0158363
2063,4597;0,0159617
2064,4238;0,0161067
2065,3882;0,0162269
2066,3523;0,01629
2067,3167;0,0162903
2068,2808;0,0162487
2069,2451;0,0161969
2070,2092;0,0161592
2071,1736;0,0161414
2072,1377;0,0161319
2073,1021;0,0161117
2074,0662;0,0160671
2075,0305;0,0159969
2075,9946;0,0159132
2076,9590;0,0158357
2077,9231;0,0157855
2078,8875;0,0157786
2079,8516;0,0158199
2080,8159;0,0158992
2081,7800;0,0159926
2082,7444;0,0160701
2083,7085;0,0161086
2084,6729;0,0161027
2085,6370;0,016067
2086,6013;0,0160267
2087,5654;0,0160022
2088,5298;0,0159984
2089,4939;0,016005
2090,4583;0,0160086
2091,4224;0,0160062
2092,3867;0,0160098
2093,3508;0,0160386
2094,3152;0,0161033
2095,2793;0,0161944
2096,2437;0,0162837
2097,2078;0,0163392
2098,1721;0,0163418
2099,1362;0,016295
2100,1006;0,0162204
2101,0647;0,0161478
2102,0291;0,0161004
2102,9932;0,0160896
2103,9575;0,0161133
2104,9216;0,0161597
2105,8860;0,0162135
2106,8501;0,016261
2107,8145;0,0162947
2108,7786;0,0163134
2109,7429;0,0163204
2110,7070;0,0163194
2111,6714;0,0163135
2112,6355;0,0163056
2113,5999;0,0162999
2114,5640;0,0163016
2115,5283;0,0163138
2116,4924;0,0163338
2117,4568;0,0163529
2118,4209;0,0163613
2119,3853;0,016355
2120,3494;0,0163402
2121,3137;0,0163293
2122,2778;0,0163323
2123,2422;0,0163476
2124,2063;0,016362
2125,1707;0,0163591
2126,1348;0,0163323
2127,0991;0,0162918
2128,0632;0,0162606
2129,0276;0,0162616
2129,9917;0,0163042
2130,9561;0,0163794
2131,9202;0,0164655
2132,8845;0,0165399
2133,8486;0,0165885
2134,8130;0,0166091
2135,7771;0,016608
2136,7415;0,0165968
2137,7056;0,0165928
2138,6699;0,0166187
2139,6340;0,016697
2140,5984;0,0168374
2141,5625;0,0170238
2142,5269;0,0172137
2143,4910;0,0173553
2144,4553;0,0174131
2145,4194;0,0173861
2146,3838;0,017303
2147,3479;0,0171984
2148,3123;0,0170875
2149,2764;0,0169599
2150,2407;0,0167986
2151,2048;0,016608
2152,1692;0,0164286
2153,1333;0,016328
2154,0977;0,0163724
2155,0618;0,0165977
2156,0261;0,0169903
2156,9902;0,0174841
2157,9546;0,0179763
2158,9187;0,0183653
2159,8831;0,018592
2160,8472;0,0186562
2161,8115;0,0185966
2162,7756;0,0184587
2163,7400;0,018276
2164,7041;0,0180697
2165,6685;0,0178581
2166,6326;0,0176651
2167,5969;0,0175176
2168,5610;0,0174343
2169,5254;0,0174127
2170,4895;0,0174281
2171,4539;0,0174482
2172,4180;0,0174532
2173,3823;0,0174483
2174,3464;0,0174549
2175,3108;0,0174877
2176,2749;0,0175345
2177,2393;0,0175607
2178,2034;0,0175349
2179,1677;0,0174562
2180,1318;0,0173605
2181,0962;0,0173007
2182,0603;0,0173131
2183,0247;0,0173974
2183,9888;0,0175217
2184,9531;0,0176465
2185,9172;0,0177456
2186,8816;0,017809
2187,8457;0,0178339
2188,8101;0,0178158
2189,7742;0,0177514
2190,7385;0,0176463
2191,7026;0,0175202
2192,6670;0,0174012
2193,6311;0,0173123
2194,5955;0,0172626
2195,5596;0,0172476
2196,5239;0,0172575
2197,4880;0,0172847
2198,4524;0,0173251
2199,4165;0,0173726
2200,3809;0,0174156
2201,3450;0,017439
2202,3093;0,0174333
2203,2734;0,0174009
2204,2378;0,0173548
2205,2019;0,0173106
2206,1663;0,017277
2207,1304;0,0172512
2208,0947;0,0172238
2209,0588;0,0171857
2210,0232;0,0171356
2210,9873;0,0170809
2211,9517;0,0170352
2212,9158;0,0170135
2213,8801;0,0170256
2214,8442;0,0170714
2215,8086;0,0171369
2216,7727;0,0171968
2217,7371;0,0172235
2218,7012;0,0172
2219,6655;0,0171294
2220,6296;0,0170332
2221,5940;0,0169389
2222,5581;0,0168651
2223,5225;0,0168136
2224,4866;0,0167744
2225,4509;0,0167383
2226,4150;0,0167063
2227,3794;0,0166885
2228,3435;0,0166949
2229,3079;0,0167262
2230,2720;0,0167741
2231,2363;0,0168285
2232,2004;0,0168845
2233,1648;0,0169417
2234,1289;0,0169961
2235,0933;0,017035
2236,0574;0,0170406
2237,0217;0,0170033
2237,9858;0,0169328
2238,9502;0,0168577
2239,9143;0,0168106
2240,8787;0,0168093
2241,8428;0,0168468
2242,8071;0,016898
2243,7712;0,0169359
2244,7356;0,0169467
2245,6997;0,0169324
2246,6641;0,0169039
2247,6282;0,0168704
2248,5925;0,0168351
2249,5566;0,0167988
2250,5210;0,0167649
2251,4851;0,0167408
2252,4495;0,016735
2253,4136;0,0167508
2254,3779;0,0167838
2255,3420;0,016823
2256,3064;0,0168543
2257,2705;0,0168629
2258,2349;0,0168371
2259,1990;0,0167719
2260,1633;0,0166738
2261,1274;0,0165633
2262,0918;0,0164706
2263,0559;0,0164243
2264,0203;0,0164376
2264,9844;0,0164999
2265,9487;0,0165794
2266,9128;0,0166372
2267,8772;0,0166448
2268,8413;0,016596
2269,8057;0,0165098
2270,7698;0,0164206
2271,7341;0,0163629
2272,6982;0,0163562
2273,6626;0,0163957
2274,6267;0,016456
2275,5911;0,0165038
2276,5552;0,0165169
2277,5195;0,016496
2278,4836;0,0164642
2279,4480;0,0164527
2280,4121;0,0164823
2281,3765;0,0165513
2282,3406;0,0166377
2283,3049;0,0167121
2284,2690;0,016753
2285,2334;0,0167553
2286,1975;0,0167284
2287,1619;0,0166878
2288,1260;0,0166455
2289,0903;0,0166052
2290,0544;0,0165638
2291,0188;0,0165165
2291,9829;0,0164623
2292,9473;0,0164062
2293,9114;0,0163575
2294,8757;0,0163261
2295,8398;0,0163183
2296,8042;0,016335
2297,7683;0,0163723
2298,7327;0,0164239
2299,6968;0,0164834
2300,6611;0,0165452
2301,6252;0,0166035
2302,5896;0,0166517
2303,5537;0,0166825
2304,5181;0,016691
2305,4822;0,0166788
2306,4465;0,016656
2307,4106;0,0166405
2308,3750;0,0166515
2309,3391;0,0167024
2310,3035;0,0167949
2311,2676;0,0169179
2312,2319;0,0170523
2313,1960;0,0171782
2314,1604;0,017282
2315,1245;0,0173604
2316,0889;0,0174196
2317,0530;0,0174704
2318,0173;0,0175211
2318,9814;0,0175704
2319,9458;0,0176038
2320,9099;0,0175976
2321,8743;0,0175313
2322,8384;0,0174019
2323,8027;0,0172304
2324,7668;0,0170536
2325,7312;0,0169086
2326,6953;0,0168174
2327,6597;0,016781
2328,6238;0,0167819
2329,5881;0,0167937
2330,5522;0,0167923
2331,5166;0,0167653
2332,4807;0,0167141
2333,4451;0,0166486
2334,4092;0,0165774
2335,3735;0,0165003
2336,3376;0,0164073
2337,3020;0,0162864
2338,2661;0,0161336
2339,2305;0,0159581
2340,1946;0,0157827
2341,1589;0,0156441
2342,1230;0,0155917
2343,0874;0,0156632
2344,0515;0,0158329
2345,0159;0,016006
2345,9800;0,016104
2346,9443;0,0161359
2347,9084;0,0161701
2348,8728;0,0162674
2349,8369;0,016438
2350,8013;0,0166381
2351,7654;0,0168001
2352,7297;0,0168865
2353,6938;0,0169283
2354,6582;0,0169946
2355,6223;0,0171106
2356,5867;0,0172242
2357,5508;0,0172561
2358,5151;0,0171626
2359,4792;0,0169564
2360,4436;0,0166857
2361,4077;0,0164047
2362,3721;0,0161596
2363,3362;0,0159861
2364,3005;0,0159048
2365,2646;0,0159181
2366,2290;0,0160129
2367,1931;0,0161696
2368,1575;0,0163649
2369,1216;0,016571
2370,0859;0,0167577
2371,0500;0,0169018
2372,0144;0,016996
2372,9785;0,0170495
2373,9429;0,0170784
2374,9070;0,017093
2375,8713;0,0170928
2376,8354;0,017071
2377,7998;0,0170243
2378,7639;0,0169604
2379,7283;0,016897
2380,6924;0,0168546
2381,6567;0,0168471
2382,6208;0,0168765
2383,5852;0,0169347
2384,5493;0,0170096
2385,5137;0,0170914
2386,4778;0,0171757
2387,4421;0,0172616
2388,4063;0,0173484
2389,3706;0,0174324
2390,3347;0,0175068
2391,2991;0,0175644
2392,2632;0,0176013
2393,2275;0,0176188
2394,1917;0,0176231
2395,1560;0,0176223
2396,1201;0,0176242
2397,0845;0,0176335
2398,0486;0,0176503
2399,0129;0,0176713
2399,9771;0,0176918
2400,9414;0,0177087
2401,9055;0,0177233
2402,8699;0,0177406
2403,8340;0,0177656
2404,7983;0,0177991
2405,7625;0,0178347
2406,7268;0,0178622
2407,6909;0,0178733
2408,6553;0,0178683
2409,6194;0,0178568
2410,5837;0,0178536
2411,5479;0,0178705
2412,5122;0,0179112
2413,4763;0,0179696
2414,4407;0,0180339
2415,4048;0,0180919
2416,3691;0,0181352
2417,3333;0,0181604
2418,2976;0,0181688
2419,2617;0,0181646
2420,2261;0,0181539
2421,1902;0,0181435
2422,1545;0,0181397
2423,1187;0,0181466
2424,0830;0,0181649
2425,0471;0,0181923
2426,0115;0,0182241
2426,9756;0,0182552
2427,9399;0,0182817
2428,9041;0,0183023
2429,8684;0,0183188
2430,8325;0,0183357
2431,7969;0,0183588
2432,7610;0,0183922
2433,7253;0,0184357
2434,6895;0,018484
2435,6538;0,0185283
2436,6179;0,0185606
2437,5823;0,0185778
2438,5464;0,0185843
2439,5107;0,0185894
2440,4749;0,0186021
2441,4392;0,0186263
2442,4033;0,018658
2443,3677;0,0186892
2444,3318;0,0187125
2445,2961;0,0187262
2446,2603;0,0187344
2447,2246;0,0187439
2448,1887;0,0187591
2449,1531;0,0187798
2450,1172;0,0188025
2451,0815;0,0188237
2452,0457;0,0188423
2453,0100;0,0188599
2453,9741;0,0188782
2454,9385;0,0188981
2455,9026;0,0189184
2456,8669;0,018938
2457,8311;0,0189558
2458,7954;0,0189708
2459,7595;0,0189817
2460,7239;0,018987
2461,6880;0,0189874
2462,6523;0,0189866
2463,6165;0,0189916
2464,5808;0,019009
2465,5449;0,0190408
2466,5093;0,0190826
2467,4734;0,0191252
2468,4377;0,0191595
2469,4019;0,0191812
2470,3662;0,0191919
2471,3303;0,0191974
2472,2947;0,0192039
2473,2588;0,0192151
2474,2231;0,019231
2475,1873;0,0192493
2476,1516;0,0192663
2477,1157;0,0192785
2478,0801;0,0192844
2479,0442;0,0192848
2480,0085;0,0192842
2480,9727;0,019289
2481,9370;0,0193053
2482,9011;0,0193348
2483,8655;0,0193737
2484,8296;0,0194136
2485,7939;0,0194455
2486,7581;0,0194647
2487,7224;0,0194724
2488,6865;0,0194751
2489,6509;0,0194805
2490,6150;0,0194941
2491,5793;0,019517
2492,5435;0,0195461
2493,5078;0,0195765
2494,4719;0,0196041
2495,4363;0,0196268
2496,4004;0,0196447
2497,3647;0,0196586
2498,3289;0,0196694
2499,2932;0,0196782
2500,2573;0,0196863
2501,2217;0,0196957
2502,1858;0,0197087
2503,1501;0,0197269
2504,1143;0,0197499
2505,0786;0,0197758
2506,0427;0,0198026
2507,0071;0,0198293
2507,9712;0,0198563
2508,9355;0,0198838
2509,8997;0,0199106
2510,8640;0,0199331
2511,8281;0,0199479
2512,7925;0,0199533
2513,7566;0,0199512
2514,7209;0,0199459
2515,6851;0,0199412
2516,6494;0,019939
2517,6135;0,0199391
2518,5779;0,0199414
2519,5420;0,0199477
2520,5063;0,019961
2521,4705;0,0199826
2522,4348;0,0200094
2523,3989;0,0200345
2524,3633;0,0200509
2525,3274;0,0200555
2526,2917;0,0200514
2527,2559;0,0200456
2528,2202;0,0200442
2529,1843;0,0200484
2530,1487;0,0200552
2531,1128;0,0200602
2532,0771;0,0200618
2533,0413;0,0200617
2534,0056;0,0200635
2534,9697;0,0200686
2535,9341;0,0200756
2536,8982;0,0200816
2537,8625;0,020086
2538,8267;0,0200915
2539,7910;0,0201027
2540,7551;0,0201221
2541,7195;0,0201469
2542,6836;0,0201701
2543,6479;0,0201838
2544,6121;0,0201847
2545,5764;0,0201761
2546,5405;0,0201667
2547,5049;0,0201663
2548,4690;0,0201811
2549,4333;0,0202112
2550,3975;0,0202503
2551,3618;0,0202891
2552,3259;0,0203177
2553,2903;0,0203304
2554,2544;0,0203275
2555,2188;0,0203161
2556,1829;0,0203071
2557,1472;0,0203099
2558,1113;0,0203278
2559,0757;0,0203554
2560,0398;0,0203812
2561,0042;0,0203939
2561,9683;0,0203885
2562,9326;0,0203693
2563,8967;0,0203471
2564,8611;0,0203339
2565,8252;0,020337
2566,7896;0,0203575
2567,7537;0,0203916
2568,7180;0,020433
2569,6821;0,0204754
2570,6465;0,0205129
2571,6106;0,0205403
2572,5750;0,0205539
2573,5391;0,0205538
2574,5034;0,0205448
2575,4675;0,0205344
2576,4319;0,0205296
2577,3960;0,0205333
2578,3604;0,0205432
2579,3245;0,0205543
2580,2888;0,0205625
2581,2529;0,0205679
2582,2173;0,0205745
2583,1814;0,0205871
2584,1458;0,0206084
2585,1099;0,0206369
2586,0742;0,0206673
2587,0383;0,0206933
2588,0027;0,0207098
2588,9668;0,020716
2589,9312;0,0207159
2590,8953;0,0207167
2591,8596;0,0207258
2592,8237;0,0207472
2593,7881;0,0207793
2594,7522;0,0208156
2595,7166;0,0208487
2596,6807;0,0208739
2597,6450;0,0208917
2598,6091;0,0209059
2599,5735;0,020921
2600,5376;0,0209389
2601,5020;0,0209592
2602,4661;0,0209808
2603,4304;0,0210037
2604,3945;0,0210291
2605,3589;0,0210579
2606,3230;0,0210885
2607,2874;0,0211173
2608,2515;0,0211402
2609,2158;0,0211556
2610,1799;0,0211652
2611,1443;0,0211736
2612,1084;0,0211852
2613,0728;0,0212033
2614,0369;0,0212286
2615,0012;0,0212597
2615,9653;0,0212942
2616,9297;0,0213285
2617,8938;0,0213595
2618,8582;0,0213851
2619,8223;0,0214051
2620,7866;0,0214209
2621,7507;0,0214352
2622,7151;0,0214502
2623,6792;0,021467
2624,6436;0,0214858
2625,6077;0,0215064
2626,5720;0,0215285
2627,5361;0,0215513
2628,5005;0,0215733
2629,4646;0,0215927
2630,4290;0,0216088
2631,3931;0,0216239
2632,3574;0,0216429
2633,3215;0,0216711
2634,2859;0,0217109
2635,2500;0,0217597
2636,2144;0,0218104
2637,1785;0,0218549
2638,1428;0,0218879
2639,1069;0,0219097
2640,0713;0,0219252
2641,0354;0,0219404
2641,9998;0,0219591
2642,9639;0,0219814
2643,9282;0,0220054
2644,8923;0,0220296
2645,8567;0,0220543
2646,8208;0,022082
2647,7852;0,0221148
2648,7493;0,0221522
2649,7136;0,0221907
2650,6777;0,0222254
2651,6421;0,0222529
2652,6062;0,0222723
2653,5706;0,0222857
2654,5347;0,0222966
2655,4990;0,0223079
2656,4631;0,0223214
2657,4275;0,0223385
2658,3916;0,0223602
2659,3560;0,0223874
2660,3201;0,0224197
2661,2844;0,0224548
2662,2485;0,0224891
2663,2129;0,0225188
2664,1770;0,0225424
2665,1414;0,0225608
2666,1055;0,0225768
2667,0698;0,0225935
2668,0339;0,0226123
2668,9983;0,0226324
2669,9624;0,022652
2670,9268;0,0226698
2671,8909;0,0226863
2672,8552;0,0227038
2673,8193;0,0227253
2674,7837;0,0227527
2675,7478;0,0227854
2676,7122;0,0228204
2677,6763;0,0228535
2678,6406;0,0228822
2679,6047;0,0229067
2680,5691;0,0229303
2681,5332;0,0229575
2682,4976;0,0229911
2683,4617;0,0230304
2684,4260;0,0230718
2685,3901;0,0231107
2686,3545;0,0231443
2687,3186;0,0231734
2688,2830;0,0232006
2689,2471;0,0232293
2690,2114;0,0232605
2691,1755;0,0232934
2692,1399;0,0233259
2693,1040;0,0233566
2694,0684;0,0233853
2695,0325;0,0234132
2695,9968;0,0234419
2696,9609;0,023472
2697,9253;0,0235033
2698,8894;0,0235347
2699,8538;0,0235655
2700,8179;0,0235952
2701,7822;0,0236244
2702,7463;0,0236544
2703,7107;0,0236864
2704,6748;0,0237213
2705,6392;0,0237595
2706,6033;0,0238005
2707,5676;0,0238435
2708,5317;0,0238874
2709,4961;0,0239303
2710,4602;0,02397
2711,4246;0,0240045
2712,3887;0,024033
2713,3530;0,0240574
2714,3171;0,0240821
2715,2815;0,0241121
2716,2456;0,0241506
2717,2100;0,0241964
2718,1741;0,0242446
2719,1384;0,0242887
2720,1025;0,0243238
2721,0669;0,024349
2722,0310;0,0243669
2722,9954;0,0243819
2723,9595;0,0243982
2724,9238;0,0244188
2725,8879;0,0244456
2726,8523;0,0244796
2727,8164;0,024521
2728,7808;0,024568
2729,7449;0,0246167
2730,7092;0,0246622
2731,6733;0,0246998
2732,6377;0,024727
2733,6018;0,0247445
2734,5662;0,0247552
2735,5303;0,0247637
2736,4946;0,0247742
2737,4587;0,02479
2738,4231;0,0248132
2739,3872;0,0248443
2740,3516;0,0248821
2741,3157;0,0249242
2742,2800;0,0249665
2743,2441;0,0250047
2744,2085;0,0250345
2745,1726;0,0250535
2746,1370;0,0250622
2747,1011;0,0250643
2748,0654;0,025066
2749,0295;0,0250741
2749,9939;0,0250937
2750,9580;0,0251264
2751,9224;0,0251701
2752,8865;0,0252195
2753,8508;0,0252683
2754,8149;0,0253118
2755,7793;0,025348
2756,7434;0,0253784
2757,7078;0,0254068
2758,6719;0,0254374
2759,6362;0,0254727
2760,6003;0,0255124
2761,5647;0,0255538
2762,5288;0,0255938
2763,4932;0,0256305
2764,4573;0,0256652
2765,4216;0,0257011
2766,3857;0,0257423
2767,3501;0,0257909
2768,3142;0,0258459
2769,2786;0,0259027
2770,2427;0,025955
2771,2070;0,0259978
2772,1711;0,0260303
2773,1355;0,0260572
2774,0996;0,0260871
2775,0640;0,0261283
2776,0281;0,026185
2776,9924;0,0262547
2777,9565;0,0263298
2778,9209;0,026402
2779,8850;0,0264666
2780,8494;0,026524
2781,8135;0,0265781
2782,7778;0,026633
2783,7419;0,0266896
2784,7063;0,0267457
2785,6704;0,0267983
2786,6348;0,0268459
2787,5989;0,0268911
2788,5632;0,0269391
2789,5273;0,0269967
2790,4917;0,0270684
2791,4558;0,0271551
2792,4202;0,0272529
2793,3843;0,0273545
2794,3486;0,027452
2795,3127;0,0275403
2796,2771;0,0276189
2797,2412;0,0276922
2798,2056;0,027766
2799,1697;0,0278449
2800,1340;0,0279301
2801,0981;0,0280205
2802,0625;0,0281151
2803,0266;0,0282149
2803,9910;0,0283219
2804,9551;0,0284369
2805,9194;0,0285569
2806,8835;0,0286758
2807,8479;0,0287878
2808,8120;0,0288913
2809,7764;0,0289908
2810,7405;0,0290943
2811,7048;0,0292091
2812,6689;0,0293379
2813,6333;0,0294782
2814,5974;0,0296245
2815,5618;0,0297731
2816,5259;0,029924
2817,4902;0,0300807
2818,4543;0,0302474
2819,4187;0,030426
2820,3828;0,0306151
2821,3472;0,0308098
2822,3113;0,0310052
2823,2756;0,031198
2824,2397;0,031389
2825,2041;0,0315826
2826,1682;0,0317857
2827,1326;0,0320054
2828,0967;0,0322468
2829,0610;0,0325114
2830,0251;0,0327971
2830,9895;0,0330998
2831,9536;0,0334148
2832,9180;0,0337388
2833,8821;0,0340708
2834,8464;0,0344119
2835,8105;0,034765
2836,7749;0,0351351
2837,7390;0,0355298
2838,7034;0,0359596
2839,6675;0,0364378
2840,6318;0,0369787
2841,5959;0,0375938
2842,5603;0,0382885
2843,5244;0,0390572
2844,4888;0,0398813
2845,4529;0,0407294
2846,4172;0,0415592
2847,3813;0,0423236
2848,3457;0,042978
2849,3098;0,0434871
2850,2742;0,0438313
2851,2383;0,0440084
2852,2026;0,0440326
2853,1667;0,0439299
2854,1311;0,0437325
2855,0952;0,0434726
2856,0596;0,0431789
2857,0237;0,0428747
2857,9880;0,042579
2858,9521;0,0423076
2859,9165;0,0420739
2860,8806;0,041888
2861,8450;0,0417552
2862,8091;0,0416757
2863,7734;0,0416461
2864,7375;0,0416614
2865,7019;0,0417169
2866,6660;0,0418075
2867,6304;0,041925
2868,5945;0,0420563
2869,5588;0,0421841
2870,5229;0,0422911
2871,4873;0,0423659
2872,4514;0,0424065
2873,4158;0,0424209
2874,3799;0,0424229
2875,3442;0,0424264
2876,3083;0,042442
2877,2727;0,0424748
2878,2368;0,0425257
2879,2012;0,0425934
2880,1653;0,0426765
2881,1296;0,0427739
2882,0938;0,0428855
2883,0581;0,0430108
2884,0222;0,043149
2884,9866;0,0432977
2885,9507;0,0434533
2886,9150;0,043613
2887,8792;0,0437755
2888,8435;0,043942
2889,8076;0,0441144
2890,7720;0,0442934
2891,7361;0,044477
2892,7004;0,0446612
2893,6646;0,044843
2894,6289;0,0450224
2895,5930;0,0452034
2896,5574;0,045391
2897,5215;0,0455887
2898,4858;0,0457957
2899,4500;0,0460078
2900,4143;0,0462203
2901,3784;0,0464306
2902,3428;0,0466402
2903,3069;0,0468543
2904,2712;0,0470807
2905,2354;0,0473276
2906,1997;0,0476036
2907,1638;0,0479165
2908,1282;0,0482746
2909,0923;0,0486852
2910,0566;0,0491541
2911,0208;0,0496813
2911,9851;0,050258
2912,9492;0,0508636
2913,9136;0,0514674
2914,8777;0,0520335
2915,8420;0,0525292
2916,8062;0,0529321
2917,7705;0,0532319
2918,7346;0,0534286
2919,6990;0,0535268
2920,6631;0,0535311
2921,6274;0,0534452
2922,5916;0,0532731
2923,5559;0,0530214
2924,5200;0,0526987
2925,4844;0,0523149
2926,4485;0,051879
2927,4128;0,0513994
2928,3770;0,0508854
2929,3413;0,0503486
2930,3054;0,0498013
2931,2698;0,0492536
2932,2339;0,0487103
2933,1982;0,0481705
2934,1624;0,0476306
2935,1267;0,0470883
2936,0908;0,0465461
2937,0552;0,0460101
2938,0193;0,0454877
2938,9836;0,044984
2939,9478;0,0445004
2940,9121;0,044036
2941,8762;0,0435899
2942,8406;0,0431632
2943,8047;0,0427596
2944,7690;0,0423843
2945,7332;0,0420425
2946,6975;0,0417376
2947,6616;0,0414709
2948,6260;0,0412409
2949,5901;0,0410428
2950,5544;0,0408691
2951,5186;0,0407103
2952,4829;0,0405568
2953,4470;0,0404004
2954,4114;0,040235
2955,3755;0,0400559
2956,3398;0,0398596
2957,3040;0,0396435
2958,2683;0,0394065
2959,2324;0,0391505
2960,1968;0,03888
2961,1609;0,0386004
2962,1252;0,0383153
2963,0894;0,0380248
2964,0537;0,0377262
2965,0178;0,0374172
2965,9822;0,0370984
2966,9463;0,0367751
2967,9106;0,0364545
2968,8748;0,0361422
2969,8391;0,03584
2970,8032;0,0355462
2971,7676;0,0352587
2972,7317;0,0349779
2973,6960;0,0347077
2974,6602;0,0344529
2975,6245;0,0342159
2976,5886;0,0339949
2977,5530;0,0337852
2978,5171;0,0335828
2979,4814;0,0333874
2980,4456;0,0332027
2981,4099;0,0330339
2982,3740;0,0328841
2983,3384;0,0327526
2984,3025;0,0326358
2985,2668;0,0325291
2986,2310;0,0324297
2987,1953;0,0323362
2988,1594;0,0322479
2989,1238;0,0321644
2990,0879;0,0320857
2991,0522;0,0320136
2992,0164;0,0319519
2992,9807;0,031905
2993,9448;0,0318763
2994,9092;0,031866
2995,8733;0,031871
2996,8376;0,0318873
2997,8018;0,0319111
2998,7661;0,0319396
2999,7302;0,0319707
3000,6946;0,0320017
3001,6587;0,0320302
3002,6230;0,0320548
3003,5872;0,0320765
3004,5515;0,0320978
3005,5156;0,0321211
3006,4800;0,0321462
3007,4441;0,0321701
3008,4084;0,0321877
3009,3726;0,032195
3010,3369;0,0321913
3011,3010;0,0321801
3012,2654;0,0321683
3013,2295;0,0321635
3014,1938;0,0321719
3015,1580;0,0321961
3016,1223;0,0322347
3017,0864;0,032283
3018,0508;0,0323351
3019,0149;0,0323862
3019,9792;0,0324342
3020,9434;0,0324804
3021,9077;0,0325278
3022,8718;0,0325797
3023,8362;0,0326384
3024,8003;0,0327042
3025,7646;0,0327757
3026,7288;0,0328504
3027,6931;0,0329254
3028,6572;0,0329977
3029,6216;0,0330653
3030,5857;0,0331283
3031,5500;0,033189
3032,5142;0,0332514
3033,4785;0,0333199
3034,4426;0,0333968
3035,4070;0,0334823
3036,3711;0,0335744
3037,3354;0,0336703
3038,2996;0,0337679
3039,2639;0,0338665
3040,2280;0,0339666
3041,1924;0,0340692
3042,1565;0,0341751
3043,1208;0,0342839
3044,0850;0,0343938
3045,0493;0,0345024
3046,0134;0,0346081
3046,9778;0,0347118
3047,9419;0,034817
3048,9063;0,034928
3049,8704;0,0350471
3050,8347;0,035172
3051,7988;0,0352963
3052,7632;0,035413
3053,7273;0,0355191
3054,6917;0,0356184
3055,6558;0,0357202
3056,6201;0,035834
3057,5842;0,035964
3058,5486;0,0361061
3059,5127;0,0362503
3060,4771;0,0363853
3061,4412;0,0365041
3062,4055;0,0366059
3063,3696;0,0366957
3064,3340;0,0367817
3065,2981;0,0368726
3066,2625;0,0369752
3067,2266;0,0370924
3068,1909;0,0372235
3069,1550;0,037364
3070,1194;0,0375076
3071,0835;0,0376482
3072,0479;0,0377814
3073,0120;0,0379053
3073,9763;0,0380192
3074,9404;0,0381237
3075,9048;0,0382194
3076,8689;0,0383086
3077,8333;0,038395
3078,7974;0,0384839
3079,7617;0,0385806
3080,7258;0,038688
3081,6902;0,0388061
3082,6543;0,0389314
3083,6187;0,0390589
3084,5828;0,0391834
3085,5471;0,0393012
3086,5112;0,0394112
3087,4756;0,0395152
3088,4397;0,039617
3089,4041;0,0397207
3090,3682;0,0398293
3091,3325;0,0399441
3092,2966;0,0400649
3093,2610;0,0401914
3094,2251;0,0403229
3095,1895;0,0404575
3096,1536;0,0405909
3097,1179;0,0407166
3098,0820;0,0408292
3099,0464;0,040928
3100,0105;0,041019
3100,9749;0,0411131
3101,9390;0,0412206
3102,9033;0,0413456
3103,8674;0,041484
3104,8318;0,0416265
3105,7959;0,0417646
3106,7603;0,0418958
3107,7244;0,0420239
3108,6887;0,0421563
3109,6528;0,0422974
3110,6172;0,0424456
3111,5813;0,0425936
3112,5457;0,0427333
3113,5098;0,0428605
3114,4741;0,0429783
3115,4382;0,0430945
3116,4026;0,0432166
3117,3667;0,0433473
3118,3311;0,0434835
3119,2952;0,0436194
3120,2595;0,0437517
3121,2236;0,043882
3122,1880;0,0440162
3123,1521;0,0441596
3124,1165;0,044314
3125,0806;0,0444763
3126,0449;0,0446403
3127,0090;0,0448
3127,9734;0,0449512
3128,9375;0,0450918
3129,9019;0,045222
3130,8660;0,0453455
3131,8303;0,0454689
3132,7944;0,0456013
3133,7588;0,04575
3134,7229;0,0459164
3135,6873;0,0460947
3136,6514;0,0462746
3137,6157;0,0464465
3138,5798;0,0466065
3139,5442;0,0467574
3140,5083;0,046906
3141,4727;0,0470588
3142,4368;0,0472187
3143,4011;0,047385
3144,3652;0,0475554
3145,3296;0,0477274
3146,2937;0,0478993
3147,2581;0,0480699
3148,2222;0,0482377
3149,1865;0,0484013
3150,1506;0,0485595
3151,1150;0,0487118
3152,0791;0,0488586
3153,0435;0,0490018
3154,0076;0,0491452
3154,9719;0,0492939
3155,9360;0,049453
3156,9004;0,0496251
3157,8645;0,0498084
3158,8289;0,0499973
3159,7930;0,0501842
3160,7573;0,0503632
3161,7214;0,0505319
3162,6858;0,0506922
3163,6499;0,0508488
3164,6143;0,0510066
3165,5784;0,0511687
3166,5427;0,051336
3167,5068;0,0515073
3168,4712;0,0516807
3169,4353;0,0518588
3170,3997;0,052034
3171,3638;0,0522115
3172,3281;0,0523915
3173,2922;0,0525719
3174,2566;0,0527483
3175,2207;0,0529167
3176,1851;0,0530767
3177,1492;0,0532333
3178,1135;0,0533944
3179,0776;0,0535657
3180,0420;0,0537462
3181,0061;0,0539278
3181,9705;0,0541
3182,9346;0,0542565
3183,8989;0,0543991
3184,8630;0,0545363
3185,8274;0,0546776
3186,7915;0,0548282
3187,7559;0,0549876
3188,7200;0,0551521
3189,6843;0,0553192
3190,6484;0,0554893
3191,6128;0,055664
3192,5769;0,0558422
3193,5413;0,0560188
3194,5054;0,0561858
3195,4697;0,0563373
3196,4338;0,0564728
3197,3982;0,0565993
3198,3623;0,0567279
3199,3267;0,056869
3200,2908;0,0570282
3201,2551;0,0572035
3202,2192;0,0573868
3203,1836;0,0575674
3204,1477;0,0577365
3205,1121;0,0578916
3206,0762;0,0580368
3207,0405;0,0581799
3208,0046;0,0583277
3208,9690;0,0584808
3209,9331;0,0586344
3210,8975;0,0587817
3211,8616;0,0589205
3212,8259;0,0590551
3213,7900;0,0591946
3214,7544;0,0593454
3215,7185;0,0595063
3216,6829;0,0596686
3217,6470;0,0598215
3218,6113;0,0599594
3219,5754;0,0600856
3220,5398;0,0602096
3221,5039;0,0603406
3222,4683;0,0604821
3223,4324;0,0606311
3224,3967;0,0607823
3225,3608;0,0609327
3226,3252;0,0610832
3227,2893;0,061236
3228,2537;0,0613914
3229,2178;0,0615453
3230,1821;0,0616915
3231,1462;0,0618263
3232,1106;0,061951
3233,0747;0,0620724
3234,0391;0,0621991
3235,0032;0,0623371
3235,9675;0,0624887
3236,9316;0,0626523
3237,8960;0,0628251
3238,8601;0,0630035
3239,8245;0,0631836
3240,7886;0,0633594
3241,7529;0,0635239
3242,7170;0,0636716
3243,6814;0,0638021
3244,6455;0,0639226
3245,6099;0,064046
3246,5740;0,0641864
3247,5383;0,064352
3248,5024;0,0645422
3249,4668;0,0647471
3250,4309;0,0649524
3251,3953;0,0651453
3252,3594;0,0653186
3253,3237;0,0654735
3254,2878;0,0656179
3255,2522;0,0657627
3256,2163;0,0659175
3257,1807;0,0660872
3258,1448;0,0662719
3259,1091;0,0664672
3260,0732;0,0666669
3261,0376;0,066865
3262,0017;0,0670568
3262,9661;0,0672392
3263,9302;0,0674107
3264,8945;0,0675714
3265,8586;0,0677231
3266,8230;0,067869
3267,7871;0,0680121
3268,7515;0,0681527
3269,7156;0,0682875
3270,6799;0,0684094
3271,6440;0,0685113
3272,6084;0,0685898
3273,5725;0,068649
3274,5369;0,0686997
3275,5010;0,0687553
3276,4653;0,0688258
3277,4294;0,0689134
3278,3938;0,0690128
3279,3579;0,0691138
3280,3223;0,0692067
3281,2864;0,0692857
3282,2507;0,0693503
3283,2148;0,0694041
3284,1792;0,0694519
3285,1433;0,0694965
3286,1077;0,0695373
3287,0718;0,0695712
3288,0361;0,0695953
3289,0002;0,0696095
3289,9646;0,0696176
3290,9287;0,0696256
3291,8931;0,0696379
3292,8572;0,0696547
3293,8215;0,0696718
3294,7856;0,0696846
3295,7500;0,0696907
3296,7141;0,0696925
3297,6785;0,0696946
3298,6426;0,0697008
3299,6069;0,0697116
3300,5710;0,0697243
3301,5354;0,0697351
3302,4995;0,0697406
3303,4639;0,0697389
3304,4280;0,0697284
3305,3923;0,0697082
3306,3564;0,0696799
3307,3208;0,0696489
3308,2849;0,0696236
3309,2493;0,0696124
3310,2134;0,0696193
3311,1777;0,0696419
3312,1418;0,0696731
3313,1062;0,0697059
3314,0703;0,0697371
3315,0347;0,0697694
3315,9988;0,0698093
3316,9631;0,0698639
3317,9272;0,0699369
3318,8916;0,0700273
3319,8557;0,0701282
3320,8201;0,0702294
3321,7842;0,0703204
3322,7485;0,0703941
3323,7126;0,0704501
3324,6770;0,0704945
3325,6411;0,0705365
3326,6055;0,0705837
3327,5696;0,0706392
3328,5339;0,0707008
3329,4980;0,0707642
3330,4624;0,0708248
3331,4265;0,0708785
3332,3909;0,0709205
3333,3550;0,0709444
3334,3193;0,0709435
3335,2834;0,0709153
3336,2478;0,0708631
3337,2119;0,0707961
3338,1763;0,0707237
3339,1404;0,0706509
3340,1047;0,0705752
3341,0688;0,0704904
3342,0332;0,0703916
3342,9973;0,0702798
3343,9617;0,0701618
3344,9258;0,070046
3345,8901;0,0699369
3346,8542;0,0698325
3347,8186;0,0697256
3348,7827;0,0696075
3349,7471;0,0694727
3350,7112;0,0693203
3351,6755;0,0691541
3352,6396;0,0689806
3353,6040;0,068807
3354,5681;0,0686395
3355,5325;0,0684819
3356,4966;0,0683352
3357,4609;0,0681973
3358,4250;0,0680646
3359,3894;0,0679333
3360,3535;0,0678015
3361,3179;0,0676693
3362,2820;0,0675381
3363,2463;0,067409
3364,2104;0,067281
3365,1748;0,0671506
3366,1389;0,0670135
3367,1033;0,0668659
3368,0674;0,0667076
3369,0317;0,0665423
3369,9958;0,066377
3370,9602;0,06622
3371,9243;0,0660773
3372,8887;0,0659504
3373,8528;0,0658352
3374,8171;0,0657236
3375,7813;0,0656067
3376,7456;0,0654788
3377,7097;0,0653395
3378,6741;0,065193
3379,6382;0,0650443
3380,6025;0,0648958
3381,5667;0,0647469
3382,5310;0,0645967
3383,4951;0,064448
3384,4595;0,0643089
3385,4236;0,0641884
3386,3879;0,064089
3387,3521;0,0640014
3388,3164;0,0639075
3389,2805;0,0637898
3390,2449;0,0636418
3391,2090;0,063473
3392,1733;0,0633036
3393,1375;0,0631517
3394,1018;0,0630231
3395,0659;0,0629102
3396,0303;0,0627988
3396,9944;0,0626783
3397,9587;0,0625456
3398,9229;0,0624039
3399,8872;0,0622568
3400,8513;0,0621052
3401,8157;0,0619483
3402,7798;0,0617855
3403,7441;0,0616188
3404,7083;0,0614514
3405,6726;0,0612863
3406,6367;0,061125
3407,6011;0,0609671
3408,5652;0,0608105
3409,5295;0,0606505
3410,4937;0,0604813
3411,4580;0,0602989
3412,4221;0,0601051
3413,3865;0,0599092
3414,3506;0,0597232
3415,3149;0,0595535
3416,2791;0,0593944
3417,2434;0,0592293
3418,2075;0,05904
3419,1719;0,0588189
3420,1360;0,0585766
3421,1003;0,0583369
3422,0645;0,0581245
3423,0288;0,0579505
3423,9929;0,0578079
3424,9573;0,0576763
3425,9214;0,057533
3426,8857;0,0573627
3427,8499;0,0571628
3428,8142;0,0569431
3429,7783;0,0567189
3430,7427;0,0565029
3431,7068;0,0563002
3432,6711;0,0561071
3433,6353;0,0559165
3434,5996;0,0557223
3435,5637;0,0555225
3436,5281;0,055318
3437,4922;0,0551111
3438,4565;0,0549046
3439,4207;0,0547026
3440,3850;0,0545102
3441,3491;0,0543291
3442,3135;0,0541528
3443,2776;0,0539645
3444,2419;0,0537442
3445,2061;0,0534818
3446,1704;0,0531881
3447,1345;0,0528938
3448,0989;0,0526329
3449,0630;0,0524228
3450,0273;0,0522552
3450,9915;0,0521046
3451,9558;0,0519444
3452,9199;0,0517606
3453,8843;0,0515552
3454,8484;0,0513396
3455,8127;0,051124
3456,7769;0,0509106
3457,7412;0,0506938
3458,7053;0,0504673
3459,6697;0,0502298
3460,6338;0,0499868
3461,5981;0,0497475
3462,5623;0,0495184
3463,5266;0,0492995
3464,4907;0,0490844
3465,4551;0,0488649
3466,4192;0,0486369
3467,3835;0,0484037
3468,3477;0,0481737
3469,3120;0,0479542
3470,2761;0,0477455
3471,2405;0,0475403
3472,2046;0,0473296
3473,1689;0,0471113
3474,1331;0,0468933
3475,0974;0,0466879
3476,0615;0,0465006
3477,0259;0,0463228
3477,9900;0,0461342
3478,9543;0,0459158
3479,9185;0,0456636
3480,8828;0,0453942
3481,8469;0,0451348
3482,8113;0,0449041
3483,7754;0,0447001
3484,7397;0,044503
3485,7039;0,0442911
3486,6682;0,0440568
3487,6323;0,0438127
3488,5967;0,0435829
3489,5608;0,043386
3490,5251;0,0432211
3491,4893;0,0430672
3492,4536;0,042896
3493,4177;0,0426894
3494,3821;0,0424523
3495,3462;0,0422116
3496,3105;0,0419999
3497,2747;0,0418314
3498,2390;0,0416892
3499,2031;0,0415318
3500,1675;0,0413164
3501,1316;0,0410267
3502,0959;0,0406906
3503,0601;0,0403682
3504,0244;0,0401132
3504,9885;0,0399369
3505,9529;0,0398046
3506,9170;0,039661
3507,8813;0,0394643
3508,8455;0,0392084
3509,8098;0,0389244
3510,7739;0,0386574
3511,7383;0,038437
3512,7024;0,0382628
3513,6667;0,0381138
3514,6309;0,0379677
3515,5952;0,0378149
3516,5593;0,0376593
3517,5237;0,0375083
3518,4878;0,037362
3519,4521;0,0372097
3520,4163;0,0370369
3521,3806;0,0368354
3522,3447;0,0366093
3523,3091;0,0363703
3524,2732;0,0361264
3525,2375;0,0358745
3526,2017;0,0356051
3527,1660;0,035317
3528,1301;0,0350282
3529,0945;0,0347709
3530,0586;0,0345721
3531,0229;0,034435
3531,9871;0,0343346
3532,9514;0,0342301
3533,9155;0,0340851
3534,8799;0,0338856
3535,8440;0,033648
3536,8083;0,033411
3537,7725;0,0332142
3538,7368;0,0330773
3539,7009;0,0329914
3540,6653;0,032923
3541,6294;0,0328242
3542,5938;0,0326494
3543,5579;0,0323765
3544,5222;0,0320284
3545,4863;0,0316713
3546,4507;0,0313773
3547,4148;0,0311774
3548,3792;0,0310467
3549,3433;0,0309259
3550,3076;0,0307591
3551,2717;0,0305252
3552,2361;0,0302512
3553,2002;0,0299938
3554,1646;0,0297991
3555,1287;0,0296712
3556,0930;0,0295754
3557,0571;0,0294673
3558,0215;0,0293247
3558,9856;0,0291645
3559,9500;0,0290329
3560,9141;0,0289687
3561,8784;0,0289677
3562,8425;0,0289681
3563,8069;0,0288655
3564,7710;0,0285572
3565,7354;0,0280204
3566,6995;0,0273757
3567,6638;0,0268261
3568,6279;0,0264978
3569,5923;0,0263745
3570,5564;0,0263627
3571,5208;0,0263682
3572,4849;0,0263291
3573,4492;0,0262225
3574,4133;0,0260592
3575,3777;0,0258664
3576,3418;0,0256663
3577,3062;0,0254676
3578,2703;0,0252755
3579,2346;0,0251061
3580,1987;0,024988
3581,1631;0,0249426
3582,1272;0,0249592
3583,0916;0,0249812
3584,0557;0,0249144
3585,0200;0,0246633
3585,9841;0,0242023
3586,9485;0,0236405
3587,9126;0,0231718
3588,8770;0,0229186
3589,8411;0,0228547
3590,8054;0,0228673
3591,7695;0,0228431
3592,7339;0,0227165
3593,6980;0,0224903
3594,6624;0,0222259
3595,6265;0,0219918
3596,5908;0,021807
3597,5549;0,0216378
3598,5193;0,0214439
3599,4834;0,0212284
3600,4478;0,0210457
3601,4119;0,0209596
3602,3762;0,0209887
3603,3403;0,0210892
3604,3047;0,0211802
3605,2688;0,0211846
3606,2332;0,0210677
3607,1973;0,0208586
3608,1616;0,0206311
3609,1257;0,020447
3610,0901;0,0203163
3611,0542;0,0202111
3612,0186;0,020108
3612,9827;0,0200099
3613,9470;0,0199328
3614,9111;0,0198736
3615,8755;0,0197905
3616,8396;0,0196156
3617,8040;0,019302
3618,7681;0,0188822
3619,7324;0,0184789
3620,6965;0,0182285
3621,6609;0,0181929
3622,6250;0,0183458
3623,5894;0,0186088
3624,5535;0,0188729
3625,5178;0,0189991
3626,4819;0,0188371
3627,4463;0,0183203
3628,4104;0,0175973
3629,3748;0,0169735
3630,3389;0,0166324
3631,3032;0,0165331
3632,2673;0,0165465
3633,2317;0,0165719
3634,1958;0,0165643
3635,1602;0,0165244
3636,1243;0,0164748
3637,0886;0,0164347
3638,0527;0,0164084
3639,0171;0,0163934
3639,9812;0,0163977
3640,9456;0,0164473
3641,9097;0,0165738
3642,8740;0,0167914
3643,8381;0,0170743
3644,8025;0,0173417
3645,7666;0,01745
3646,7310;0,0172186
3647,6951;0,0165649
3648,6594;0,0157098
3649,6235;0,0150811
3650,5879;0,0148755
3651,5520;0,0149661
3652,5164;0,0151458
3653,4805;0,0152605
3654,4448;0,0152237
3655,4089;0,0150273
3656,3733;0,0147488
3657,3374;0,0145055
3658,3018;0,0143688
3659,2659;0,014331
3660,2302;0,0143439
3661,1943;0,0143725
3662,1587;0,0144206
3663,1228;0,014517
3664,0872;0,0146792
3665,0513;0,014881
3666,0156;0,0150496
3666,9797;0,0150934
3667,9441;0,0149641
3668,9082;0,0147269
3669,8726;0,0145393
3670,8367;0,014506
3671,8010;0,0145774
3672,7651;0,0145949
3673,7295;0,0143968
3674,6936;0,0139384
3675,6580;0,0133724
3676,6221;0,0129424
3677,5864;0,0127602
3678,5505;0,0127694
3679,5149;0,0128698
3680,4790;0,0130006
3681,4434;0,0131519
3682,4075;0,0133425
3683,3718;0,0135868
3684,3359;0,0138671
3685,3003;0,0141195
3686,2644;0,0142398
3687,2288;0,0141233
3688,1929;0,0137534
3689,1572;0,0132727
3690,1213;0,0128966
3691,0857;0,0127305
3692,0498;0,0127367
3693,0142;0,0128312
3693,9783;0,0129531
3694,9426;0,0130756
3695,9067;0,0131913
3696,8711;0,013292
3697,8352;0,0133551
3698,7996;0,0133439
3699,7637;0,0132281
3700,7280;0,0130177
3701,6921;0,0127806
3702,6565;0,0126129
3703,6206;0,0125816
3704,5850;0,012693
3705,5491;0,0129034
3706,5134;0,0131384
3707,4775;0,0133043
3708,4419;0,0133043
3709,4060;0,0130871
3710,3704;0,0127185
3711,3345;0,0123755
3712,2988;0,0122059
3713,2629;0,0122245
3714,2273;0,0123578
3715,1914;0,0125237
3716,1558;0,0126622
3717,1199;0,0127377
3718,0842;0,0127394
3719,0483;0,0126812
3720,0127;0,0125912
3720,9768;0,0124893
3721,9412;0,0123742
3722,9053;0,0122346
3723,8696;0,0120792
3724,8337;0,0119533
3725,7981;0,0119191
3726,7622;0,0120153
3727,7266;0,0122356
3728,6907;0,0125381
3729,6550;0,0128623
3730,6191;0,0131375
3731,5835;0,0132834
3732,5476;0,0132226
3733,5120;0,0129278
3734,4761;0,0124889
3735,4404;0,0121041
3736,4045;0,0119443
3737,3689;0,0120504
3738,3330;0,012366
3739,2974;0,0128032
3740,2615;0,0132618
3741,2258;0,013624
3742,1899;0,0137722
3743,1543;0,0136683
3744,1184;0,0134411
3745,0828;0,0133106
3746,0469;0,0133798
3747,0112;0,0135665
3747,9753;0,013693
3748,9397;0,0135882
3749,9038;0,0132071
3750,8682;0,0127265
3751,8323;0,0124176
3752,7966;0,0123865
3753,7607;0,0125482
3754,7251;0,0127635
3755,6892;0,0129176
3756,6536;0,0129416
3757,6177;0,0128355
3758,5820;0,0126764
3759,5461;0,0125707
3760,5105;0,0125776
3761,4746;0,0126842
3762,4390;0,0128376
3763,4031;0,0129824
3764,3674;0,0130806
3765,3315;0,0131137
3766,2959;0,0130777
3767,2600;0,0129757
3768,2244;0,0128192
3769,1885;0,0126388
3770,1528;0,0124876
3771,1169;0,0124217
3772,0813;0,0124685
3773,0454;0,0126126
3774,0098;0,0128044
3774,9739;0,0129779
3775,9382;0,0130711
3776,9023;0,0130515
3777,8667;0,0129407
3778,8308;0,0128097
3779,7952;0,0127287
3780,7593;0,0127172
3781,7236;0,0127439
3782,6877;0,012762
3783,6521;0,0127427
3784,6162;0,0126867
3785,5806;0,0126182
3786,5447;0,0125674
3787,5090;0,0125562
3788,4731;0,0125938
3789,4375;0,0126781
3790,4016;0,0127975
3791,3660;0,0129316
3792,3301;0,0130562
3793,2944;0,0131551
3794,2585;0,0132327
3795,2229;0,0133123
3796,1870;0,0134141
3797,1514;0,0135241
3798,1155;0,0135862
3799,0798;0,0135332
3800,0439;0,0133491
3801,0083;0,0131111
3801,9724;0,0129403
3802,9368;0,0128918
3803,9009;0,0129146
3804,8652;0,0129077
3805,8293;0,0128029
3806,7937;0,0126246
3807,7578;0,0124852
3808,7222;0,012496
3809,6863;0,0126849
3810,6506;0,0129954
3811,6147;0,0133318
3812,5791;0,0135951
3813,5432;0,0137186
3814,5076;0,0137093
3815,4717;0,0136502
3816,4360;0,0136254
3817,4001;0,0136342
3818,3645;0,0135961
3819,3286;0,013432
3820,2930;0,0131508
3821,2571;0,0128619
3822,2214;0,0126817
3823,1855;0,0126419
3824,1499;0,0126996
3825,1140;0,0127952
3826,0784;0,0128894
3827,0425;0,0129706
3828,0068;0,0130466
3828,9709;0,0131311
3829,9353;0,0132336
3830,8994;0,013358
3831,8638;0,0135054
3832,8279;0,0136702
3833,7922;0,01383
3834,7563;0,0139381
3835,7207;0,0139335
3836,6848;0,0137755
3837,6492;0,013486
3838,6133;0,0131546
3839,5776;0,0128801
3840,5417;0,0127079
3841,5061;0,0126262
3842,4702;0,0126045
3843,4346;0,012629
3844,3987;0,0127116
3845,3630;0,0128793
3846,3271;0,013155
3847,2915;0,0135414
3848,2556;0,0140089
3849,2200;0,0144783
3850,1841;0,0147997
3851,1484;0,0147624
3852,1125;0,0142345
3853,0769;0,0134107
3854,0410;0,0127363
3855,0054;0,0124451
3855,9695;0,0124685
3856,9338;0,01267
3857,8979;0,012951
3858,8623;0,0132384
3859,8264;0,0134644
3860,7908;0,0135725
3861,7549;0,0135479
3862,7192;0,0134439
3863,6833;0,0133584
3864,6477;0,0133636
3865,6118;0,0134597
3866,5762;0,0135882
3867,5403;0,0136711
3868,5046;0,0136467
3869,4688;0,0134983
3870,4331;0,0132669
3871,3972;0,0130326
3872,3616;0,0128722
3873,3257;0,0128273
3874,2900;0,0128981
3875,2542;0,0130534
3876,2185;0,0132417
3877,1826;0,0134055
3878,1470;0,0134996
3879,1111;0,013513
3880,0754;0,0134756
3881,0396;0,0134318
3882,0039;0,013401
3882,9680;0,0133693
3883,9324;0,0133198
3884,8965;0,0132657
3885,8608;0,0132446
3886,8250;0,0132783
3887,7893;0,0133407
3888,7534;0,0133671
3889,7178;0,0132964
3890,6819;0,0131272
3891,6462;0,0129456
3892,6104;0,0128727
3893,5747;0,0129695
3894,5388;0,0132066
3895,5032;0,0135059
3896,4673;0,0137854
3897,4316;0,0139835
3898,3958;0,0140718
3899,3601;0,0140535
3900,3242;0,0139419
3901,2886;0,0137418
3902,2527;0,013464
3903,2170;0,0131554
3904,1812;0,0128934
3905,1455;0,0127386
3906,1096;0,0127
3907,0740;0,0127448
3908,0381;0,0128302
3909,0024;0,012927
3909,9666;0,013027
3910,9309;0,0131365
3911,8950;0,0132604
3912,8594;0,0133872
3913,8235;0,0134861
3914,7878;0,0135195
3915,7520;0,01347
3916,7163;0,0133609
3917,6804;0,0132502
3918,6448;0,0131924
3919,6089;0,0132017
3920,5732;0,0132505
3921,5374;0,0132929
3922,5017;0,0132946
3923,4658;0,0132542
3924,4302;0,0132039
3925,3943;0,0131853
3926,3586;0,0132178
3927,3228;0,0132853
3928,2871;0,0133471
3929,2512;0,0133604
3930,2156;0,0133048
3931,1797;0,0131963
3932,1440;0,0130797
3933,1082;0,0129989
3934,0725;0,0129749
3935,0366;0,0130055
3936,0010;0,0130766
3936,9651;0,0131702
3937,9294;0,0132663
3938,8936;0,0133428
3939,8579;0,0133816
3940,8220;0,0133779
3941,7864;0,0133475
3942,7505;0,01332
3943,7148;0,013319
3944,6790;0,0133455
3945,6433;0,0133781
3946,6074;0,0133877
3947,5718;0,0133572
3948,5359;0,0132936
3949,5002;0,0132238
3950,4644;0,0131756
3951,4287;0,0131597
3952,3928;0,0131683
3953,3572;0,0131864
3954,3213;0,0132035
3955,2856;0,0132178
3956,2498;0,0132319
3957,2141;0,0132458
3958,1782;0,0132537
3959,1426;0,0132487
3960,1067;0,0132297
3961,0710;0,0132053
3962,0352;0,0131891
3962,9995;0,0131906
3963,9636;0,013209
3964,9280;0,0132344
3965,8921;0,0132552
3966,8564;0,0132651
3967,8206;0,0132662
3968,7849;0,0132648
3969,7490;0,0132662
3970,7134;0,0132698
3971,6775;0,0132714
3972,6418;0,0132666
3973,6060;0,0132561
3974,5703;0,013245
3975,5344;0,0132395
3976,4988;0,0132421
3977,4629;0,0132504
3978,4272;0,0132596
3979,3914;0,0132663
3980,3557;0,0132711
3981,3198;0,013277
3982,2842;0,0132871
3983,2483;0,013301
3984,2126;0,0133156
3985,1768;0,0133269
3986,1411;0,013333
3987,1052;0,0133351
3988,0696;0,0133363
3989,0337;0,0133382
3989,9980;0,0133397
3990,9622;0,0133381
3991,9265;0,013331
3992,8906;0,01332
3993,8550;0,0133103
3994,8191;0,0133077
3995,7834;0,0133146
3996,7476;0,0133274
3997,7119;0,0133382
3998,6760;0,0133397
3999,6404;0,0133306
4000,6045;0,0132266

##### Extended Information
[Comments]
Sample name
Comment
Username
Division
Organization;UNIVERSIDAD INDUSTRIAL DE SANTANDER

[Detailed Information]
Creation date;29/01/2025 2:00 p.m.

Data array type;Linear data array
Horizontal axis;Wavenumber [cm-1]
Vertical axis;Abs
Start;399,193 cm-1
End;4000,6 cm-1
Data interval;0,964233 cm-1
Data points;3736    

[Measurement Information]
Model name;FT/IR-4X1typeA
Serial No.;A035162111

Accessory;ATR PRO 4X
Accessory S/N;A021162126
Incident angle;45 deg

Measurement date;29/01/2025 2:00 p.m.

Light source;Standard
Detector;TGS
Accumulation;Auto (75)
Resolution;4 cm-1
Zero filling;On
Apodization;Cosine
Gain;Auto (8)
Aperture;Auto (7 mm)
Scan speed;Auto (2 mm/sec)
Filter;Auto (12800 Hz)

