TITLE;
DATA TYPE;INFRARED SPECTRUM
ORIGIN;JASCO
OWNER;
DATE;25/01/29
TIME;11:20:17
SPECTROMETER/DATA SYSTEM;
LOCALE;9226
RESOLUTION;
DELTAX;0,964233
XUNITS;1/CM
YUNITS;ABSORBANCE
FIRSTX;  399,1927
LASTX; 4000,6047
NPOINTS;    3736
FIRSTY;     0,13721
MAXY;     0,18586
MINY;     0,01201
XYDATA
399,1927;0,137206
400,1569;0,13735
401,1211;0,137739
402,0854;0,138117
403,0496;0,13827
404,0138;0,138074
404,9781;0,137537
405,9423;0,136821
406,9065;0,136185
407,8708;0,135865
408,8350;0,135959
409,7992;0,136406
410,7635;0,137044
411,7277;0,137712
412,6919;0,138311
413,6562;0,138811
414,6204;0,139188
415,5846;0,139383
416,5489;0,139285
417,5131;0,138824
418,4773;0,13815
419,4416;0,137679
420,4058;0,137742
421,3700;0,138297
422,3343;0,139091
423,2985;0,139903
424,2627;0,140614
425,2270;0,141187
426,1912;0,141638
427,1554;0,142006
428,1197;0,142326
429,0839;0,142634
430,0481;0,142967
431,0124;0,143373
431,9766;0,143879
432,9408;0,144464
433,9051;0,145043
434,8693;0,145494
435,8335;0,145716
436,7978;0,145697
437,7620;0,14553
438,7262;0,145371
439,6905;0,145356
440,6547;0,145554
441,6189;0,145932
442,5832;0,146377
443,5474;0,146737
444,5116;0,146898
445,4759;0,146825
446,4401;0,146545
447,4043;0,1461
448,3686;0,14553
449,3328;0,144886
450,2970;0,144254
451,2613;0,143756
452,2255;0,143501
453,1897;0,143533
454,1540;0,143802
455,1182;0,144185
456,0824;0,144548
457,0467;0,144802
458,0109;0,144951
458,9751;0,145065
459,9394;0,145209
460,9036;0,145389
461,8678;0,145569
462,8321;0,14572
463,7963;0,145854
464,7605;0,146027
465,7248;0,146296
466,6890;0,146673
467,6532;0,147087
468,6175;0,14741
469,5817;0,147503
470,5459;0,147295
471,5102;0,146836
472,4744;0,146306
473,4386;0,145918
474,4029;0,14579
475,3671;0,145887
476,3313;0,146084
477,2956;0,146262
478,2598;0,146368
479,2240;0,146427
480,1883;0,146503
481,1525;0,146643
482,1167;0,146835
483,0810;0,147012
484,0452;0,147097
485,0094;0,147059
485,9737;0,146941
486,9379;0,146827
487,9021;0,146794
488,8664;0,146871
489,8306;0,14703
490,7948;0,147208
491,7591;0,147339
492,7233;0,147396
493,6875;0,147402
494,6518;0,147415
495,6160;0,147483
496,5802;0,147609
497,5445;0,147749
498,5087;0,147832
499,4729;0,147803
500,4372;0,147662
501,4014;0,14748
502,3656;0,147364
503,3299;0,1474
504,2941;0,1476
505,2583;0,147905
506,2226;0,14823
507,1868;0,148506
508,1510;0,148716
509,1153;0,148894
510,0795;0,149096
511,0437;0,149365
512,0080;0,149698
512,9722;0,150049
513,9365;0,150339
514,9007;0,150498
515,8649;0,150496
516,8292;0,150381
517,7934;0,150263
518,7576;0,150266
519,7219;0,150442
520,6861;0,150736
521,6503;0,151025
522,6146;0,151182
523,5788;0,151136
524,5430;0,150905
525,5073;0,150588
526,4715;0,150314
527,4357;0,15016
528,4000;0,150107
529,3642;0,150067
530,3284;0,149946
531,2927;0,1497
532,2569;0,149348
533,2211;0,148958
534,1854;0,148605
535,1496;0,148338
536,1138;0,148163
537,0781;0,148055
538,0423;0,147989
539,0065;0,147951
539,9708;0,147947
540,9350;0,147986
541,8992;0,148075
542,8635;0,148219
543,8277;0,14842
544,7919;0,148691
545,7562;0,149047
546,7204;0,14949
547,6846;0,14999
548,6489;0,150488
549,6131;0,150914
550,5773;0,15123
551,5416;0,151452
552,5058;0,151648
553,4700;0,151901
554,4343;0,152253
555,3985;0,152665
556,3627;0,153017
557,3270;0,153149
558,2912;0,152924
559,2554;0,15228
560,2197;0,151246
561,1839;0,149932
562,1481;0,14848
563,1124;0,147029
564,0766;0,145678
565,0408;0,144479
566,0051;0,143447
566,9693;0,142584
567,9335;0,141885
568,8978;0,141344
569,8620;0,140941
570,8262;0,140643
571,7905;0,140404
572,7547;0,140185
573,7189;0,139961
574,6832;0,139728
575,6474;0,139497
576,6116;0,139285
577,5759;0,139105
578,5401;0,138959
579,5043;0,138833
580,4686;0,138707
581,4328;0,13857
582,3970;0,138425
583,3613;0,138297
584,3255;0,138217
585,2897;0,1382
586,2540;0,138232
587,2182;0,138273
588,1824;0,138273
589,1467;0,138204
590,1109;0,138072
591,0751;0,137918
592,0394;0,137786
593,0036;0,137701
593,9678;0,137652
594,9321;0,137598
595,8963;0,137497
596,8605;0,137319
597,8248;0,137065
598,7890;0,136765
599,7532;0,136469
600,7175;0,136223
601,6817;0,136047
602,6459;0,135924
603,6102;0,135807
604,5744;0,135636
605,5386;0,135372
606,5029;0,13501
607,4671;0,134578
608,4313;0,134121
609,3956;0,133672
610,3598;0,133246
611,3240;0,132834
612,2883;0,132424
613,2525;0,131997
614,2167;0,131539
615,1810;0,131033
616,1452;0,130457
617,1094;0,1298
618,0737;0,129063
619,0379;0,128264
620,0021;0,127427
620,9664;0,126575
621,9306;0,125723
622,8948;0,12489
623,8591;0,124105
624,8233;0,1234
625,7875;0,122794
626,7518;0,122278
627,7160;0,121816
628,6802;0,121362
629,6445;0,120884
630,6087;0,120376
631,5729;0,119856
632,5372;0,119351
633,5014;0,118878
634,4656;0,118436
635,4299;0,118011
636,3941;0,11759
637,3583;0,117175
638,3226;0,116779
639,2868;0,116412
640,2510;0,116073
641,2153;0,115741
642,1795;0,115388
643,1437;0,114993
644,1080;0,11456
645,0722;0,114115
646,0364;0,113691
647,0007;0,113314
647,9649;0,112992
648,9291;0,11272
649,8934;0,11249
650,8576;0,112305
651,8218;0,11218
652,7861;0,112137
653,7503;0,112192
654,7145;0,112351
655,6788;0,1126
656,6430;0,112905
657,6072;0,113222
658,5715;0,1135
659,5357;0,113702
660,4999;0,113816
661,4642;0,113867
662,4284;0,113893
663,3926;0,11392
664,3569;0,11392
665,3211;0,113788
666,2853;0,113317
667,2496;0,112261
668,2138;0,11063
669,1780;0,108953
670,1423;0,107755
671,1065;0,107006
672,0707;0,106399
673,0350;0,105684
673,9992;0,104742
674,9634;0,103576
675,9277;0,102291
676,8919;0,101024
677,8561;0,0998688
678,8204;0,0988389
679,7846;0,0979111
680,7488;0,0970726
681,7131;0,0963364
682,6773;0,0957237
683,6415;0,095242
684,6058;0,094879
685,5700;0,0946078
686,5342;0,0943933
687,4985;0,0941971
688,4627;0,0939866
689,4269;0,0937482
690,3912;0,0934944
691,3554;0,0932562
692,3196;0,0930629
693,2839;0,0929231
694,2481;0,0928199
695,2123;0,0927223
696,1766;0,0926019
697,1408;0,0924443
698,1050;0,0922481
699,0693;0,0920174
700,0335;0,0917552
700,9977;0,0914637
701,9620;0,0911482
702,9262;0,0908197
703,8904;0,0904907
704,8547;0,0901676
705,8189;0,0898456
706,7831;0,0895102
707,7474;0,0891442
708,7116;0,088736
709,6758;0,0882828
710,6401;0,0877877
711,6043;0,0872561
712,5685;0,0866926
713,5328;0,086102
714,4970;0,08549
715,4612;0,0848799
716,4255;0,0842315
717,3897;0,0835625
718,3539;0,0828701
719,3182;0,0821592
720,2824;0,0814451
721,2466;0,0807487
722,2109;0,080083
723,1751;0,079446
724,1393;0,0788221
725,1036;0,0781945
726,0678;0,0775556
727,0320;0,0769119
727,9963;0,0762803
728,9605;0,075679
729,9247;0,0751195
730,8890;0,0746049
731,8532;0,0741311
732,8174;0,0736897
733,7817;0,0732695
734,7459;0,0728599
735,7101;0,0724548
736,6744;0,0720578
737,6386;0,0716816
738,6028;0,0713422
739,5671;0,0710474
740,5313;0,0707891
741,4955;0,0705429
742,4598;0,0702777
743,4240;0,0699702
744,3882;0,0696158
745,3525;0,0692301
746,3167;0,0688414
747,2809;0,0684769
748,2452;0,068151
749,2094;0,0678601
750,1736;0,0675867
751,1379;0,0673095
752,1021;0,0670137
753,0663;0,0666962
754,0306;0,0663646
754,9948;0,0660306
755,9590;0,0657027
756,9233;0,0653834
757,8875;0,0650704
758,8517;0,0647605
759,8160;0,0644534
760,7802;0,0641527
761,7444;0,0638648
762,7087;0,0635949
763,6729;0,0633445
764,6371;0,0631092
765,6014;0,0628787
766,5656;0,0626407
767,5298;0,062385
768,4941;0,062109
769,4583;0,0618192
770,4225;0,0615286
771,3868;0,0612516
772,3510;0,0609969
773,3152;0,0607645
774,2795;0,0605464
775,2437;0,0603318
776,2079;0,0601122
777,1722;0,0598847
778,1364;0,0596517
779,1006;0,059418
780,0649;0,0591877
781,0291;0,0589629
781,9933;0,0587431
782,9576;0,0585267
783,9218;0,0583114
784,8860;0,0580961
785,8503;0,0578821
786,8145;0,0576743
787,7787;0,0574801
788,7430;0,0573058
789,7072;0,0571519
790,6714;0,0570107
791,6357;0,056868
792,5999;0,0567105
793,5641;0,0565332
794,5284;0,0563432
795,4926;0,0561561
796,4568;0,0559864
797,4211;0,0558395
798,3853;0,0557088
799,3495;0,0555813
800,3138;0,0554473
801,2780;0,0553075
802,2422;0,0551725
803,2065;0,0550552
804,1707;0,0549617
805,1349;0,0548869
806,0992;0,054818
807,0634;0,054743
808,0276;0,0546579
808,9919;0,0545679
809,9561;0,0544815
810,9203;0,0544039
811,8846;0,0543334
812,8488;0,0542648
813,8130;0,0541956
814,7773;0,0541295
815,7415;0,0540744
816,7057;0,0540361
817,6700;0,0540138
818,6342;0,0540005
819,5984;0,053988
820,5627;0,0539719
821,5269;0,0539525
822,4911;0,0539317
823,4554;0,0539087
824,4196;0,0538792
825,3839;0,0538382
826,3481;0,0537835
827,3123;0,0537166
828,2766;0,0536404
829,2408;0,0535562
830,2050;0,053464
831,1693;0,0533644
832,1335;0,053261
833,0977;0,0531587
834,0620;0,0530592
835,0262;0,0529569
835,9904;0,0528405
836,9547;0,0526999
837,9189;0,0525338
838,8831;0,0523528
839,8474;0,0521737
840,8116;0,05201
841,7758;0,0518638
842,7401;0,0517268
843,7043;0,0515882
844,6685;0,0514446
845,6328;0,0513046
846,5970;0,0511832
847,5612;0,0510917
848,5255;0,0510291
849,4897;0,050981
850,4539;0,0509283
851,4182;0,050858
852,3824;0,0507714
853,3466;0,0506821
854,3109;0,0506074
855,2751;0,050558
856,2393;0,0505335
857,2036;0,0505245
858,1678;0,0505208
859,1320;0,0505185
860,0963;0,0505222
861,0605;0,0505419
862,0247;0,0505874
862,9890;0,0506635
863,9532;0,0507694
864,9174;0,0509001
865,8817;0,051049
866,8459;0,0512112
867,8101;0,0513859
868,7744;0,0515768
869,7386;0,0517908
870,7028;0,0520329
871,6671;0,0523009
872,6313;0,0525826
873,5955;0,0528596
874,5598;0,053115
875,5240;0,0533432
876,4882;0,0535532
877,4525;0,053765
878,4167;0,0540006
879,3809;0,0542764
880,3452;0,0546002
881,3094;0,0549742
882,2736;0,0553993
883,2379;0,0558782
884,2021;0,0564146
885,1663;0,0570109
886,1306;0,0576654
887,0948;0,0583715
888,0590;0,0591172
889,0233;0,059886
889,9875;0,0606575
890,9517;0,0614093
891,9160;0,0621189
892,8802;0,0627645
893,8444;0,0633248
894,8087;0,0637792
895,7729;0,0641094
896,7371;0,0643032
897,7014;0,064359
898,6656;0,0642874
899,6298;0,0641077
900,5941;0,0638415
901,5583;0,0635076
902,5225;0,0631213
903,4868;0,0626985
904,4510;0,0622588
905,4152;0,0618264
906,3795;0,0614248
907,3437;0,0610709
908,3079;0,0607719
909,2722;0,0605276
910,2364;0,0603349
911,2007;0,0601926
912,1649;0,0601019
913,1292;0,0600646
914,0934;0,0600801
915,0576;0,0601461
916,0219;0,0602593
916,9861;0,0604167
917,9503;0,0606146
918,9146;0,0608463
919,8788;0,0611013
920,8430;0,0613674
921,8073;0,0616345
922,7715;0,0618973
923,7357;0,0621553
924,7000;0,0624086
925,6642;0,0626542
926,6284;0,0628864
927,5927;0,0630999
928,5569;0,0632955
929,5211;0,0634825
930,4854;0,0636772
931,4496;0,0638957
932,4138;0,064149
933,3781;0,0644398
934,3423;0,0647654
935,3065;0,0651238
936,2708;0,0655175
937,2350;0,0659555
938,1992;0,0664499
939,1635;0,0670108
940,1277;0,0676431
941,0919;0,0683452
942,0562;0,0691117
943,0204;0,0699367
943,9846;0,0708162
944,9489;0,0717482
945,9131;0,0727308
946,8773;0,0737607
947,8416;0,0748335
948,8058;0,0759461
949,7700;0,0770995
950,7343;0,0783
951,6985;0,0795566
952,6627;0,0808764
953,6270;0,0822613
954,5912;0,0837065
955,5554;0,0852039
956,5197;0,0867465
957,4839;0,0883303
958,4481;0,0899532
959,4124;0,0916109
960,3766;0,0932938
961,3408;0,0949873
962,3051;0,0966768
963,2693;0,0983545
964,2335;0,100024
965,1978;0,101698
966,1620;0,103396
967,1262;0,105136
968,0905;0,106932
969,0547;0,108792
970,0189;0,110727
970,9832;0,112753
971,9474;0,114888
972,9116;0,117156
973,8759;0,119572
974,8401;0,122143
975,8043;0,124859
976,7686;0,127701
977,7328;0,130636
978,6970;0,133617
979,6613;0,13658
980,6255;0,139445
981,5897;0,142123
982,5540;0,144531
983,5182;0,146614
984,4824;0,148356
985,4467;0,149791
986,4109;0,150981
987,3751;0,152007
988,3394;0,152939
989,3036;0,153823
990,2678;0,154681
991,2321;0,15551
992,1963;0,156299
993,1605;0,157034
994,1248;0,15771
995,0890;0,15833
996,0532;0,158903
997,0175;0,159436
997,9817;0,15993
998,9459;0,160385
999,9102;0,160801
1000,8744;0,161196
1001,8386;0,161601
1002,8029;0,162061
1003,7671;0,162621
1004,7313;0,163311
1005,6956;0,164143
1006,6598;0,16511
1007,6240;0,166198
1008,5883;0,167392
1009,5525;0,16868
1010,5167;0,170046
1011,4810;0,171467
1012,4452;0,172904
1013,4094;0,174316
1014,3737;0,175661
1015,3379;0,176907
1016,3021;0,178036
1017,2664;0,179043
1018,2306;0,179933
1019,1948;0,180716
1020,1591;0,181409
1021,1233;0,182033
1022,0875;0,182611
1023,0518;0,183163
1024,0160;0,1837
1024,9802;0,18422
1025,9445;0,184711
1026,9087;0,185152
1027,8729;0,185515
1028,8372;0,185768
1029,8014;0,185865
1030,7656;0,18575
1031,7299;0,185361
1032,6941;0,184647
1033,6583;0,183588
1034,6226;0,182213
1035,5868;0,1806
1036,5510;0,178864
1037,5153;0,177136
1038,4795;0,175538
1039,4437;0,174169
1040,4080;0,173093
1041,3722;0,172336
1042,3364;0,17189
1043,3007;0,171712
1044,2649;0,171732
1045,2291;0,171868
1046,1934;0,172041
1047,1576;0,172191
1048,1218;0,172274
1049,0861;0,172261
1050,0503;0,17212
1051,0145;0,171819
1051,9788;0,171329
1052,9430;0,170634
1053,9072;0,169739
1054,8715;0,168659
1055,8357;0,167401
1056,7999;0,165942
1057,7642;0,164236
1058,7284;0,16223
1059,6926;0,159902
1060,6569;0,157286
1061,6211;0,154477
1062,5853;0,151605
1063,5496;0,148797
1064,5138;0,146147
1065,4780;0,143703
1066,4423;0,141478
1067,4065;0,139461
1068,3707;0,137628
1069,3350;0,13595
1070,2992;0,134389
1071,2634;0,132899
1072,2277;0,131431
1073,1919;0,12994
1074,1561;0,128391
1075,1204;0,126765
1076,0846;0,125069
1077,0488;0,12333
1078,0131;0,121596
1078,9773;0,119925
1079,9415;0,118373
1080,9058;0,116979
1081,8700;0,115761
1082,8342;0,114718
1083,7985;0,113833
1084,7627;0,113088
1085,7269;0,112462
1086,6912;0,111941
1087,6554;0,111515
1088,6196;0,11118
1089,5839;0,110934
1090,5481;0,11078
1091,5123;0,110717
1092,4766;0,11074
1093,4408;0,110836
1094,4050;0,110991
1095,3693;0,11119
1096,3335;0,111422
1097,2977;0,111677
1098,2620;0,111946
1099,2262;0,112215
1100,1904;0,112461
1101,1547;0,112659
1102,1189;0,112781
1103,0831;0,112805
1104,0474;0,112725
1105,0116;0,112549
1105,9758;0,112301
1106,9401;0,112004
1107,9043;0,111669
1108,8685;0,111275
1109,8328;0,11077
1110,7970;0,110083
1111,7612;0,109152
1112,7255;0,107953
1113,6897;0,106522
1114,6539;0,104944
1115,6182;0,103331
1116,5824;0,101788
1117,5466;0,10038
1118,5109;0,0991219
1119,4751;0,0979842
1120,4393;0,0969057
1121,4036;0,0958131
1122,3678;0,0946371
1123,3320;0,0933241
1124,2963;0,0918463
1125,2605;0,0902058
1126,2247;0,0884339
1127,1890;0,0865809
1128,1532;0,0847013
1129,1174;0,0828382
1130,0817;0,0810161
1131,0459;0,0792432
1132,0101;0,0775219
1132,9744;0,0758617
1133,9386;0,0742855
1134,9028;0,0728292
1135,8671;0,0715346
1136,8313;0,0704391
1137,7955;0,0695688
1138,7598;0,0689356
1139,7240;0,0685373
1140,6882;0,0683598
1141,6525;0,0683801
1142,6167;0,0685676
1143,5809;0,0688874
1144,5452;0,0693037
1145,5094;0,0697847
1146,4736;0,0703074
1147,4379;0,0708607
1148,4021;0,071444
1149,3663;0,0720623
1150,3306;0,0727181
1151,2948;0,0734046
1152,2590;0,0741025
1153,2233;0,074782
1154,1875;0,0754078
1155,1517;0,075944
1156,1160;0,0763551
1157,0802;0,076603
1158,0444;0,0766423
1159,0087;0,0764176
1159,9729;0,0758676
1160,9371;0,0749352
1161,9014;0,0735834
1162,8656;0,0718093
1163,8298;0,0696513
1164,7941;0,0671872
1165,7583;0,0645215
1166,7225;0,0617694
1167,6868;0,0590401
1168,6510;0,056424
1169,6152;0,0539874
1170,5795;0,0517711
1171,5437;0,0497936
1172,5079;0,0480552
1173,4722;0,0465435
1174,4364;0,045237
1175,4006;0,0441098
1176,3649;0,0431353
1177,3291;0,0422896
1178,2933;0,041554
1179,2576;0,0409156
1180,2218;0,0403675
1181,1860;0,0399063
1182,1503;0,0395297
1183,1145;0,0392337
1184,0787;0,0390119
1185,0430;0,0388567
1186,0072;0,0387635
1186,9714;0,038733
1187,9357;0,0387725
1188,8999;0,0388916
1189,8641;0,0390971
1190,8284;0,0393882
1191,7926;0,0397563
1192,7568;0,0401887
1193,7211;0,040674
1194,6853;0,0412041
1195,6495;0,0417727
1196,6138;0,0423714
1197,5780;0,0429868
1198,5422;0,043602
1199,5065;0,0442072
1200,4707;0,044781
1201,4349;0,0453259
1202,3992;0,0458401
1203,3634;0,046319
1204,3276;0,0467529
1205,2919;0,0471298
1206,2561;0,0474421
1207,2203;0,0476937
1208,1846;0,0479028
1209,1488;0,0481006
1210,1130;0,0483245
1211,0773;0,0486098
1212,0415;0,0489819
1213,0057;0,0494511
1213,9700;0,0500118
1214,9342;0,0506458
1215,8984;0,0513294
1216,8627;0,052039
1217,8269;0,0527564
1218,7911;0,0534692
1219,7554;0,0541702
1220,7196;0,0548543
1221,6838;0,055516
1222,6481;0,0561487
1223,6123;0,0567466
1224,5765;0,0573063
1225,5408;0,0578288
1226,5050;0,058319
1227,4692;0,0587825
1228,4335;0,0592226
1229,3977;0,0596375
1230,3619;0,0600205
1231,3262;0,0603618
1232,2904;0,0606508
1233,2546;0,0608791
1234,2189;0,061042
1235,1831;0,0611401
1236,1473;0,0611811
1237,1116;0,0611784
1238,0758;0,0611487
1239,0400;0,0611065
1240,0043;0,0610591
1240,9685;0,0610043
1241,9327;0,0609326
1242,8970;0,0608318
1243,8612;0,0606922
1244,8254;0,0605091
1245,7897;0,0602833
1246,7539;0,0600199
1247,7181;0,0597266
1248,6824;0,0594128
1249,6466;0,0590884
1250,6108;0,0587627
1251,5751;0,058443
1252,5393;0,0581336
1253,5035;0,0578365
1254,4678;0,0575509
1255,4320;0,0572744
1256,3962;0,0570025
1257,3605;0,0567301
1258,3247;0,0564516
1259,2889;0,0561629
1260,2532;0,0558613
1261,2174;0,0555446
1262,1816;0,0552109
1263,1459;0,0548573
1264,1101;0,0544815
1265,0743;0,0540833
1266,0386;0,0536648
1267,0028;0,0532302
1267,9670;0,052784
1268,9313;0,05233
1269,8955;0,0518706
1270,8597;0,0514074
1271,8240;0,0509409
1272,7882;0,0504715
1273,7524;0,05
1274,7167;0,04953
1275,6809;0,0490682
1276,6451;0,0486225
1277,6094;0,0481983
1278,5736;0,0477937
1279,5378;0,0473987
1280,5021;0,0469983
1281,4663;0,0465798
1282,4305;0,0461395
1283,3948;0,0456847
1284,3590;0,0452312
1285,3232;0,0447995
1286,2875;0,0444102
1287,2517;0,0440813
1288,2159;0,043825
1289,1802;0,0436448
1290,1444;0,0435349
1291,1086;0,0434823
1292,0729;0,043473
1293,0371;0,043499
1294,0013;0,0435622
1294,9656;0,0436726
1295,9298;0,0438433
1296,8940;0,044084
1297,8583;0,0443969
1298,8225;0,0447776
1299,7867;0,0452175
1300,7510;0,0457069
1301,7152;0,0462375
1302,6794;0,0468037
1303,6437;0,0474032
1304,6079;0,0480363
1305,5721;0,0487029
1306,5364;0,0493996
1307,5006;0,0501172
1308,4648;0,0508429
1309,4291;0,0515622
1310,3933;0,0522618
1311,3575;0,0529276
1312,3218;0,053542
1313,2860;0,0540823
1314,2502;0,0545222
1315,2145;0,0548372
1316,1787;0,0550104
1317,1429;0,0550387
1318,1072;0,0549368
1319,0714;0,0547362
1320,0356;0,0544775
1320,9999;0,0541977
1321,9641;0,0539219
1322,9283;0,0536637
1323,8926;0,0534311
1324,8568;0,0532323
1325,8210;0,0530762
1326,7853;0,0529687
1327,7495;0,0529081
1328,7137;0,0528831
1329,6780;0,0528749
1330,6422;0,0528611
1331,6064;0,0528191
1332,5707;0,0527294
1333,5349;0,0525756
1334,4991;0,0523434
1335,4634;0,0520189
1336,4276;0,0515919
1337,3918;0,0510658
1338,3561;0,0504714
1339,3203;0,0498671
1340,2845;0,0493148
1341,2488;0,0488474
1342,2130;0,0484595
1343,1772;0,0481258
1344,1415;0,0478242
1345,1057;0,047549
1346,0699;0,047312
1347,0342;0,0471354
1347,9984;0,0470414
1348,9626;0,0470419
1349,9269;0,0471339
1350,8911;0,0473016
1351,8553;0,0475225
1352,8196;0,0477758
1353,7838;0,0480498
1354,7480;0,048344
1355,7123;0,0486651
1356,6765;0,0490166
1357,6407;0,0493924
1358,6050;0,0497759
1359,5692;0,0501459
1360,5334;0,0504838
1361,4977;0,0507831
1362,4619;0,0510527
1363,4261;0,051311
1364,3904;0,0515711
1365,3546;0,0518336
1366,3188;0,0520888
1367,2831;0,0523211
1368,2473;0,0525123
1369,2115;0,0526419
1370,1758;0,0526863
1371,1400;0,0526184
1372,1042;0,0524132
1373,0685;0,0520627
1374,0327;0,0515931
1374,9969;0,051062
1375,9612;0,050523
1376,9254;0,0499875
1377,8896;0,0494241
1378,8539;0,0487924
1379,8181;0,0480807
1380,7823;0,0473208
1381,7466;0,0465681
1382,7108;0,0458611
1383,6750;0,045195
1384,6393;0,0445318
1385,6035;0,0438401
1386,5677;0,0431403
1387,5320;0,0425119
1388,4962;0,0420362
1389,4604;0,0417335
1390,4247;0,0415609
1391,3889;0,0414543
1392,3531;0,0413615
1393,3174;0,0412576
1394,2816;0,0411477
1395,2458;0,041059
1396,2101;0,0410219
1397,1743;0,0410526
1398,1385;0,0411493
1399,1028;0,0412997
1400,0670;0,0414883
1401,0313;0,0416994
1401,9955;0,041921
1402,9597;0,0421475
1403,9240;0,042383
1404,8882;0,042639
1405,8524;0,042927
1406,8167;0,0432502
1407,7809;0,0436039
1408,7451;0,043985
1409,7094;0,0443986
1410,6736;0,0448558
1411,6378;0,0453619
1412,6021;0,0459065
1413,5663;0,0464655
1414,5305;0,0470124
1415,4948;0,0475283
1416,4590;0,0480044
1417,4232;0,0484414
1418,3875;0,0488447
1419,3517;0,0492128
1420,3159;0,0495268
1421,2802;0,0497576
1422,2444;0,0498807
1423,2086;0,0498871
1424,1729;0,0497875
1425,1371;0,0496031
1426,1013;0,0493456
1427,0656;0,0489992
1428,0298;0,0485321
1428,9940;0,0479346
1429,9583;0,0472555
1430,9225;0,0465866
1431,8867;0,0459941
1432,8510;0,0454669
1433,8152;0,0449241
1434,7794;0,0442719
1435,7437;0,0434908
1436,7079;0,0426989
1437,6721;0,0420804
1438,6364;0,0417231
1439,6006;0,0415807
1440,5648;0,0415635
1441,5291;0,041609
1442,4933;0,0416938
1443,4575;0,041817
1444,4218;0,0419801
1445,3860;0,0421754
1446,3502;0,0423873
1447,3145;0,0426028
1448,2787;0,0428197
1449,2429;0,0430458
1450,2072;0,0432883
1451,1714;0,0435458
1452,1356;0,0438045
1453,0999;0,0440352
1454,0641;0,0441827
1455,0283;0,044157
1455,9926;0,0438712
1456,9568;0,0433785
1457,9210;0,0429271
1458,8853;0,0426981
1459,8495;0,0426491
1460,8137;0,0426511
1461,7780;0,0425833
1462,7422;0,0423389
1463,7064;0,041842
1464,6707;0,0411098
1465,6349;0,0402805
1466,5991;0,0395113
1467,5634;0,0388536
1468,5276;0,0382441
1469,4918;0,0375596
1470,4561;0,0366619
1471,4203;0,0354543
1472,3845;0,033991
1473,3488;0,0325293
1474,3130;0,03134
1475,2772;0,0304819
1476,2415;0,0298513
1477,2057;0,0293367
1478,1699;0,0288767
1479,1342;0,028449
1480,0984;0,0280503
1481,0626;0,027687
1482,0269;0,0273719
1482,9911;0,0271182
1483,9553;0,0269302
1484,9196;0,0267983
1485,8838;0,0267012
1486,8480;0,0266186
1487,8123;0,0265527
1488,7765;0,0265421
1489,7407;0,0266343
1490,7050;0,0268335
1491,6692;0,0271025
1492,6334;0,0274063
1493,5977;0,0277323
1494,5619;0,0280849
1495,5261;0,0284775
1496,4904;0,0289248
1497,4546;0,0294272
1498,4188;0,02996
1499,3831;0,0304871
1500,3473;0,0309857
1501,3115;0,0314486
1502,2758;0,031869
1503,2400;0,0322239
1504,2042;0,0324552
1505,1685;0,0324552
1506,1327;0,0321148
1507,0969;0,0315118
1508,0612;0,0309497
1509,0254;0,0305948
1509,9896;0,0303791
1510,9539;0,0301996
1511,9181;0,0299939
1512,8823;0,0297257
1513,8466;0,0293737
1514,8108;0,0289361
1515,7750;0,0284404
1516,7393;0,027932
1517,7035;0,027444
1518,6677;0,0269729
1519,6320;0,0264904
1520,5962;0,0259841
1521,5604;0,0254875
1522,5247;0,0250589
1523,4889;0,0247313
1524,4531;0,0244967
1525,4174;0,0243318
1526,3816;0,0242242
1527,3458;0,0241747
1528,3101;0,024184
1529,2743;0,0242415
1530,2385;0,024327
1531,2028;0,0244199
1532,1670;0,0245119
1533,1312;0,0246149
1534,0955;0,0247502
1535,0597;0,0249266
1536,0239;0,0251318
1536,9882;0,025337
1537,9524;0,0254964
1538,9166;0,0255461
1539,8809;0,0254427
1540,8451;0,0252542
1541,8093;0,0251327
1542,7736;0,0251318
1543,7378;0,0252013
1544,7020;0,0252926
1545,6663;0,0253861
1546,6305;0,0254776
1547,5947;0,0255654
1548,5590;0,0256467
1549,5232;0,0257206
1550,4874;0,025794
1551,4517;0,0258823
1552,4159;0,0260008
1553,3801;0,0261518
1554,3444;0,0263177
1555,3086;0,0264583
1556,2728;0,0265089
1557,2371;0,0264027
1558,2013;0,0261738
1559,1655;0,0260233
1560,1298;0,0260783
1561,0940;0,026268
1562,0582;0,026505
1563,0225;0,026756
1563,9867;0,0270119
1564,9509;0,0272647
1565,9152;0,0275031
1566,8794;0,0277221
1567,8436;0,0279368
1568,8079;0,0281833
1569,7721;0,028491
1570,7363;0,0288548
1571,7006;0,0292453
1572,6648;0,0296372
1573,6290;0,0300216
1574,5933;0,0304045
1575,5575;0,0308015
1576,5217;0,0312249
1577,4860;0,0316706
1578,4502;0,0321289
1579,4144;0,032603
1580,3787;0,0331065
1581,3429;0,0336499
1582,3071;0,0342328
1583,2714;0,0348449
1584,2356;0,0354729
1585,1998;0,0361082
1586,1641;0,0367459
1587,1283;0,0373775
1588,0925;0,0379854
1589,0568;0,0385459
1590,0210;0,0390368
1590,9852;0,0394419
1591,9495;0,0397478
1592,9137;0,0399424
1593,8779;0,0400191
1594,8422;0,0399846
1595,8064;0,0398622
1596,7706;0,0396818
1597,7349;0,0394676
1598,6991;0,0392319
1599,6633;0,0389795
1600,6276;0,0387164
1601,5918;0,038455
1602,5560;0,0382132
1603,5203;0,0380053
1604,4845;0,0378333
1605,4487;0,0376846
1606,4130;0,0375398
1607,3772;0,0373883
1608,3414;0,0372415
1609,3057;0,0371338
1610,2699;0,0370989
1611,2341;0,0371436
1612,1984;0,0372404
1613,1626;0,0373394
1614,1268;0,0373857
1615,0911;0,0373494
1616,0553;0,0372647
1617,0195;0,0372236
1617,9838;0,0372916
1618,9480;0,0374527
1619,9122;0,0376481
1620,8765;0,0378256
1621,8407;0,0379576
1622,8049;0,0380456
1623,7692;0,038114
1624,7334;0,0381875
1625,6976;0,0382719
1626,6619;0,0383625
1627,6261;0,0384637
1628,5903;0,0385944
1629,5546;0,0387737
1630,5188;0,0390013
1631,4830;0,03925
1632,4473;0,0394671
1633,4115;0,039577
1634,3757;0,0395078
1635,3400;0,0392706
1636,3042;0,0390136
1637,2684;0,038891
1638,2327;0,0389197
1639,1969;0,0390361
1640,1611;0,0391867
1641,1254;0,0393457
1642,0896;0,0394948
1643,0538;0,0396007
1644,0181;0,0396042
1644,9823;0,0394454
1645,9465;0,0391441
1646,9108;0,0388537
1647,8750;0,0387379
1648,8392;0,0388139
1649,8035;0,0389685
1650,7677;0,0390227
1651,7319;0,0387588
1652,6962;0,0380631
1653,6604;0,0372176
1654,6246;0,0366779
1655,5889;0,0365051
1656,5531;0,0365051
1657,5173;0,0365213
1658,4816;0,0364664
1659,4458;0,0362829
1660,4100;0,0359349
1661,3743;0,0354403
1662,3385;0,0348983
1663,3027;0,0344366
1664,2670;0,0341153
1665,2312;0,0338982
1666,1954;0,0336918
1667,1597;0,0333876
1668,1239;0,0329083
1669,0881;0,0322744
1670,0524;0,0316236
1671,0166;0,0310992
1671,9808;0,0307217
1672,9451;0,0304034
1673,9093;0,0300431
1674,8735;0,0296011
1675,8378;0,0291248
1676,8020;0,0287068
1677,7662;0,0284062
1678,7305;0,0282156
1679,6947;0,0280795
1680,6589;0,027914
1681,6232;0,0276134
1682,5874;0,0270864
1683,5516;0,0263704
1684,5159;0,0256807
1685,4801;0,0251995
1686,4443;0,0249133
1687,4086;0,0247221
1688,3728;0,0245566
1689,3370;0,0243977
1690,3013;0,0242555
1691,2655;0,024143
1692,2297;0,0240586
1693,1940;0,0239828
1694,1582;0,0238877
1695,1224;0,023753
1696,0867;0,0235795
1697,0509;0,0233893
1698,0151;0,0232096
1698,9794;0,0230601
1699,9436;0,0229527
1700,9078;0,0228969
1701,8721;0,0228961
1702,8363;0,0229466
1703,8005;0,0230404
1704,7648;0,023172
1705,7290;0,0233403
1706,6932;0,0235474
1707,6575;0,0237933
1708,6217;0,024075
1709,5859;0,0243882
1710,5502;0,0247282
1711,5144;0,0250865
1712,4786;0,0254475
1713,4429;0,0257874
1714,4071;0,0260808
1715,3713;0,0263175
1716,3356;0,0265247
1717,2998;0,0267593
1718,2640;0,0270526
1719,2283;0,0273876
1720,1925;0,0277358
1721,1567;0,028082
1722,1210;0,0284197
1723,0852;0,0287431
1724,0494;0,0290461
1725,0137;0,0293267
1725,9779;0,0295906
1726,9421;0,0298484
1727,9064;0,0301068
1728,8706;0,0303592
1729,8348;0,030578
1730,7991;0,0307126
1731,7633;0,0307014
1732,7275;0,0305192
1733,6918;0,0302344
1734,6560;0,029976
1735,6202;0,0298128
1736,5845;0,0297136
1737,5487;0,0296043
1738,5129;0,0294199
1739,4772;0,0291304
1740,4414;0,0287512
1741,4056;0,0283317
1742,3699;0,0279169
1743,3341;0,0275186
1744,2983;0,0271211
1745,2626;0,0267007
1746,2268;0,0262337
1747,1910;0,0256917
1748,1553;0,0250468
1749,1195;0,0243043
1750,0837;0,0235327
1751,0480;0,0228316
1752,0122;0,0222563
1752,9764;0,0217891
1753,9407;0,0213718
1754,9049;0,0209502
1755,8691;0,0205024
1756,8334;0,0200419
1757,7976;0,0195961
1758,7618;0,019175
1759,7261;0,0187616
1760,6903;0,0183335
1761,6545;0,0178951
1762,6188;0,0174833
1763,5830;0,0171372
1764,5472;0,0168672
1765,5115;0,0166527
1766,4757;0,016462
1767,4399;0,0162707
1768,4042;0,0160675
1769,3684;0,0158487
1770,3326;0,0156109
1771,2969;0,0153556
1772,2611;0,0151028
1773,2253;0,0148889
1774,1896;0,014741
1775,1538;0,0146579
1776,1180;0,014617
1777,0823;0,0145909
1778,0465;0,0145594
1779,0107;0,0145154
1779,9750;0,0144639
1780,9392;0,0144141
1781,9034;0,0143703
1782,8677;0,01433
1783,8319;0,0142917
1784,7961;0,0142607
1785,7604;0,0142463
1786,7246;0,0142538
1787,6888;0,0142781
1788,6531;0,0143031
1789,6173;0,0143065
1790,5815;0,0142695
1791,5458;0,0141918
1792,5100;0,0141001
1793,4742;0,0140289
1794,4385;0,0139946
1795,4027;0,0139916
1796,3669;0,0140047
1797,3312;0,014018
1798,2954;0,0140185
1799,2596;0,0139992
1800,2239;0,0139621
1801,1881;0,0139177
1802,1523;0,0138793
1803,1166;0,0138564
1804,0808;0,0138519
1805,0450;0,0138625
1806,0093;0,0138798
1806,9735;0,0138918
1807,9377;0,0138869
1808,9020;0,0138579
1809,8662;0,0138072
1810,8304;0,0137465
1811,7947;0,0136899
1812,7589;0,0136459
1813,7231;0,0136144
1814,6874;0,0135911
1815,6516;0,0135736
1816,6158;0,0135657
1817,5801;0,0135757
1818,5443;0,0136098
1819,5085;0,0136657
1820,4728;0,0137313
1821,4370;0,013791
1822,4012;0,0138321
1823,3655;0,01385
1824,3297;0,0138484
1825,2939;0,0138339
1826,2582;0,0138084
1827,2224;0,0137679
1828,1866;0,013709
1829,1509;0,013639
1830,1151;0,0135783
1831,0793;0,0135477
1832,0436;0,0135521
1833,0078;0,0135792
1833,9720;0,0136096
1834,9363;0,0136276
1835,9005;0,0136279
1836,8647;0,0136175
1837,8290;0,0136107
1838,7932;0,0136179
1839,7574;0,0136393
1840,7217;0,0136641
1841,6859;0,0136759
1842,6501;0,0136594
1843,6144;0,0136104
1844,5786;0,013541
1845,5428;0,0134717
1846,5071;0,0134186
1847,4713;0,0133882
1848,4355;0,0133812
1849,3998;0,013395
1850,3640;0,0134233
1851,3282;0,0134562
1852,2925;0,0134826
1853,2567;0,0134958
1854,2209;0,0134968
1855,1852;0,0134943
1856,1494;0,0134992
1857,1136;0,013517
1858,0779;0,0135439
1859,0421;0,0135685
1860,0063;0,0135787
1860,9706;0,0135695
1861,9348;0,0135448
1862,8990;0,0135145
1863,8633;0,0134882
1864,8275;0,0134715
1865,7917;0,0134662
1866,7560;0,0134723
1867,7202;0,0134889
1868,6844;0,0135118
1869,6487;0,0135314
1870,6129;0,0135379
1871,5771;0,0135283
1872,5414;0,0135078
1873,5056;0,0134859
1874,4698;0,0134716
1875,4341;0,0134695
1876,3983;0,0134769
1877,3625;0,0134858
1878,3268;0,0134882
1879,2910;0,0134814
1880,2552;0,0134707
1881,2195;0,0134648
1882,1837;0,0134699
1883,1479;0,0134842
1884,1122;0,0134987
1885,0764;0,0135021
1886,0406;0,0134879
1887,0049;0,0134577
1887,9691;0,0134199
1888,9333;0,0133854
1889,8976;0,0133608
1890,8618;0,0133462
1891,8260;0,013338
1892,7903;0,013334
1893,7545;0,0133346
1894,7188;0,013341
1895,6830;0,0133529
1896,6472;0,0133678
1897,6115;0,0133832
1898,5757;0,0133992
1899,5399;0,013417
1900,5042;0,0134357
1901,4684;0,0134493
1902,4326;0,0134484
1903,3969;0,0134267
1904,3611;0,0133873
1905,3253;0,0133438
1906,2896;0,013315
1907,2538;0,0133155
1908,2180;0,0133472
1909,1823;0,0133977
1910,1465;0,0134462
1911,1107;0,0134747
1912,0750;0,0134762
1913,0392;0,0134548
1914,0034;0,0134208
1914,9677;0,0133851
1915,9319;0,0133566
1916,8961;0,0133391
1917,8604;0,0133293
1918,8246;0,0133186
1919,7888;0,0133004
1920,7531;0,0132769
1921,7173;0,0132612
1922,6815;0,0132695
1923,6458;0,013308
1924,6100;0,0133626
1925,5742;0,0134025
1926,5385;0,0133976
1927,5027;0,0133369
1928,4669;0,0132369
1929,4312;0,0131362
1930,3954;0,013078
1931,3596;0,0130881
1932,3239;0,0131635
1933,2881;0,0132757
1934,2523;0,0133846
1935,2166;0,0134525
1936,1808;0,0134525
1937,1450;0,0133714
1938,1093;0,0132128
1939,0735;0,0129998
1940,0377;0,0127779
1941,0020;0,0126078
1941,9662;0,0125421
1942,9304;0,0125922
1943,8947;0,0127149
1944,8589;0,0128374
1945,8231;0,0129024
1946,7874;0,0128964
1947,7516;0,0128463
1948,7158;0,0127953
1949,6801;0,0127739
1950,6443;0,0127831
1951,6085;0,0127982
1952,5728;0,0127887
1953,5370;0,0127398
1954,5012;0,0126601
1955,4655;0,012573
1956,4297;0,0124993
1957,3939;0,0124449
1958,3582;0,0124018
1959,3224;0,0123593
1960,2866;0,0123165
1961,2509;0,0122861
1962,2151;0,012286
1963,1793;0,0123262
1964,1436;0,0123991
1965,1078;0,0124798
1966,0720;0,0125351
1967,0363;0,0125379
1968,0005;0,0124803
1968,9647;0,0123761
1969,9290;0,0122557
1970,8932;0,0121552
1971,8574;0,0121089
1972,8217;0,012141
1973,7859;0,0122561
1974,7501;0,0124306
1975,7144;0,012615
1976,6786;0,0127531
1977,6428;0,01281
1978,6071;0,01279
1979,5713;0,0127259
1980,5355;0,0126527
1981,4998;0,012586
1982,4640;0,0125212
1983,4282;0,0124489
1984,3925;0,0123726
1985,3567;0,0123165
1986,3209;0,0123161
1987,2852;0,0123988
1988,2494;0,0125662
1989,2136;0,0127894
1990,1779;0,0130188
1991,1421;0,0132037
1992,1063;0,0133125
1993,0706;0,0133438
1994,0348;0,0133201
1994,9990;0,013273
1995,9633;0,0132282
1996,9275;0,0131979
1997,8917;0,0131791
1998,8560;0,0131571
1999,8202;0,0131138
2000,7844;0,0130395
2001,7487;0,0129421
2002,7129;0,0128483
2003,6771;0,0127942
2004,6414;0,0128067
2005,6056;0,0128853
2006,5698;0,0129968
2007,5341;0,0130909
2008,4983;0,0131301
2009,4625;0,0131117
2010,4268;0,0130648
2011,3910;0,0130232
2012,3552;0,012997
2013,3195;0,012962
2014,2837;0,0128775
2015,2479;0,0127238
2016,2122;0,0125343
2017,1764;0,012394
2018,1406;0,012394
2019,1049;0,0125715
2020,0691;0,0128784
2021,0333;0,0132028
2021,9976;0,0134277
2022,9618;0,0134909
2023,9260;0,0134109
2024,8903;0,0132653
2025,8545;0,0131355
2026,8187;0,0130587
2027,7830;0,0130188
2028,7472;0,0129791
2029,7114;0,0129273
2030,6757;0,0128945
2031,6399;0,0129366
2032,6041;0,0130918
2033,5684;0,0133482
2034,5326;0,0136469
2035,4968;0,0139141
2036,4611;0,0140976
2037,4253;0,0141791
2038,3895;0,0141628
2039,3538;0,0140578
2040,3180;0,0138713
2041,2822;0,0136193
2042,2465;0,0133432
2043,2107;0,0131154
2044,1749;0,0130231
2045,1392;0,0131347
2046,1034;0,0134606
2047,0676;0,0139321
2048,0320;0,0144187
2048,9961;0,0147857
2049,9604;0,0149564
2050,9246;0,0149385
2051,8889;0,0148046
2052,8530;0,01465
2053,8174;0,0145526
2054,7815;0,0145469
2055,7458;0,0146181
2056,7100;0,0147165
2057,6743;0,0147844
2058,6384;0,0147823
2059,6028;0,0147037
2060,5669;0,0145747
2061,5313;0,014442
2062,4954;0,0143535
2063,4597;0,0143396
2064,4238;0,0144005
2065,3882;0,0145084
2066,3523;0,0146226
2067,3167;0,0147102
2068,2808;0,0147603
2069,2451;0,0147837
2070,2092;0,0148007
2071,1736;0,0148253
2072,1377;0,0148566
2073,1021;0,0148811
2074,0662;0,0148845
2075,0305;0,0148649
2075,9946;0,0148361
2076,9590;0,0148199
2077,9231;0,0148311
2078,8875;0,014865
2079,8516;0,0148987
2080,8159;0,0149053
2081,7800;0,0148735
2082,7444;0,0148192
2083,7085;0,0147791
2084,6729;0,0147896
2085,6370;0,0148626
2086,6013;0,0149737
2087,5654;0,0150725
2088,5298;0,0151086
2089,4939;0,0150601
2090,4583;0,0149452
2091,4224;0,0148123
2092,3867;0,0147147
2093,3508;0,0146839
2094,3152;0,0147172
2095,2793;0,0147835
2096,2437;0,0148432
2097,2078;0,0148704
2098,1721;0,0148639
2099,1362;0,014843
2100,1006;0,014833
2101,0647;0,0148499
2102,0291;0,0148916
2102,9932;0,0149408
2103,9575;0,014975
2104,9216;0,0149794
2105,8860;0,014955
2106,8501;0,014917
2107,8145;0,0148869
2108,7786;0,0148808
2109,7429;0,014902
2110,7070;0,0149409
2111,6714;0,0149805
2112,6355;0,0150055
2113,5999;0,0150084
2114,5640;0,014992
2115,5283;0,0149661
2116,4924;0,0149423
2117,4568;0,014928
2118,4209;0,0149224
2119,3853;0,0149183
2120,3494;0,0149072
2121,3137;0,0148883
2122,2778;0,014872
2123,2422;0,014877
2124,2063;0,0149186
2125,1707;0,0149962
2126,1348;0,0150869
2127,0991;0,0151533
2128,0632;0,0151609
2129,0276;0,0150965
2129,9917;0,0149754
2130,9561;0,0148346
2131,9202;0,0147144
2132,8845;0,0146406
2133,8486;0,0146173
2134,8130;0,014632
2135,7771;0,0146697
2136,7415;0,0147222
2137,7056;0,0147885
2138,6699;0,0148672
2139,6340;0,0149488
2140,5984;0,0150159
2141,5625;0,0150492
2142,5269;0,0150362
2143,4910;0,0149783
2144,4553;0,0148941
2145,4194;0,0148181
2146,3838;0,0147929
2147,3479;0,0148532
2148,3123;0,0150056
2149,2764;0,0152139
2150,2407;0,0154018
2151,2048;0,0154781
2152,1692;0,0153764
2153,1333;0,0150906
2154,0977;0,0146901
2155,0618;0,0143076
2156,0261;0,0141007
2156,9902;0,0141915
2157,9546;0,0145948
2158,9187;0,0151804
2159,8831;0,0157227
2160,8472;0,0160204
2161,8115;0,0159947
2162,7756;0,0157086
2163,7400;0,0153218
2164,7041;0,0150177
2165,6685;0,0149272
2166,6326;0,015072
2167,5969;0,0153597
2168,5610;0,015635
2169,5254;0,0157606
2170,4895;0,0156836
2171,4539;0,0154546
2172,4180;0,0151963
2173,3823;0,0150389
2174,3464;0,0150545
2175,3108;0,0152262
2176,2749;0,0154643
2177,2393;0,0156591
2178,2034;0,0157356
2179,1677;0,0156831
2180,1318;0,0155494
2181,0962;0,0154101
2182,0603;0,0153288
2183,0247;0,0153294
2183,9888;0,015392
2184,9531;0,0154718
2185,9172;0,0155261
2186,8816;0,0155337
2187,8457;0,0154981
2188,8101;0,0154389
2189,7742;0,0153791
2190,7385;0,0153356
2191,7026;0,0153159
2192,6670;0,0153176
2193,6311;0,0153304
2194,5955;0,0153391
2195,5596;0,0153298
2196,5239;0,0152969
2197,4880;0,0152482
2198,4524;0,0152028
2199,4165;0,0151812
2200,3809;0,0151934
2201,3450;0,0152319
2202,3093;0,0152755
2203,2734;0,0153021
2204,2378;0,0153014
2205,2019;0,015281
2206,1663;0,0152608
2207,1304;0,0152624
2208,0947;0,0152977
2209,0588;0,0153632
2210,0232;0,0154413
2210,9873;0,0155062
2211,9517;0,015532
2212,9158;0,0155009
2213,8801;0,0154093
2214,8442;0,0152709
2215,8086;0,0151155
2216,7727;0,0149801
2217,7371;0,0148982
2218,7012;0,0148887
2219,6655;0,0149506
2220,6296;0,0150659
2221,5940;0,0152073
2222,5581;0,0153469
2223,5225;0,0154615
2224,4866;0,0155333
2225,4509;0,0155501
2226,4150;0,0155073
2227,3794;0,0154129
2228,3435;0,0152903
2229,3079;0,0151746
2230,2720;0,0151
2231,2363;0,0150857
2232,2004;0,0151273
2233,1648;0,015201
2234,1289;0,0152776
2235,0933;0,0153378
2236,0574;0,0153781
2237,0217;0,0154053
2237,9858;0,0154264
2238,9502;0,0154407
2239,9143;0,0154414
2240,8787;0,0154234
2241,8428;0,0153897
2242,8071;0,0153518
2243,7712;0,0153238
2244,7356;0,0153146
2245,6997;0,0153245
2246,6641;0,0153473
2247,6282;0,0153756
2248,5925;0,0154048
2249,5566;0,0154338
2250,5210;0,0154632
2251,4851;0,0154922
2252,4495;0,015517
2253,4136;0,0155321
2254,3779;0,015533
2255,3420;0,0155194
2256,3064;0,0154962
2257,2705;0,0154713
2258,2349;0,0154518
2259,1990;0,0154404
2260,1633;0,0154354
2261,1274;0,0154336
2262,0918;0,0154333
2263,0559;0,0154352
2264,0203;0,0154404
2264,9844;0,0154468
2265,9487;0,0154491
2266,9128;0,0154422
2267,8772;0,0154258
2268,8413;0,0154059
2269,8057;0,0153915
2270,7698;0,0153888
2271,7341;0,015398
2272,6982;0,0154135
2273,6626;0,0154292
2274,6267;0,0154415
2275,5911;0,0154507
2276,5552;0,015459
2277,5195;0,0154688
2278,4836;0,015483
2279,4480;0,0155054
2280,4121;0,0155403
2281,3765;0,0155899
2282,3406;0,0156507
2283,3049;0,0157141
2284,2690;0,0157689
2285,2334;0,0158063
2286,1975;0,0158232
2287,1619;0,0158216
2288,1260;0,0158049
2289,0903;0,0157756
2290,0544;0,0157338
2291,0188;0,0156806
2291,9829;0,0156204
2292,9473;0,0155631
2293,9114;0,0155214
2294,8757;0,0155065
2295,8398;0,0155242
2296,8042;0,015572
2297,7683;0,0156401
2298,7327;0,0157145
2299,6968;0,0157815
2300,6611;0,0158304
2301,6252;0,0158565
2302,5896;0,0158609
2303,5537;0,0158493
2304,5181;0,0158301
2305,4822;0,0158119
2306,4465;0,0158015
2307,4106;0,0158028
2308,3750;0,0158159
2309,3391;0,0158386
2310,3035;0,0158689
2311,2676;0,0159063
2312,2319;0,015951
2313,1960;0,0160019
2314,1604;0,0160545
2315,1245;0,0161021
2316,0889;0,0161402
2317,0530;0,0161704
2318,0173;0,0162015
2318,9814;0,0162445
2319,9458;0,0163018
2320,9099;0,0163581
2321,8743;0,0163827
2322,8384;0,0163453
2323,8027;0,0162351
2324,7668;0,0160682
2325,7312;0,0158797
2326,6953;0,0157096
2327,6597;0,0155892
2328,6238;0,0155328
2329,5881;0,0155329
2330,5522;0,0155643
2331,5166;0,0155956
2332,4807;0,0156022
2333,4451;0,0155732
2334,4092;0,0155091
2335,3735;0,015417
2336,3376;0,0153077
2337,3020;0,0151952
2338,2661;0,0150957
2339,2305;0,0150237
2340,1946;0,0149883
2341,1589;0,0149924
2342,1230;0,0150355
2343,0874;0,0151134
2344,0515;0,0152151
2345,0159;0,0153223
2345,9800;0,0154192
2346,9443;0,0154992
2347,9084;0,0155637
2348,8728;0,0156146
2349,8369;0,0156516
2350,8013;0,0156731
2351,7654;0,0156822
2352,7297;0,0156936
2353,6938;0,0157322
2354,6582;0,0158162
2355,6223;0,0159361
2356,5867;0,0160546
2357,5508;0,0161278
2358,5151;0,0161278
2359,4792;0,0160517
2360,4436;0,0159159
2361,4077;0,0157423
2362,3721;0,0155501
2363,3362;0,0153591
2364,3005;0,0151937
2365,2646;0,0150798
2366,2290;0,0150334
2367,1931;0,0150524
2368,1575;0,0151175
2369,1216;0,0152022
2370,0859;0,0152838
2371,0500;0,0153511
2372,0144;0,015403
2372,9785;0,0154428
2373,9429;0,0154721
2374,9070;0,0154888
2375,8713;0,0154902
2376,8354;0,015477
2377,7998;0,0154562
2378,7639;0,0154391
2379,7283;0,0154377
2380,6924;0,0154594
2381,6567;0,0155041
2382,6208;0,0155651
2383,5852;0,0156313
2384,5493;0,0156918
2385,5137;0,0157388
2386,4778;0,0157697
2387,4421;0,0157869
2388,4063;0,0157966
2389,3706;0,015806
2390,3347;0,0158203
2391,2991;0,0158408
2392,2632;0,0158647
2393,2275;0,0158864
2394,1917;0,0159003
2395,1560;0,0159033
2396,1201;0,0158966
2397,0845;0,0158856
2398,0486;0,0158774
2399,0129;0,0158787
2399,9771;0,0158928
2400,9414;0,0159189
2401,9055;0,015953
2402,8699;0,0159898
2403,8340;0,0160257
2404,7983;0,0160592
2405,7625;0,0160907
2406,7268;0,0161204
2407,6909;0,0161477
2408,6553;0,0161703
2409,6194;0,0161861
2410,5837;0,0161945
2411,5479;0,0161965
2412,5122;0,0161945
2413,4763;0,0161911
2414,4407;0,0161887
2415,4048;0,0161893
2416,3691;0,0161953
2417,3333;0,0162086
2418,2976;0,0162291
2419,2617;0,0162545
2420,2261;0,0162805
2421,1902;0,0163038
2422,1545;0,0163236
2423,1187;0,0163421
2424,0830;0,0163624
2425,0471;0,0163858
2426,0115;0,0164104
2426,9756;0,0164322
2427,9399;0,0164482
2428,9041;0,0164585
2429,8684;0,0164659
2430,8325;0,0164738
2431,7969;0,0164838
2432,7610;0,0164944
2433,7253;0,0165028
2434,6895;0,016507
2435,6538;0,0165079
2436,6179;0,0165092
2437,5823;0,0165164
2438,5464;0,0165344
2439,5107;0,0165651
2440,4749;0,0166061
2441,4392;0,0166509
2442,4033;0,0166906
2443,3677;0,0167179
2444,3318;0,0167306
2445,2961;0,0167331
2446,2603;0,0167354
2447,2246;0,0167473
2448,1887;0,0167738
2449,1531;0,0168121
2450,1172;0,0168523
2451,0815;0,0168834
2452,0457;0,0168983
2453,0100;0,0168974
2453,9741;0,0168873
2454,9385;0,0168766
2455,9026;0,0168711
2456,8669;0,0168722
2457,8311;0,0168782
2458,7954;0,0168869
2459,7595;0,0168982
2460,7239;0,016914
2461,6880;0,0169352
2462,6523;0,0169605
2463,6165;0,0169856
2464,5808;0,0170056
2465,5449;0,0170187
2466,5093;0,0170271
2467,4734;0,0170357
2468,4377;0,0170488
2469,4019;0,017068
2470,3662;0,0170908
2471,3303;0,0171129
2472,2947;0,0171307
2473,2588;0,0171424
2474,2231;0,0171486
2475,1873;0,0171512
2476,1516;0,017153
2477,1157;0,0171575
2478,0801;0,0171678
2479,0442;0,0171859
2480,0085;0,0172111
2480,9727;0,0172395
2481,9370;0,0172659
2482,9011;0,0172856
2483,8655;0,0172958
2484,8296;0,0172962
2485,7939;0,0172874
2486,7581;0,0172705
2487,7224;0,0172479
2488,6865;0,0172253
2489,6509;0,0172113
2490,6150;0,0172148
2491,5793;0,0172399
2492,5435;0,0172826
2493,5078;0,0173316
2494,4719;0,0173739
2495,4363;0,0174021
2496,4004;0,0174173
2497,3647;0,0174276
2498,3289;0,0174411
2499,2932;0,0174605
2500,2573;0,0174814
2501,2217;0,0174964
2502,1858;0,0175001
2503,1501;0,0174937
2504,1143;0,0174838
2505,0786;0,0174791
2506,0427;0,0174856
2507,0071;0,0175043
2507,9712;0,0175322
2508,9355;0,0175639
2509,8997;0,0175943
2510,8640;0,0176189
2511,8281;0,0176349
2512,7925;0,0176405
2513,7566;0,0176364
2514,7209;0,0176256
2515,6851;0,0176135
2516,6494;0,017606
2517,6135;0,0176068
2518,5779;0,0176166
2519,5420;0,0176318
2520,5063;0,0176473
2521,4705;0,0176586
2522,4348;0,0176643
2523,3989;0,0176668
2524,3633;0,0176714
2525,3274;0,0176837
2526,2917;0,0177066
2527,2559;0,0177374
2528,2202;0,0177679
2529,1843;0,0177874
2530,1487;0,0177875
2531,1128;0,0177682
2532,0771;0,0177388
2533,0413;0,0177149
2534,0056;0,0177103
2534,9697;0,0177289
2535,9341;0,0177627
2536,8982;0,0177953
2537,8625;0,017811
2538,8267;0,0178032
2539,7910;0,0177772
2540,7551;0,0177471
2541,7195;0,0177278
2542,6836;0,0177291
2543,6479;0,0177513
2544,6121;0,017787
2545,5764;0,0178245
2546,5405;0,0178526
2547,5049;0,0178652
2548,4690;0,0178627
2549,4333;0,017852
2550,3975;0,0178427
2551,3618;0,0178426
2552,3259;0,0178544
2553,2903;0,0178747
2554,2544;0,0178972
2555,2188;0,0179163
2556,1829;0,0179294
2557,1472;0,0179371
2558,1113;0,0179415
2559,0757;0,0179453
2560,0398;0,0179513
2561,0042;0,0179624
2561,9683;0,0179801
2562,9326;0,0180025
2563,8967;0,0180239
2564,8611;0,0180366
2565,8252;0,0180355
2566,7896;0,0180219
2567,7537;0,0180047
2568,7180;0,0179951
2569,6821;0,0180009
2570,6465;0,0180216
2571,6106;0,0180494
2572,5750;0,0180741
2573,5391;0,0180889
2574,5034;0,0180936
2575,4675;0,0180926
2576,4319;0,0180914
2577,3960;0,0180935
2578,3604;0,0180995
2579,3245;0,0181087
2580,2888;0,0181203
2581,2529;0,0181342
2582,2173;0,0181492
2583,1814;0,0181635
2584,1458;0,018174
2585,1099;0,0181786
2586,0742;0,0181776
2587,0383;0,0181741
2588,0027;0,0181728
2588,9668;0,0181782
2589,9312;0,0181926
2590,8953;0,0182152
2591,8596;0,0182422
2592,8237;0,0182679
2593,7881;0,0182871
2594,7522;0,0182978
2595,7166;0,018302
2596,6807;0,0183048
2597,6450;0,0183117
2598,6091;0,0183254
2599,5735;0,0183448
2600,5376;0,0183663
2601,5020;0,0183873
2602,4661;0,0184082
2603,4304;0,018432
2604,3945;0,0184611
2605,3589;0,0184944
2606,3230;0,0185268
2607,2874;0,0185524
2608,2515;0,0185675
2609,2158;0,0185737
2610,1799;0,018576
2611,1443;0,0185804
2612,1084;0,0185903
2613,0728;0,0186066
2614,0369;0,0186287
2615,0012;0,0186553
2615,9653;0,0186855
2616,9297;0,0187175
2617,8938;0,0187481
2618,8582;0,0187743
2619,8223;0,0187941
2620,7866;0,0188085
2621,7507;0,0188202
2622,7151;0,0188318
2623,6792;0,0188438
2624,6436;0,018855
2625,6077;0,0188643
2626,5720;0,0188732
2627,5361;0,0188858
2628,5005;0,0189075
2629,4646;0,0189414
2630,4290;0,0189855
2631,3931;0,0190339
2632,3574;0,0190788
2633,3215;0,0191141
2634,2859;0,0191383
2635,2500;0,0191537
2636,2144;0,0191645
2637,1785;0,0191746
2638,1428;0,0191862
2639,1069;0,0191997
2640,0713;0,019215
2641,0354;0,0192326
2641,9998;0,019253
2642,9639;0,0192767
2643,9282;0,0193031
2644,8923;0,0193307
2645,8567;0,0193578
2646,8208;0,0193832
2647,7852;0,0194061
2648,7493;0,0194262
2649,7136;0,019443
2650,6777;0,0194558
2651,6421;0,0194644
2652,6062;0,01947
2653,5706;0,0194749
2654,5347;0,0194824
2655,4990;0,0194946
2656,4631;0,0195121
2657,4275;0,019533
2658,3916;0,0195544
2659,3560;0,019573
2660,3201;0,0195866
2661,2844;0,0195943
2662,2485;0,0195967
2663,2129;0,0195961
2664,1770;0,0195958
2665,1414;0,0196
2666,1055;0,0196122
2667,0698;0,0196333
2668,0339;0,0196612
2668,9983;0,0196908
2669,9624;0,0197172
2670,9268;0,0197378
2671,8909;0,019754
2672,8552;0,01977
2673,8193;0,0197899
2674,7837;0,019815
2675,7478;0,0198429
2676,7122;0,019869
2677,6763;0,0198897
2678,6406;0,0199045
2679,6047;0,0199165
2680,5691;0,0199313
2681,5332;0,0199538
2682,4976;0,0199861
2683,4617;0,0200266
2684,4260;0,020071
2685,3901;0,0201139
2686,3545;0,0201508
2687,3186;0,0201796
2688,2830;0,0202012
2689,2471;0,0202189
2690,2114;0,0202368
2691,1755;0,0202584
2692,1399;0,0202845
2693,1040;0,0203138
2694,0684;0,0203436
2695,0325;0,0203712
2695,9968;0,0203958
2696,9609;0,0204184
2697,9253;0,020441
2698,8894;0,0204658
2699,8538;0,0204933
2700,8179;0,0205232
2701,7822;0,020554
2702,7463;0,0205846
2703,7107;0,0206143
2704,6748;0,020643
2705,6392;0,0206706
2706,6033;0,0206978
2707,5676;0,0207259
2708,5317;0,0207567
2709,4961;0,0207915
2710,4602;0,0208303
2711,4246;0,0208705
2712,3887;0,0209082
2713,3530;0,0209405
2714,3171;0,0209668
2715,2815;0,0209897
2716,2456;0,0210131
2717,2100;0,0210398
2718,1741;0,0210695
2719,1384;0,0210995
2720,1025;0,0211258
2721,0669;0,0211456
2722,0310;0,0211585
2722,9954;0,0211663
2723,9595;0,0211723
2724,9238;0,0211799
2725,8879;0,0211924
2726,8523;0,021212
2727,8164;0,0212398
2728,7808;0,0212752
2729,7449;0,0213157
2730,7092;0,0213579
2731,6733;0,0213982
2732,6377;0,0214332
2733,6018;0,021461
2734,5662;0,0214808
2735,5303;0,0214933
2736,4946;0,0215001
2737,4587;0,0215039
2738,4231;0,021508
2739,3872;0,0215159
2740,3516;0,0215302
2741,3157;0,0215522
2742,2800;0,0215812
2743,2441;0,0216143
2744,2085;0,0216467
2745,1726;0,0216733
2746,1370;0,02169
2747,1011;0,0216956
2748,0654;0,0216933
2749,0295;0,0216898
2749,9939;0,0216931
2750,9580;0,0217097
2751,9224;0,0217418
2752,8865;0,0217862
2753,8508;0,0218357
2754,8149;0,021882
2755,7793;0,0219194
2756,7434;0,0219465
2757,7078;0,0219662
2758,6719;0,0219838
2759,6362;0,0220036
2760,6003;0,0220274
2761,5647;0,0220537
2762,5288;0,0220804
2763,4932;0,0221061
2764,4573;0,0221317
2765,4216;0,0221596
2766,3857;0,0221924
2767,3501;0,0222313
2768,3142;0,0222754
2769,2786;0,022322
2770,2427;0,0223674
2771,2070;0,022408
2772,1711;0,0224412
2773,1355;0,0224666
2774,0996;0,0224866
2775,0640;0,022506
2776,0281;0,0225305
2776,9924;0,0225643
2777,9565;0,0226083
2778,9209;0,0226596
2779,8850;0,0227134
2780,8494;0,0227657
2781,8135;0,0228148
2782,7778;0,0228619
2783,7419;0,0229093
2784,7063;0,0229586
2785,6704;0,0230095
2786,6348;0,0230604
2787,5989;0,0231098
2788,5632;0,0231579
2789,5273;0,0232068
2790,4917;0,0232594
2791,4558;0,023318
2792,4202;0,0233828
2793,3843;0,0234516
2794,3486;0,0235205
2795,3127;0,0235864
2796,2771;0,0236478
2797,2412;0,023706
2798,2056;0,0237641
2799,1697;0,0238258
2800,1340;0,0238941
2801,0981;0,0239705
2802,0625;0,024055
2803,0266;0,0241458
2803,9910;0,0242396
2804,9551;0,0243316
2805,9194;0,0244172
2806,8835;0,024494
2807,8479;0,0245637
2808,8120;0,0246327
2809,7764;0,0247099
2810,7405;0,0248029
2811,7048;0,0249142
2812,6689;0,0250397
2813,6333;0,0251707
2814,5974;0,0252982
2815,5618;0,025417
2816,5259;0,025528
2817,4902;0,0256369
2818,4543;0,0257506
2819,4187;0,0258732
2820,3828;0,026004
2821,3472;0,0261386
2822,3113;0,0262716
2823,2756;0,0264011
2824,2397;0,0265297
2825,2041;0,0266646
2826,1682;0,0268138
2827,1326;0,0269827
2828,0967;0,0271716
2829,0610;0,0273764
2830,0251;0,027591
2830,9895;0,0278106
2831,9536;0,028034
2832,9180;0,0282626
2833,8821;0,0284987
2834,8464;0,0287429
2835,8105;0,0289943
2836,7749;0,0292513
2837,7390;0,0295143
2838,7034;0,0297878
2839,6675;0,0300793
2840,6318;0,0303977
2841,5959;0,0307496
2842,5603;0,0311382
2843,5244;0,0315614
2844,4888;0,0320122
2845,4529;0,0324772
2846,4172;0,0329369
2847,3813;0,0333663
2848,3457;0,0337387
2849,3098;0,0340324
2850,2742;0,0342367
2851,2383;0,0343557
2852,2026;0,034406
2853,1667;0,0344103
2854,1311;0,0343903
2855,0952;0,0343614
2856,0596;0,0343317
2857,0237;0,0343056
2857,9880;0,034287
2858,9521;0,0342815
2859,9165;0,0342962
2860,8806;0,0343369
2861,8450;0,0344054
2862,8091;0,0344991
2863,7734;0,0346123
2864,7375;0,0347387
2865,7019;0,0348742
2866,6660;0,0350168
2867,6304;0,0351646
2868,5945;0,0353135
2869,5588;0,035456
2870,5229;0,0355825
2871,4873;0,0356861
2872,4514;0,0357664
2873,4158;0,0358304
2874,3799;0,0358904
2875,3442;0,0359572
2876,3083;0,0360356
2877,2727;0,036123
2878,2368;0,0362128
2879,2012;0,0362988
2880,1653;0,0363802
2881,1296;0,0364609
2882,0938;0,0365476
2883,0581;0,036645
2884,0222;0,0367535
2884,9866;0,0368695
2885,9507;0,0369875
2886,9150;0,0371032
2887,8792;0,0372146
2888,8435;0,0373219
2889,8076;0,0374264
2890,7720;0,0375285
2891,7361;0,0376272
2892,7004;0,0377214
2893,6646;0,0378107
2894,6289;0,0378966
2895,5930;0,0379824
2896,5574;0,0380709
2897,5215;0,0381628
2898,4858;0,0382554
2899,4500;0,0383438
2900,4143;0,0384235
2901,3784;0,0384926
2902,3428;0,0385533
2903,3069;0,0386096
2904,2712;0,0386661
2905,2354;0,0387257
2906,1997;0,0387902
2907,1638;0,038862
2908,1282;0,0389462
2909,0923;0,0390505
2910,0566;0,0391823
2911,0208;0,039345
2911,9851;0,0395343
2912,9492;0,0397366
2913,9136;0,0399323
2914,8777;0,0401004
2915,8420;0,0402242
2916,8062;0,0402944
2917,7705;0,0403095
2918,7346;0,0402729
2919,6990;0,0401905
2920,6631;0,0400688
2921,6274;0,0399141
2922,5916;0,0397331
2923,5559;0,0395323
2924,5200;0,0393173
2925,4844;0,0390919
2926,4485;0,038859
2927,4128;0,0386213
2928,3770;0,0383826
2929,3413;0,0381472
2930,3054;0,0379176
2931,2698;0,0376927
2932,2339;0,0374679
2933,1982;0,0372376
2934,1624;0,0369987
2935,1267;0,0367525
2936,0908;0,0365042
2937,0552;0,0362594
2938,0193;0,0360211
2938,9836;0,0357884
2939,9478;0,0355572
2940,9121;0,0353228
2941,8762;0,0350817
2942,8406;0,0348324
2943,8047;0,0345757
2944,7690;0,0343141
2945,7332;0,0340521
2946,6975;0,0337953
2947,6616;0,0335495
2948,6260;0,0333192
2949,5901;0,0331066
2950,5544;0,0329109
2951,5186;0,0327294
2952,4829;0,0325584
2953,4470;0,0323943
2954,4114;0,0322343
2955,3755;0,0320763
2956,3398;0,0319191
2957,3040;0,0317623
2958,2683;0,0316059
2959,2324;0,0314501
2960,1968;0,0312942
2961,1609;0,031137
2962,1252;0,0309773
2963,0894;0,0308142
2964,0537;0,0306485
2965,0178;0,0304815
2965,9822;0,0303147
2966,9463;0,030148
2967,9106;0,0299794
2968,8748;0,0298051
2969,8391;0,0296214
2970,8032;0,0294275
2971,7676;0,0292266
2972,7317;0,0290263
2973,6960;0,028836
2974,6602;0,0286632
2975,6245;0,0285103
2976,5886;0,0283735
2977,5530;0,0282454
2978,5171;0,0281194
2979,4814;0,0279934
2980,4456;0,02787
2981,4099;0,0277545
2982,3740;0,0276511
2983,3384;0,0275605
2984,3025;0,0274809
2985,2668;0,0274098
2986,2310;0,0273461
2987,1953;0,0272895
2988,1594;0,027239
2989,1238;0,0271923
2990,0879;0,0271466
2991,0522;0,0271011
2992,0164;0,0270592
2992,9807;0,0270263
2993,9448;0,0270078
2994,9092;0,0270052
2995,8733;0,0270161
2996,8376;0,0270358
2997,8018;0,0270602
2998,7661;0,027087
2999,7302;0,0271151
3000,6946;0,0271428
3001,6587;0,027168
3002,6230;0,0271893
3003,5872;0,0272078
3004,5515;0,0272272
3005,5156;0,027251
3006,4800;0,0272805
3007,4441;0,0273131
3008,4084;0,0273443
3009,3726;0,0273704
3010,3369;0,0273912
3011,3010;0,0274099
3012,2654;0,0274307
3013,2295;0,0274563
3014,1938;0,027487
3015,1580;0,0275216
3016,1223;0,0275594
3017,0864;0,027601
3018,0508;0,0276481
3019,0149;0,0277012
3019,9792;0,027759
3020,9434;0,0278187
3021,9077;0,0278774
3022,8718;0,0279339
3023,8362;0,0279896
3024,8003;0,0280473
3025,7646;0,0281091
3026,7288;0,0281753
3027,6931;0,0282444
3028,6572;0,0283138
3029,6216;0,0283813
3030,5857;0,0284459
3031,5500;0,0285075
3032,5142;0,0285678
3033,4785;0,0286301
3034,4426;0,0286991
3035,4070;0,0287803
3036,3711;0,0288769
3037,3354;0,0289878
3038,2996;0,0291063
3039,2639;0,0292226
3040,2280;0,0293276
3041,1924;0,0294177
3042,1565;0,0294957
3043,1208;0,0295688
3044,0850;0,029644
3045,0493;0,0297247
3046,0134;0,0298104
3046,9778;0,0298992
3047,9419;0,0299906
3048,9063;0,0300863
3049,8704;0,0301882
3050,8347;0,0302964
3051,7988;0,0304078
3052,7632;0,0305176
3053,7273;0,0306226
3054,6917;0,0307231
3055,6558;0,030823
3056,6201;0,0309276
3057,5842;0,0310407
3058,5486;0,0311629
3059,5127;0,0312915
3060,4771;0,0314217
3061,4412;0,0315486
3062,4055;0,0316683
3063,3696;0,0317786
3064,3340;0,0318801
3065,2981;0,0319753
3066,2625;0,0320687
3067,2266;0,0321643
3068,1909;0,0322655
3069,1550;0,0323734
3070,1194;0,0324878
3071,0835;0,0326072
3072,0479;0,0327293
3073,0120;0,0328509
3073,9763;0,0329687
3074,9404;0,03308
3075,9048;0,0331845
3076,8689;0,0332838
3077,8333;0,0333817
3078,7974;0,0334817
3079,7617;0,0335863
3080,7258;0,0336957
3081,6902;0,0338094
3082,6543;0,0339261
3083,6187;0,0340442
3084,5828;0,0341617
3085,5471;0,0342763
3086,5112;0,0343864
3087,4756;0,0344923
3088,4397;0,0345972
3089,4041;0,0347054
3090,3682;0,0348201
3091,3325;0,0349414
3092,2966;0,0350659
3093,2610;0,0351891
3094,2251;0,0353073
3095,1895;0,0354193
3096,1536;0,0355263
3097,1179;0,0356302
3098,0820;0,0357331
3099,0464;0,0358376
3100,0105;0,0359478
3100,9749;0,0360681
3101,9390;0,0362017
3102,9033;0,0363481
3103,8674;0,0365018
3104,8318;0,0366542
3105,7959;0,036797
3106,7603;0,0369267
3107,7244;0,0370461
3108,6887;0,0371636
3109,6528;0,0372889
3110,6172;0,0374277
3111,5813;0,0375789
3112,5457;0,0377347
3113,5098;0,0378843
3114,4741;0,0380197
3115,4382;0,0381398
3116,4026;0,0382512
3117,3667;0,038364
3118,3311;0,038487
3119,2952;0,0386228
3120,2595;0,0387675
3121,2236;0,0389135
3122,1880;0,039054
3123,1521;0,0391865
3124,1165;0,0393131
3125,0806;0,0394391
3126,0449;0,0395702
3127,0090;0,0397098
3127,9734;0,0398579
3128,9375;0,0400114
3129,9019;0,0401662
3130,8660;0,0403184
3131,8303;0,0404661
3132,7944;0,04061
3133,7588;0,0407524
3134,7229;0,0408956
3135,6873;0,0410405
3136,6514;0,0411866
3137,6157;0,0413326
3138,5798;0,0414778
3139,5442;0,0416227
3140,5083;0,04177
3141,4727;0,0419229
3142,4368;0,0420844
3143,4011;0,0422555
3144,3652;0,0424337
3145,3296;0,0426135
3146,2937;0,0427876
3147,2581;0,0429507
3148,2222;0,0431014
3149,1865;0,0432431
3150,1506;0,0433828
3151,1150;0,0435267
3152,0791;0,0436779
3153,0435;0,0438356
3154,0076;0,043997
3154,9719;0,0441605
3155,9360;0,0443262
3156,9004;0,0444959
3157,8645;0,0446697
3158,8289;0,044845
3159,7930;0,0450173
3160,7573;0,0451825
3161,7214;0,0453401
3162,6858;0,0454934
3163,6499;0,0456478
3164,6143;0,0458063
3165,5784;0,0459678
3166,5427;0,046127
3167,5068;0,0462781
3168,4712;0,0464194
3169,4353;0,0465651
3170,3997;0,046706
3171,3638;0,0468612
3172,3281;0,0470353
3173,2922;0,0472246
3174,2566;0,0474189
3175,2207;0,0476068
3176,1851;0,0477813
3177,1492;0,0479422
3178,1135;0,0480952
3179,0776;0,0482471
3180,0420;0,0484024
3181,0061;0,0485621
3181,9705;0,0487254
3182,9346;0,048892
3183,8989;0,0490624
3184,8630;0,0492369
3185,8274;0,0494131
3186,7915;0,0495863
3187,7559;0,0497519
3188,7200;0,0499085
3189,6843;0,0500593
3190,6484;0,0502103
3191,6128;0,0503671
3192,5769;0,050531
3193,5413;0,0506987
3194,5054;0,0508644
3195,4697;0,0510231
3196,4338;0,0511734
3197,3982;0,0513177
3198,3623;0,0514611
3199,3267;0,0516085
3200,2908;0,0517633
3201,2551;0,0519264
3202,2192;0,0520957
3203,1836;0,0522675
3204,1477;0,0524373
3205,1121;0,052602
3206,0762;0,0527604
3207,0405;0,0529135
3208,0046;0,0530623
3208,9690;0,0532074
3209,9331;0,0533481
3210,8975;0,0534847
3211,8616;0,0536195
3212,8259;0,0537573
3213,7900;0,0539025
3214,7544;0,0540567
3215,7185;0,0542166
3216,6829;0,0543759
3217,6470;0,0545287
3218,6113;0,0546736
3219,5754;0,0548135
3220,5398;0,0549539
3221,5039;0,055099
3222,4683;0,0552491
3223,4324;0,0554017
3224,3967;0,0555533
3225,3608;0,0557027
3226,3252;0,0558516
3227,2893;0,0560031
3228,2537;0,0561598
3229,2178;0,0563225
3230,1821;0,0564895
3231,1462;0,0566579
3232,1106;0,0568246
3233,0747;0,0569866
3234,0391;0,0571413
3235,0032;0,0572868
3235,9675;0,0574231
3236,9316;0,0575535
3237,8960;0,0576848
3238,8601;0,0578255
3239,8245;0,0579822
3240,7886;0,0581555
3241,7529;0,0583388
3242,7170;0,0585208
3243,6814;0,0586913
3244,6455;0,0588472
3245,6099;0,058995
3246,5740;0,0591472
3247,5383;0,0593151
3248,5024;0,0595013
3249,4668;0,059698
3250,4309;0,0598915
3251,3953;0,0600701
3252,3594;0,0602308
3253,3237;0,060381
3254,2878;0,0605336
3255,2522;0,0606991
3256,2163;0,0608811
3257,1807;0,0610752
3258,1448;0,0612741
3259,1091;0,0614719
3260,0732;0,0616656
3261,0376;0,0618542
3262,0017;0,0620362
3262,9661;0,0622094
3263,9302;0,0623725
3264,8945;0,0625277
3265,8586;0,0626802
3266,8230;0,0628358
3267,7871;0,0629962
3268,7515;0,063156
3269,7156;0,0633043
3270,6799;0,0634293
3271,6440;0,0635239
3272,6084;0,0635898
3273,5725;0,0636372
3274,5369;0,0636811
3275,5010;0,0637349
3276,4653;0,0638055
3277,4294;0,0638915
3278,3938;0,0639846
3279,3579;0,0640735
3280,3223;0,0641489
3281,2864;0,0642072
3282,2507;0,0642518
3283,2148;0,0642913
3284,1792;0,064336
3285,1433;0,0643931
3286,1077;0,0644631
3287,0718;0,0645397
3288,0361;0,0646115
3289,0002;0,0646682
3289,9646;0,0647044
3290,9287;0,0647221
3291,8931;0,064729
3292,8572;0,0647334
3293,8215;0,0647397
3294,7856;0,064747
3295,7500;0,0647515
3296,7141;0,0647509
3297,6785;0,0647473
3298,6426;0,0647464
3299,6069;0,064755
3300,5710;0,0647757
3301,5354;0,0648056
3302,4995;0,0648366
3303,4639;0,0648589
3304,4280;0,064865
3305,3923;0,0648527
3306,3564;0,0648258
3307,3208;0,0647924
3308,2849;0,0647628
3309,2493;0,0647458
3310,2134;0,0647467
3311,1777;0,0647672
3312,1418;0,0648056
3313,1062;0,0648585
3314,0703;0,0649216
3315,0347;0,0649908
3315,9988;0,0650628
3316,9631;0,0651364
3317,9272;0,0652127
3318,8916;0,0652943
3319,8557;0,0653841
3320,8201;0,0654826
3321,7842;0,0655869
3322,7485;0,0656921
3323,7126;0,0657933
3324,6770;0,0658885
3325,6411;0,0659797
3326,6055;0,066071
3327,5696;0,0661658
3328,5339;0,0662639
3329,4980;0,0663616
3330,4624;0,0664524
3331,4265;0,0665295
3332,3909;0,0665884
3333,3550;0,0666268
3334,3193;0,0666446
3335,2834;0,0666428
3336,2478;0,0666223
3337,2119;0,0665836
3338,1763;0,0665269
3339,1404;0,0664526
3340,1047;0,0663617
3341,0688;0,0662562
3342,0332;0,0661391
3342,9973;0,0660146
3343,9617;0,0658879
3344,9258;0,0657638
3345,8901;0,0656455
3346,8542;0,0655326
3347,8186;0,0654206
3348,7827;0,0653016
3349,7471;0,0651675
3350,7112;0,0650141
3351,6755;0,0648431
3352,6396;0,0646625
3353,6040;0,0644827
3354,5681;0,0643122
3355,5325;0,0641547
3356,4966;0,0640087
3357,4609;0,0638706
3358,4250;0,0637369
3359,3894;0,0636066
3360,3535;0,0634805
3361,3179;0,0633601
3362,2820;0,0632466
3363,2463;0,0631405
3364,2104;0,0630412
3365,1748;0,0629459
3366,1389;0,0628489
3367,1033;0,0627425
3368,0674;0,0626193
3369,0317;0,0624767
3369,9958;0,062319
3370,9602;0,0621557
3371,9243;0,0619975
3372,8887;0,0618512
3373,8528;0,0617166
3374,8171;0,0615888
3375,7813;0,0614617
3376,7456;0,0613328
3377,7097;0,0612042
3378,6741;0,0610792
3379,6382;0,060959
3380,6025;0,0608403
3381,5667;0,0607172
3382,5310;0,0605864
3383,4951;0,0604515
3384,4595;0,0603226
3385,4236;0,0602112
3386,3879;0,060122
3387,3521;0,0600489
3388,3164;0,0599775
3389,2805;0,0598917
3390,2449;0,059783
3391,2090;0,0596531
3392,1733;0,0595131
3393,1375;0,0593757
3394,1018;0,0592499
3395,0659;0,0591382
3396,0303;0,0590387
3396,9944;0,0589471
3397,9587;0,058858
3398,9229;0,0587651
3399,8872;0,0586619
3400,8513;0,0585444
3401,8157;0,0584131
3402,7798;0,0582729
3403,7441;0,0581295
3404,7083;0,0579858
3405,6726;0,0578397
3406,6367;0,057687
3407,6011;0,057525
3408,5652;0,057355
3409,5295;0,0571815
3410,4937;0,057009
3411,4580;0,0568398
3412,4221;0,0566748
3413,3865;0,0565141
3414,3506;0,0563575
3415,3149;0,0562019
3416,2791;0,0560399
3417,2434;0,0558618
3418,2075;0,0556606
3419,1719;0,0554386
3420,1360;0,0552092
3421,1003;0,0549912
3422,0645;0,054799
3423,0288;0,0546346
3423,9929;0,0544875
3424,9573;0,0543415
3425,9214;0,0541835
3426,8857;0,0540087
3427,8499;0,053821
3428,8142;0,0536285
3429,7783;0,0534379
3430,7427;0,0532506
3431,7068;0,0530635
3432,6711;0,052873
3433,6353;0,0526792
3434,5996;0,0524864
3435,5637;0,0522997
3436,5281;0,0521208
3437,4922;0,0519461
3438,4565;0,0517695
3439,4207;0,0515872
3440,3850;0,0514007
3441,3491;0,0512131
3442,3135;0,0510238
3443,2776;0,0508241
3444,2419;0,0506019
3445,2061;0,0503522
3446,1704;0,0500856
3447,1345;0,0498269
3448,0989;0,049601
3449,0630;0,0494162
3450,0273;0,0492597
3450,9915;0,0491061
3451,9558;0,0489336
3452,9199;0,0487352
3453,8843;0,0485197
3454,8484;0,0483033
3455,8127;0,0480979
3456,7769;0,0479045
3457,7412;0,0477157
3458,7053;0,0475234
3459,6697;0,0473246
3460,6338;0,0471222
3461,5981;0,0469208
3462,5623;0,046722
3463,5266;0,0465231
3464,4907;0,0463196
3465,4551;0,0461088
3466,4192;0,0458925
3467,3835;0,0456757
3468,3477;0,0454635
3469,3120;0,0452579
3470,2761;0,045057
3471,2405;0,0448576
3472,2046;0,0446592
3473,1689;0,0444665
3474,1331;0,0442861
3475,0974;0,0441203
3476,0615;0,0439613
3477,0259;0,0437913
3477,9900;0,0435906
3478,9543;0,0433492
3479,9185;0,0430755
3480,8828;0,0427962
3481,8469;0,042543
3482,8113;0,0423349
3483,7754;0,0421684
3484,7397;0,0420223
3485,7039;0,0418713
3486,6682;0,0417007
3487,6323;0,0415122
3488,5967;0,0413195
3489,5608;0,041138
3490,5251;0,0409724
3491,4893;0,0408139
3492,4536;0,0406453
3493,4177;0,0404519
3494,3821;0,0402321
3495,3462;0,0400006
3496,3105;0,0397807
3497,2747;0,039588
3498,2390;0,0394193
3499,2031;0,0392525
3500,1675;0,0390608
3501,1316;0,0388309
3502,0959;0,0385763
3503,0601;0,0383309
3504,0244;0,0381249
3504,9885;0,0379617
3505,9529;0,0378161
3506,9170;0,0376531
3507,8813;0,0374499
3508,8455;0,037211
3509,8098;0,0369647
3510,7739;0,0367444
3511,7383;0,0365665
3512,7024;0,0364235
3513,6667;0,0362947
3514,6309;0,0361613
3515,5952;0,0360163
3516,5593;0,0358624
3517,5237;0,0357049
3518,4878;0,0355442
3519,4521;0,0353753
3520,4163;0,0351932
3521,3806;0,0349984
3522,3447;0,0347976
3523,3091;0,0345983
3524,2732;0,034401
3525,2375;0,034198
3526,2017;0,0339805
3527,1660;0,0337488
3528,1301;0,0335173
3529,0945;0,0333076
3530,0586;0,0331341
3531,0229;0,0329944
3531,9871;0,0328701
3532,9514;0,0327377
3533,9155;0,0325802
3534,8799;0,0323961
3535,8440;0,0322003
3536,8083;0,0320161
3537,7725;0,0318634
3538,7368;0,0317485
3539,7009;0,0316616
3540,6653;0,0315795
3541,6294;0,0314715
3542,5938;0,031309
3543,5579;0,031079
3544,5222;0,0307978
3545,4863;0,0305086
3546,4507;0,0302567
3547,4148;0,030059
3548,3792;0,0298969
3549,3433;0,0297336
3550,3076;0,0295391
3551,2717;0,0293092
3552,2361;0,0290694
3553,2002;0,0288576
3554,1646;0,0286968
3555,1287;0,0285797
3556,0930;0,0284773
3557,0571;0,0283596
3558,0215;0,0282157
3558,9856;0,0280602
3559,9500;0,0279228
3560,9141;0,0278247
3561,8784;0,0277572
3562,8425;0,0276773
3563,8069;0,0275202
3564,7710;0,027231
3565,7354;0,0268118
3566,6995;0,0263521
3567,6638;0,0259773
3568,6279;0,0257494
3569,5923;0,025641
3570,5564;0,0255868
3571,5208;0,0255318
3572,4849;0,0254466
3573,4492;0,0253262
3574,4133;0,025182
3575,3777;0,0250286
3576,3418;0,0248724
3577,3062;0,0247117
3578,2703;0,0245466
3579,2346;0,0243888
3580,1987;0,0242586
3581,1631;0,0241714
3582,1272;0,0241211
3583,0916;0,024074
3584,0557;0,0239764
3585,0200;0,0237759
3585,9841;0,023462
3586,9485;0,0230983
3587,9126;0,0227912
3588,8770;0,0226039
3589,8411;0,0225182
3590,8054;0,0224713
3591,7695;0,022402
3592,7339;0,0222748
3593,6980;0,0220907
3594,6624;0,0218825
3595,6265;0,0216877
3596,5908;0,0215188
3597,5549;0,0213602
3598,5193;0,0211927
3599,4834;0,0210185
3600,4478;0,0208654
3601,4119;0,0207641
3602,3762;0,0207202
3603,3403;0,0207059
3604,3047;0,0206753
3605,2688;0,0205869
3606,2332;0,0204257
3607,1973;0,0202153
3608,1616;0,020005
3609,1257;0,0198349
3610,0901;0,019711
3611,0542;0,0196138
3612,0186;0,0195223
3612,9827;0,0194279
3613,9470;0,0193296
3614,9111;0,0192206
3615,8755;0,0190823
3616,8396;0,0188926
3617,8040;0,0186487
3618,7681;0,0183875
3619,7324;0,018176
3620,6965;0,018067
3621,6609;0,0180671
3622,6250;0,0181455
3623,5894;0,0182559
3624,5535;0,0183417
3625,5178;0,0183317
3626,4819;0,0181517
3627,4463;0,0177811
3628,4104;0,0173208
3629,3748;0,0169436
3630,3389;0,0167333
3631,3032;0,0166456
3632,2673;0,0165977
3633,2317;0,0165337
3634,1958;0,0164358
3635,1602;0,0163147
3636,1243;0,0161946
3637,0886;0,0160951
3638,0527;0,0160234
3639,0171;0,015978
3639,9812;0,0159579
3640,9456;0,0159682
3641,9097;0,016016
3642,8740;0,0161007
3643,8381;0,0162054
3644,8025;0,0162877
3645,7666;0,0162734
3646,7310;0,0160686
3647,6951;0,0156335
3648,6594;0,0150961
3649,6235;0,0146957
3650,5879;0,0145381
3651,5520;0,0145486
3652,5164;0,0146102
3653,4805;0,0146371
3654,4448;0,014582
3655,4089;0,0144425
3656,3733;0,0142643
3657,3374;0,0141128
3658,3018;0,0140229
3659,2659;0,0139826
3660,2302;0,0139591
3661,1943;0,0139331
3662,1587;0,0139134
3663,1228;0,0139268
3664,0872;0,0139916
3665,0513;0,0140945
3666,0156;0,0141883
3666,9797;0,0142099
3667,9441;0,0141204
3668,9082;0,0139523
3669,8726;0,0138033
3670,8367;0,0137486
3671,8010;0,0137712
3672,7651;0,0137832
3673,7295;0,013689
3674,6936;0,0134532
3675,6580;0,0131473
3676,6221;0,0128977
3677,5864;0,0127687
3678,5505;0,0127378
3679,5149;0,0127585
3680,4790;0,0128033
3681,4434;0,0128694
3682,4075;0,0129661
3683,3718;0,013098
3684,3359;0,013251
3685,3003;0,0133865
3686,2644;0,0134456
3687,2288;0,0133725
3688,1929;0,0131625
3689,1572;0,0128995
3690,1213;0,0127031
3691,0857;0,0126277
3692,0498;0,0126481
3693,0142;0,0127156
3693,9783;0,0127959
3694,9426;0,0128731
3695,9067;0,0129419
3696,8711;0,0129977
3697,8352;0,0130296
3698,7996;0,0130208
3699,7637;0,0129594
3700,7280;0,0128548
3701,6921;0,0127451
3702,6565;0,0126803
3703,6206;0,0126915
3704,5850;0,012777
3705,5491;0,0129083
3706,5134;0,0130405
3707,4775;0,0131175
3708,4419;0,0130806
3709,4060;0,0128993
3710,3704;0,0126175
3711,3345;0,0123516
3712,2988;0,0122028
3713,2629;0,0121871
3714,2273;0,012262
3715,1914;0,0123776
3716,1558;0,0124953
3717,1199;0,0125895
3718,0842;0,0126466
3719,0483;0,0126666
3720,0127;0,0126597
3720,9768;0,0126361
3721,9412;0,0125971
3722,9053;0,0125374
3723,8696;0,0124605
3724,8337;0,0123906
3725,7981;0,0123652
3726,7622;0,0124123
3727,7266;0,0125338
3728,6907;0,0127063
3729,6550;0,0128899
3730,6191;0,0130357
3731,5835;0,013091
3732,5476;0,0130111
3733,5120;0,0127892
3734,4761;0,0124908
3735,4404;0,0122367
3736,4045;0,0121215
3737,3689;0,0121626
3738,3330;0,0123265
3739,2974;0,0125646
3740,2615;0,0128205
3741,2258;0,0130246
3742,1899;0,013103
3743,1543;0,0130256
3744,1184;0,0128635
3745,0828;0,0127528
3746,0469;0,0127661
3747,0112;0,0128613
3747,9753;0,0129316
3748,9397;0,0128711
3749,9038;0,0126478
3750,8682;0,012363
3751,8323;0,0121777
3752,7966;0,0121562
3753,7607;0,0122483
3754,7251;0,0123715
3755,6892;0,0124592
3756,6536;0,012474
3757,6177;0,0124184
3758,5820;0,0123365
3759,5461;0,0122847
3760,5105;0,0122907
3761,4746;0,0123431
3762,4390;0,0124126
3763,4031;0,0124732
3764,3674;0,0125111
3765,3315;0,0125234
3766,2959;0,0125102
3767,2600;0,0124692
3768,2244;0,0123981
3769,1885;0,0123058
3770,1528;0,01222
3771,1169;0,0121762
3772,0813;0,0121959
3773,0454;0,0122739
3774,0098;0,0123818
3774,9739;0,0124803
3775,9382;0,0125319
3776,9023;0,0125178
3777,8667;0,0124509
3778,8308;0,0123724
3779,7952;0,0123211
3780,7593;0,0123057
3781,7236;0,0123068
3782,6877;0,0122999
3783,6521;0,0122738
3784,6162;0,0122348
3785,5806;0,0121994
3786,5447;0,0121827
3787,5090;0,0121916
3788,4731;0,0122263
3789,4375;0,012284
3790,4016;0,0123589
3791,3660;0,012441
3792,3301;0,0125165
3793,2944;0,0125746
3794,2585;0,0126157
3795,2229;0,0126527
3796,1870;0,0126986
3797,1514;0,0127482
3798,1155;0,0127712
3799,0798;0,0127298
3800,0439;0,0126156
3801,0083;0,0124749
3801,9724;0,0123794
3802,9368;0,0123606
3803,9009;0,0123861
3804,8652;0,0123934
3805,8293;0,0123409
3806,7937;0,0122424
3807,7578;0,0121646
3808,7222;0,0121739
3809,6863;0,012286
3810,6506;0,0124665
3811,6147;0,0126567
3812,5791;0,0127974
3813,5432;0,0128506
3814,5076;0,0128242
3815,4717;0,0127739
3816,4360;0,0127543
3817,4001;0,0127649
3818,3645;0,0127521
3819,3286;0,0126604
3820,2930;0,0124886
3821,2571;0,012302
3822,2214;0,0121769
3823,1855;0,0121411
3824,1499;0,012174
3825,1140;0,0122412
3826,0784;0,012318
3827,0425;0,0123941
3828,0068;0,0124689
3828,9709;0,0125446
3829,9353;0,0126214
3830,8994;0,0126984
3831,8638;0,0127757
3832,8279;0,0128523
3833,7922;0,0129199
3834,7563;0,0129576
3835,7207;0,0129371
3836,6848;0,0128415
3837,6492;0,0126865
3838,6133;0,0125201
3839,5776;0,0123889
3840,5417;0,0123074
3841,5061;0,0122616
3842,4702;0,0122343
3843,4346;0,0122245
3844,3987;0,0122499
3845,3630;0,0123358
3846,3271;0,0124999
3847,2915;0,0127417
3848,2556;0,0130372
3849,2200;0,0133315
3850,1841;0,013527
3851,1484;0,0134912
3852,1125;0,0131426
3853,0769;0,0126087
3854,0410;0,0121795
3855,0054;0,0120072
3855,9695;0,0120409
3856,9338;0,0121831
3857,8979;0,0123651
3858,8623;0,0125398
3859,8264;0,0126686
3860,7908;0,0127229
3861,7549;0,0127007
3862,7192;0,0126396
3863,6833;0,0125995
3864,6477;0,01262
3865,6118;0,0126955
3866,5762;0,0127855
3867,5403;0,012841
3868,5046;0,0128258
3869,4688;0,0127332
3870,4331;0,0125928
3871,3972;0,0124568
3872,3616;0,0123716
3873,3257;0,0123584
3874,2900;0,0124114
3875,2542;0,0125066
3876,2185;0,0126113
3877,1826;0,0126934
3878,1470;0,012732
3879,1111;0,0127282
3880,0754;0,0127039
3881,0396;0,012683
3882,0039;0,012669
3882,9680;0,0126468
3883,9324;0,0126073
3884,8965;0,0125667
3885,8608;0,0125576
3886,8250;0,0125963
3887,7893;0,0126617
3888,7534;0,0127039
3889,7178;0,0126753
3890,6819;0,0125692
3891,6462;0,0124395
3892,6104;0,0123695
3893,5747;0,0124071
3894,5388;0,0125396
3895,5032;0,0127189
3896,4673;0,0128921
3897,4316;0,0130182
3898,3958;0,0130757
3899,3601;0,0130626
3900,3242;0,0129849
3901,2886;0,0128475
3902,2527;0,0126623
3903,2170;0,0124642
3904,1812;0,0123051
3905,1455;0,0122238
3906,1096;0,0122238
3907,0740;0,0122805
3908,0381;0,0123616
3909,0024;0,0124427
3909,9666;0,0125135
3910,9309;0,0125759
3911,8950;0,0126359
3912,8594;0,0126935
3913,8235;0,0127372
3914,7878;0,0127494
3915,7520;0,0127198
3916,7163;0,0126598
3917,6804;0,0126014
3918,6448;0,0125766
3919,6089;0,0125943
3920,5732;0,0126371
3921,5374;0,0126743
3922,5017;0,0126818
3923,4658;0,0126565
3924,4302;0,0126193
3925,3943;0,0125989
3926,3586;0,0126107
3927,3228;0,0126468
3928,2871;0,0126826
3929,2512;0,0126922
3930,2156;0,0126632
3931,1797;0,0126052
3932,1440;0,012544
3933,1082;0,0125048
3934,0725;0,0124997
3935,0366;0,0125275
3936,0010;0,0125796
3936,9651;0,0126445
3937,9294;0,0127076
3938,8936;0,0127531
3939,8579;0,0127693
3940,8220;0,0127562
3941,7864;0,0127292
3942,7505;0,0127112
3943,7148;0,0127169
3944,6790;0,0127424
3945,6433;0,0127677
3946,6074;0,0127706
3947,5718;0,0127413
3948,5359;0,0126897
3949,5002;0,0126394
3950,4644;0,0126118
3951,4287;0,0126125
3952,3928;0,0126321
3953,3572;0,012656
3954,3213;0,0126749
3955,2856;0,0126881
3956,2498;0,0127003
3957,2141;0,0127141
3958,1782;0,0127267
3959,1426;0,0127316
3960,1067;0,012724
3961,0710;0,012706
3962,0352;0,0126865
3962,9995;0,0126759
3963,9636;0,0126799
3964,9280;0,0126962
3965,8921;0,0127169
3966,8564;0,0127331
3967,8206;0,01274
3968,7849;0,0127385
3969,7490;0,0127335
3970,7134;0,0127296
3971,6775;0,0127277
3972,6418;0,0127255
3973,6060;0,0127195
3974,5703;0,0127094
3975,5344;0,0126993
3976,4988;0,0126953
3977,4629;0,0127016
3978,4272;0,0127176
3979,3914;0,0127377
3980,3557;0,0127548
3981,3198;0,0127642
3982,2842;0,012766
3983,2483;0,0127634
3984,2126;0,0127606
3985,1768;0,0127594
3986,1411;0,0127597
3987,1052;0,0127603
3988,0696;0,0127616
3989,0337;0,0127651
3989,9980;0,012772
3990,9622;0,0127812
3991,9265;0,0127891
3992,8906;0,0127909
3993,8550;0,0127842
3994,8191;0,0127708
3995,7834;0,0127563
3996,7476;0,0127477
3997,7119;0,0127492
3998,6760;0,0127607
3999,6404;0,0127782
4000,6045;0,0127526

##### Extended Information
[Comments]
Sample name
Comment
Username
Division
Organization;UNIVERSIDAD INDUSTRIAL DE SANTANDER

[Detailed Information]
Creation date;29/01/2025 11:20 a.m.

Data array type;Linear data array
Horizontal axis;Wavenumber [cm-1]
Vertical axis;Abs
Start;399,193 cm-1
End;4000,6 cm-1
Data interval;0,964233 cm-1
Data points;3736    

[Measurement Information]
Model name;FT/IR-4X1typeA
Serial No.;A035162111

Accessory;ATR PRO 4X
Accessory S/N;A021162126
Incident angle;45 deg

Measurement date;29/01/2025 11:20 a.m.

Light source;Standard
Detector;TGS
Accumulation;Auto (74)
Resolution;4 cm-1
Zero filling;On
Apodization;Cosine
Gain;Auto (8)
Aperture;Auto (7 mm)
Scan speed;Auto (2 mm/sec)
Filter;Auto (12800 Hz)

