TITLE;
DATA TYPE;INFRARED SPECTRUM
ORIGIN;JASCO
OWNER;
DATE;25/02/05
TIME;11:26:16
SPECTROMETER/DATA SYSTEM;
LOCALE;9226
RESOLUTION;
DELTAX;0,964233
XUNITS;1/CM
YUNITS;ABSORBANCE
FIRSTX;  399,1927
LASTX; 4000,6047
NPOINTS;    3736
FIRSTY;     0,18670
MAXY;     0,29546
MINY;    -0,00592
XYDATA
399,1927;0,186696
400,1569;0,186363
401,1211;0,186818
402,0854;0,187582
403,0496;0,188126
404,0138;0,188097
404,9781;0,187438
405,9423;0,186412
406,9065;0,185491
407,8708;0,185116
408,8350;0,185475
409,7992;0,186453
410,7635;0,187734
411,7277;0,188994
412,6919;0,190075
413,6562;0,191036
414,6204;0,192065
415,5846;0,19334
416,5489;0,194906
417,5131;0,196561
418,4773;0,19785
419,4416;0,198416
420,4058;0,198426
421,3700;0,19837
422,3343;0,198577
423,2985;0,199078
424,2627;0,199737
425,2270;0,200383
426,1912;0,200917
427,1554;0,201348
428,1197;0,201758
429,0839;0,20222
430,0481;0,202749
431,0124;0,203295
431,9766;0,203778
432,9408;0,204128
433,9051;0,204317
434,8693;0,204374
435,8335;0,204369
436,7978;0,204389
437,7620;0,204485
438,7262;0,204636
439,6905;0,204754
440,6547;0,204728
441,6189;0,204488
442,5832;0,204047
443,5474;0,203492
444,5116;0,202911
445,4759;0,20233
446,4401;0,20172
447,4043;0,201076
448,3686;0,200458
449,3328;0,199988
450,2970;0,199765
451,2613;0,19979
452,2255;0,199945
453,1897;0,200047
454,1540;0,199948
455,1182;0,199581
456,0824;0,198976
457,0467;0,198239
458,0109;0,197517
458,9751;0,196941
459,9394;0,196568
460,9036;0,196366
461,8678;0,196252
462,8321;0,196133
463,7963;0,195956
464,7605;0,195736
465,7248;0,195564
466,6890;0,195555
467,6532;0,195771
468,6175;0,196169
469,5817;0,196607
470,5459;0,196909
471,5102;0,196955
472,4744;0,196752
473,4386;0,19643
474,4029;0,196156
475,3671;0,196042
476,3313;0,196124
477,2956;0,196387
478,2598;0,19679
479,2240;0,197264
480,1883;0,197718
481,1525;0,198069
482,1167;0,19829
483,0810;0,198441
484,0452;0,198658
485,0094;0,199073
485,9737;0,199726
486,9379;0,200537
487,9021;0,201358
488,8664;0,202049
489,8306;0,20254
490,7948;0,20284
491,7591;0,203017
492,7233;0,203146
493,6875;0,203271
494,6518;0,203391
495,6160;0,203488
496,5802;0,203558
497,5445;0,203631
498,5087;0,203765
499,4729;0,204021
500,4372;0,204428
501,4014;0,204954
502,3656;0,205506
503,3299;0,205978
504,2941;0,206307
505,2583;0,206507
506,2226;0,206652
507,1868;0,206834
508,1510;0,207112
509,1153;0,207493
510,0795;0,207939
511,0437;0,208413
512,0080;0,208904
512,9722;0,209437
513,9365;0,210055
514,9007;0,210791
515,8649;0,211647
516,8292;0,212573
517,7934;0,21348
518,7576;0,214256
519,7219;0,214815
520,6861;0,215122
521,6503;0,215204
522,6146;0,215126
523,5788;0,214983
524,5430;0,214875
525,5073;0,214882
526,4715;0,215023
527,4357;0,215239
528,4000;0,215426
529,3642;0,215493
530,3284;0,215398
531,2927;0,215158
532,2569;0,214839
533,2211;0,214519
534,1854;0,214255
535,1496;0,214064
536,1138;0,213918
537,0781;0,213775
538,0423;0,213603
539,0065;0,213405
539,9708;0,213222
540,9350;0,213107
541,8992;0,213108
542,8635;0,21324
543,8277;0,213482
544,7919;0,21379
545,7562;0,214112
546,7204;0,214413
547,6846;0,214679
548,6489;0,214923
549,6131;0,215171
550,5773;0,215464
551,5416;0,215843
552,5058;0,216345
553,4700;0,216981
554,4343;0,217708
555,3985;0,218427
556,3627;0,21899
557,3270;0,219249
558,2912;0,219101
559,2554;0,218528
560,2197;0,217593
561,1839;0,216418
562,1481;0,215144
563,1124;0,213899
564,0766;0,212768
565,0408;0,211787
566,0051;0,210956
566,9693;0,210254
567,9335;0,209657
568,8978;0,209154
569,8620;0,20874
570,8262;0,208415
571,7905;0,208168
572,7547;0,207986
573,7189;0,207854
574,6832;0,207762
575,6474;0,207705
576,6116;0,207675
577,5759;0,207658
578,5401;0,20763
579,5043;0,207571
580,4686;0,207472
581,4328;0,207343
582,3970;0,207203
583,3613;0,207073
584,3255;0,206964
585,2897;0,20688
586,2540;0,206821
587,2182;0,206791
588,1824;0,206797
589,1467;0,206841
590,1109;0,206903
591,0751;0,206939
592,0394;0,206889
593,0036;0,206704
593,9678;0,206367
594,9321;0,205898
595,8963;0,205339
596,8605;0,20473
597,8248;0,204099
598,7890;0,203463
599,7532;0,202835
600,7175;0,202229
601,6817;0,201666
602,6459;0,201158
603,6102;0,200707
604,5744;0,200298
605,5386;0,199908
606,5029;0,199508
607,4671;0,199064
608,4313;0,198542
609,3956;0,19792
610,3598;0,197207
611,3240;0,196459
612,2883;0,195765
613,2525;0,195208
614,2167;0,194806
615,1810;0,194473
616,1452;0,19403
617,1094;0,193281
618,0737;0,192116
619,0379;0,190581
620,0021;0,188847
620,9664;0,187118
621,9306;0,185544
622,8948;0,184193
623,8591;0,183061
624,8233;0,182068
625,7875;0,181227
626,7518;0,180487
627,7160;0,179802
628,6802;0,179131
629,6445;0,178453
630,6087;0,177772
631,5729;0,177116
632,5372;0,176522
633,5014;0,176011
634,4656;0,175575
635,4299;0,175185
636,3941;0,174806
637,3583;0,174422
638,3226;0,174034
639,2868;0,173654
640,2510;0,173285
641,2153;0,172915
642,1795;0,172531
643,1437;0,172132
644,1080;0,171739
645,0722;0,171389
646,0364;0,171116
647,0007;0,170924
647,9649;0,170786
648,9291;0,170655
649,8934;0,170492
650,8576;0,170287
651,8218;0,170068
652,7861;0,16988
653,7503;0,169763
654,7145;0,169736
655,6788;0,169788
656,6430;0,169883
657,6072;0,169978
658,5715;0,170041
659,5357;0,170041
660,4999;0,169938
661,4642;0,169672
662,4284;0,169165
663,3926;0,168343
664,3569;0,167191
665,3211;0,165865
666,2853;0,164742
667,2496;0,164193
668,2138;0,164059
669,1780;0,163744
670,1423;0,163093
671,1065;0,162263
672,0707;0,161214
673,0350;0,159833
673,9992;0,158149
674,9634;0,156325
675,9277;0,15454
676,8919;0,152878
677,8561;0,151305
678,8204;0,14975
679,7846;0,148198
680,7488;0,146704
681,7131;0,145353
682,6773;0,144192
683,6415;0,143202
684,6058;0,142324
685,5700;0,141498
686,5342;0,140691
687,4985;0,139897
688,4627;0,139135
689,4269;0,138418
690,3912;0,137765
691,3554;0,137185
692,3196;0,136674
693,2839;0,136208
694,2481;0,135752
695,2123;0,135275
696,1766;0,134761
697,1408;0,134213
698,1050;0,133645
699,0693;0,133068
700,0335;0,132486
700,9977;0,131898
701,9620;0,131302
702,9262;0,130698
703,8904;0,130078
704,8547;0,129448
705,8189;0,128816
706,7831;0,128191
707,7474;0,127581
708,7116;0,126989
709,6758;0,126403
710,6401;0,125798
711,6043;0,12514
712,5685;0,124409
713,5328;0,123618
714,4970;0,122823
715,4612;0,121391
716,4255;0,120931
717,3897;0,12063
718,3539;0,120357
719,3182;0,119917
720,2824;0,119153
721,2466;0,118034
722,2109;0,116675
723,1751;0,115269
724,1393;0,113979
725,1036;0,112883
726,0678;0,111962
727,0320;0,111148
727,9963;0,110367
728,9605;0,109574
729,9247;0,108766
730,8890;0,107962
731,8532;0,107188
732,8174;0,106459
733,7817;0,105776
734,7459;0,105131
735,7101;0,104514
736,6744;0,103921
737,6386;0,103357
738,6028;0,102828
739,5671;0,102333
740,5313;0,101856
741,4955;0,10137
742,4598;0,100851
743,4240;0,100286
744,3882;0,0996834
745,3525;0,0990613
746,3167;0,0984383
747,2809;0,097823
748,2452;0,0972134
749,2094;0,096602
750,1736;0,0959842
751,1379;0,0953621
752,1021;0,0947449
753,0663;0,0941446
754,0306;0,0935715
754,9948;0,0930291
755,9590;0,0925121
756,9233;0,0920069
757,8875;0,0914976
758,8517;0,0909742
759,8160;0,0904389
760,7802;0,0899066
761,7444;0,0893975
762,7087;0,0889273
763,6729;0,0885009
764,6371;0,0881125
765,6014;0,0877522
766,5656;0,0874109
767,5298;0,0870808
768,4941;0,0867524
769,4583;0,0864119
770,4225;0,0860448
771,3868;0,0856431
772,3510;0,0852121
773,3152;0,08477
774,2795;0,0843403
775,2437;0,0839417
776,2079;0,083581
777,1722;0,0832532
778,1364;0,0829449
779,1006;0,0826388
780,0649;0,0823161
781,0291;0,0819597
781,9933;0,0815582
782,9576;0,081112
783,9218;0,0806363
784,8860;0,0801584
785,8503;0,0797087
786,8145;0,0793096
787,7787;0,0789692
788,7430;0,0786806
789,7072;0,0784289
790,6714;0,0781983
791,6357;0,0779775
792,5999;0,0777618
793,5641;0,0775512
794,5284;0,0773485
795,4926;0,0771559
796,4568;0,0769736
797,4211;0,0767988
798,3853;0,0766265
799,3495;0,0764524
800,3138;0,076276
801,2780;0,0761028
802,2422;0,0759416
803,2065;0,0757987
804,1707;0,0756715
805,1349;0,0755463
806,0992;0,0754036
807,0634;0,0752284
808,0276;0,0750201
808,9919;0,0747943
809,9561;0,0745756
810,9203;0,0743835
811,8846;0,074222
812,8488;0,074079
813,8130;0,0739342
814,7773;0,0737724
815,7415;0,0735907
816,7057;0,0733989
817,6700;0,0732123
818,6342;0,0730434
819,5984;0,0728979
820,5627;0,0727748
821,5269;0,0726702
822,4911;0,0725811
823,4554;0,0725083
824,4196;0,0724555
825,3839;0,0724262
826,3481;0,0724186
827,3123;0,0724213
828,2766;0,0724133
829,2408;0,0723703
830,2050;0,0722759
831,1693;0,0721291
832,1335;0,0719448
833,0977;0,071744
834,0620;0,0715408
835,0262;0,0713337
835,9904;0,0711079
836,9547;0,0708465
837,9189;0,070543
838,8831;0,0702076
839,8474;0,0698631
840,8116;0,0695349
841,7758;0,069241
842,7401;0,0689882
843,7043;0,0687745
844,6685;0,068595
845,6328;0,0684454
846,5970;0,0683224
847,5612;0,0682227
848,5255;0,0681412
849,4897;0,0680721
850,4539;0,0680109
851,4182;0,0679558
852,3824;0,0679069
853,3466;0,0678627
854,3109;0,067818
855,2751;0,0677639
856,2393;0,0676924
857,2036;0,0676021
858,1678;0,0675016
859,1320;0,0674073
860,0963;0,067337
861,0605;0,0673028
862,0247;0,0673075
862,9890;0,0673466
863,9532;0,0674133
864,9174;0,067503
865,8817;0,0676143
866,8459;0,0677479
867,8101;0,0679038
868,7744;0,0680809
869,7386;0,0682761
870,7028;0,0684822
871,6671;0,0686857
872,6313;0,0688661
873,5955;0,0690003
874,5598;0,069072
875,5240;0,0690804
876,4882;0,0690434
877,4525;0,0689919
878,4167;0,0689591
879,3809;0,0689718
880,3452;0,069049
881,3094;0,0692056
882,2736;0,0694575
883,2379;0,0698213
884,2021;0,0703098
885,1663;0,0709265
886,1306;0,0716648
887,0948;0,0725102
888,0590;0,0734445
889,0233;0,0744477
889,9875;0,0754957
890,9517;0,0765598
891,9160;0,0776075
892,8802;0,078606
893,8444;0,079525
894,8087;0,0803349
895,7729;0,0810023
896,7371;0,0814892
897,7014;0,0817577
898,6656;0,0817828
899,6298;0,0815638
900,5941;0,0811293
901,5583;0,0805305
902,5225;0,0798265
903,4868;0,0790711
904,4510;0,0783065
905,4152;0,0775656
906,3795;0,0768793
907,3437;0,0762797
908,3079;0,0757974
909,2722;0,0754536
910,2364;0,075253
911,2007;0,075182
912,1649;0,0752158
913,1292;0,0753287
914,0934;0,0755038
915,0576;0,0757343
916,0219;0,0760196
916,9861;0,0763569
917,9503;0,0767366
918,9146;0,077143
919,8788;0,0775596
920,8430;0,0779735
921,8073;0,0783764
922,7715;0,0787607
923,7357;0,0791149
924,7000;0,0794237
925,6642;0,0796727
926,6284;0,0798565
927,5927;0,0799836
928,5569;0,0800745
929,5211;0,0801539
930,4854;0,0802417
931,4496;0,0803478
932,4138;0,0804751
933,3781;0,0806249
934,3423;0,0808029
935,3065;0,0810199
936,2708;0,0812864
937,2350;0,0816076
938,1992;0,0819805
939,1635;0,0823976
940,1277;0,0828545
941,0919;0,0833563
942,0562;0,0839192
943,0204;0,0845651
943,9846;0,0853125
944,9489;0,0861693
945,9131;0,0871294
946,8773;0,088177
947,8416;0,0892936
948,8058;0,0904666
949,7700;0,0916946
950,7343;0,0929883
951,6985;0,0943663
952,6627;0,0958491
953,6270;0,0974514
954,5912;0,0991773
955,5554;0,10102
956,5197;0,102963
957,4839;0,10499
958,4481;0,107086
959,4124;0,109241
960,3766;0,111453
961,3408;0,113721
962,3051;0,116045
963,2693;0,118417
964,2335;0,12083
965,1978;0,123278
966,1620;0,125763
967,1262;0,1283
968,0905;0,130916
969,0547;0,133649
970,0189;0,136542
970,9832;0,139635
971,9474;0,142961
972,9116;0,146551
973,8759;0,150429
974,8401;0,154614
975,8043;0,159119
976,7686;0,163944
977,7328;0,169071
978,6970;0,17445
979,6613;0,179991
980,6255;0,18556
981,5897;0,190987
982,5540;0,196092
983,5182;0,200714
984,4824;0,204749
985,4467;0,208171
986,4109;0,211022
987,3751;0,21339
988,3394;0,215375
989,3036;0,217062
990,2678;0,218509
991,2321;0,219751
992,1963;0,220818
993,1605;0,221743
994,1248;0,222568
995,0890;0,223345
996,0532;0,224125
997,0175;0,224944
997,9817;0,225818
998,9459;0,226735
999,9102;0,227669
1000,8744;0,228594
1001,8386;0,2295
1002,8029;0,230409
1003,7671;0,231375
1004,7313;0,232477
1005,6956;0,233799
1006,6598;0,235416
1007,6240;0,237377
1008,5883;0,2397
1009,5525;0,242368
1010,5167;0,245335
1011,4810;0,248534
1012,4452;0,251881
1013,4094;0,25529
1014,3737;0,258677
1015,3379;0,261971
1016,3021;0,26512
1017,2664;0,268098
1018,2306;0,270903
1019,1948;0,273548
1020,1591;0,276058
1021,1233;0,278454
1022,0875;0,280755
1023,0518;0,282972
1024,0160;0,285112
1024,9802;0,287171
1025,9445;0,289134
1026,9087;0,290962
1027,8729;0,292595
1028,8372;0,293954
1029,8014;0,294943
1030,7656;0,295462
1031,7299;0,295417
1032,6941;0,294742
1033,6583;0,29341
1034,6226;0,291456
1035,5868;0,288988
1036,5510;0,286179
1037,5153;0,283246
1038,4795;0,280417
1039,4437;0,277889
1040,4080;0,275801
1041,3722;0,27421
1042,3364;0,273093
1043,3007;0,272358
1044,2649;0,271869
1045,2291;0,271476
1046,1934;0,271044
1047,1576;0,270469
1048,1218;0,269685
1049,0861;0,268655
1050,0503;0,267356
1051,0145;0,26577
1051,9788;0,263885
1052,9430;0,261696
1053,9072;0,259211
1054,8715;0,256447
1055,8357;0,253411
1056,7999;0,25009
1057,7642;0,246445
1058,7284;0,242427
1059,6926;0,238014
1060,6569;0,23324
1061,6211;0,228207
1062,5853;0,223074
1063,5496;0,218018
1064,5138;0,213196
1065,4780;0,208717
1066,4423;0,204631
1067,4065;0,200938
1068,3707;0,197604
1069,3350;0,194577
1070,2992;0,191791
1071,2634;0,18918
1072,2277;0,186676
1073,1919;0,184215
1074,1561;0,18174
1075,1204;0,17921
1076,0846;0,176608
1077,0488;0,173943
1078,0131;0,171258
1078,9773;0,168614
1079,9415;0,166083
1080,9058;0,163731
1081,8700;0,161602
1082,8342;0,159715
1083,7985;0,15807
1084,7627;0,15665
1085,7269;0,155432
1086,6912;0,154388
1087,6554;0,153498
1088,6196;0,152752
1089,5839;0,152149
1090,5481;0,1517
1091,5123;0,151418
1092,4766;0,151309
1093,4408;0,151368
1094,4050;0,151577
1095,3693;0,151915
1096,3335;0,152359
1097,2977;0,152892
1098,2620;0,153495
1099,2262;0,154143
1100,1904;0,1548
1101,1547;0,155417
1102,1189;0,155942
1103,0831;0,15633
1104,0474;0,156548
1105,0116;0,156583
1105,9758;0,156438
1106,9401;0,156121
1107,9043;0,155637
1108,8685;0,154978
1109,8328;0,154117
1110,7970;0,153017
1111,7612;0,151651
1112,7255;0,150021
1113,6897;0,148176
1114,6539;0,146212
1115,6182;0,144248
1116,5824;0,1424
1117,5466;0,140738
1118,5109;0,139276
1119,4751;0,137966
1120,4393;0,136718
1121,4036;0,135421
1122,3678;0,133968
1123,3320;0,132277
1124,2963;0,130303
1125,2605;0,128044
1126,2247;0,125536
1127,1890;0,122844
1128,1532;0,120045
1129,1174;0,117211
1130,0817;0,114395
1131,0459;0,111635
1132,0101;0,108955
1132,9744;0,106381
1133,9386;0,103949
1134,9028;0,101704
1135,8671;0,0996924
1136,8313;0,0979558
1137,7955;0,0965164
1138,7598;0,0953766
1139,7240;0,09452
1140,6882;0,0939171
1141,6525;0,0935311
1142,6167;0,0933235
1143,5809;0,0932586
1144,5452;0,0933082
1145,5094;0,0934555
1146,4736;0,093696
1147,4379;0,0940351
1148,4021;0,0944809
1149,3663;0,0950366
1150,3306;0,0956937
1151,2948;0,0964303
1152,2590;0,0972127
1153,2233;0,0979999
1154,1875;0,0987464
1155,1517;0,099403
1156,1160;0,0999141
1157,0802;0,100215
1158,0444;0,100227
1159,0087;0,0998646
1159,9729;0,0990396
1160,9371;0,0976779
1161,9014;0,0957374
1162,8656;0,093223
1163,8298;0,0901934
1164,7941;0,0867564
1165,7583;0,0830538
1166,7225;0,0792415
1167,6868;0,0754678
1168,6510;0,0718566
1169,6152;0,0684969
1170,5795;0,065439
1171,5437;0,0627
1172,5079;0,0602731
1173,4722;0,0581402
1174,4364;0,0562805
1175,4006;0,0546752
1176,3649;0,0533066
1177,3291;0,0521556
1178,2933;0,0511996
1179,2576;0,0504131
1180,2218;0,0497707
1181,1860;0,0492502
1182,1503;0,0488349
1183,1145;0,0485141
1184,0787;0,0482823
1185,0430;0,0481373
1186,0072;0,0480789
1186,9714;0,0481074
1187,9357;0,048224
1188,8999;0,0484307
1189,8641;0,0487317
1190,8284;0,0491327
1191,7926;0,0496395
1192,7568;0,0502558
1193,7211;0,0509796
1194,6853;0,0518014
1195,6495;0,0527041
1196,6138;0,0536654
1197,5780;0,0546624
1198,5422;0,0556755
1199,5065;0,0565352
1200,4707;0,057566
1201,4349;0,0585921
1202,3992;0,0596111
1203,3634;0,0606184
1204,3276;0,0616057
1205,2919;0,062563
1206,2561;0,0634833
1207,2203;0,0643688
1208,1846;0,0652351
1209,1488;0,0661104
1210,1130;0,0670298
1211,0773;0,0680252
1212,0415;0,0691148
1213,0057;0,0702981
1213,9700;0,0715572
1214,9342;0,0728643
1215,8984;0,074191
1216,8627;0,0755122
1217,8269;0,0768085
1218,7911;0,0780663
1219,7554;0,0792761
1220,7196;0,0804313
1221,6838;0,0815275
1222,6481;0,0825619
1223,6123;0,0835328
1224,5765;0,0844389
1225,5408;0,0852812
1226,5050;0,0860632
1227,4692;0,0867905
1228,4335;0,0874682
1229,3977;0,0880966
1230,3619;0,0886702
1231,3262;0,0891793
1232,2904;0,089615
1233,2546;0,0899748
1234,2189;0,0902647
1235,1831;0,0904985
1236,1473;0,090693
1237,1116;0,0908631
1238,0758;0,0910176
1239,0400;0,0911581
1240,0043;0,0912791
1240,9685;0,0913696
1241,9327;0,0914161
1242,8970;0,091405
1243,8612;0,0913253
1244,8254;0,0911696
1245,7897;0,090936
1246,7539;0,0906285
1247,7181;0,090257
1248,6824;0,0898364
1249,6466;0,0893838
1250,6108;0,0889154
1251,5751;0,0884438
1252,5393;0,0879771
1253,5035;0,0875197
1254,4678;0,0870719
1255,4320;0,0866287
1256,3962;0,0861789
1257,3605;0,0857057
1258,3247;0,0851908
1259,2889;0,0846212
1260,2532;0,0839943
1261,2174;0,0833171
1262,1816;0,0826002
1263,1459;0,0818499
1264,1101;0,0810638
1265,0743;0,0802326
1266,0386;0,0793455
1267,0028;0,0783955
1267,9670;0,0773809
1268,9313;0,0763054
1269,8955;0,0751758
1270,8597;0,0740017
1271,8240;0,0727959
1272,7882;0,0715746
1273,7524;0,0703572
1274,7167;0,0691646
1275,6809;0,0680159
1276,6451;0,0669244
1277,6094;0,0658935
1278,5736;0,0649148
1279,5378;0,063972
1280,5021;0,0630487
1281,4663;0,062137
1282,4305;0,0612421
1283,3948;0,0603791
1284,3590;0,0595657
1285,3232;0,0588156
1286,2875;0,0581355
1287,2517;0,0575276
1288,2159;0,0569929
1289,1802;0,0565333
1290,1444;0,0561514
1291,1086;0,0558489
1292,0729;0,0556268
1293,0371;0,0554872
1294,0013;0,0554344
1294,9656;0,0554743
1295,9298;0,0556118
1296,8940;0,055849
1297,8583;0,0561841
1298,8225;0,0566134
1299,7867;0,0571323
1300,7510;0,0577355
1301,7152;0,0584181
1302,6794;0,0591728
1303,6437;0,0599909
1304,6079;0,060865
1305,5721;0,0617881
1306,5364;0,0627529
1307,5006;0,0637506
1308,4648;0,0647711
1309,4291;0,0658023
1310,3933;0,0668293
1311,3575;0,0678328
1312,3218;0,0687879
1313,2860;0,069665
1314,2502;0,0704327
1315,2145;0,0710591
1316,1787;0,0715128
1317,1429;0,0717671
1318,1072;0,0718113
1319,0714;0,0716628
1320,0356;0,071371
1320,9999;0,071003
1321,9641;0,0706199
1322,9283;0,0702606
1323,8926;0,06994
1324,8568;0,0696586
1325,8210;0,0694122
1326,7853;0,069197
1327,7495;0,0690088
1328,7137;0,0688389
1329,6780;0,0686728
1330,6422;0,0684925
1331,6064;0,0682835
1332,5707;0,0680378
1333,5349;0,067754
1334,4991;0,0674291
1335,4634;0,0670482
1336,4276;0,0665794
1337,3918;0,0659808
1338,3561;0,0652265
1339,3203;0,0643442
1340,2845;0,0634248
1341,2488;0,0625775
1342,2130;0,0618696
1343,1772;0,0613098
1344,1415;0,060874
1345,1057;0,0605366
1346,0699;0,0602864
1347,0342;0,0601269
1347,9984;0,0600712
1348,9626;0,0601329
1349,9269;0,060317
1350,8911;0,0606152
1351,8553;0,061007
1352,8196;0,0614685
1353,7838;0,0619829
1354,7480;0,0625457
1355,7123;0,0631614
1356,6765;0,0638325
1357,6407;0,0645522
1358,6050;0,0653049
1359,5692;0,0660711
1360,5334;0,0668234
1361,4977;0,0675234
1362,4619;0,0681378
1363,4261;0,0686672
1364,3904;0,0691443
1365,3546;0,0695975
1366,3188;0,07003
1367,2831;0,0704256
1368,2473;0,0707642
1369,2115;0,071029
1370,1758;0,071206
1371,1400;0,0712773
1372,1042;0,0712158
1373,0685;0,0709911
1374,0327;0,070591
1374,9969;0,0700424
1375,9612;0,0693952
1376,9254;0,0686728
1377,8896;0,0678489
1378,8539;0,0668805
1379,8181;0,0657644
1380,7823;0,0645626
1381,7466;0,0633709
1382,7108;0,0622526
1383,6750;0,0611969
1384,6393;0,0601376
1385,6035;0,0590137
1386,5677;0,0578422
1387,5320;0,0567469
1388,4962;0,0558852
1389,4604;0,0553229
1390,4247;0,0550016
1391,3889;0,0548144
1392,3531;0,0546845
1393,3174;0,0545874
1394,2816;0,0545266
1395,2458;0,0545013
1396,2101;0,0544969
1397,1743;0,0545025
1398,1385;0,054531
1399,1028;0,0546162
1400,0670;0,0547882
1401,0313;0,0550501
1401,9955;0,0553773
1402,9597;0,0557384
1403,9240;0,0561183
1404,8882;0,0565281
1405,8524;0,0569967
1406,8167;0,0575472
1407,7809;0,0581793
1408,7451;0,0588761
1409,7094;0,059628
1410,6736;0,0604445
1411,6378;0,0613388
1412,6021;0,0623001
1413,5663;0,0632818
1414,5305;0,064218
1415,4948;0,0650533
1416,4590;0,0657552
1417,4232;0,0663063
1418,3875;0,0667109
1419,3517;0,0670266
1420,3159;0,0673305
1421,2802;0,0676174
1422,2444;0,0677857
1423,2086;0,0677288
1424,1729;0,0674141
1425,1371;0,0668879
1426,1013;0,066216
1427,0656;0,0654211
1428,0298;0,0644761
1428,9940;0,0633638
1429,9583;0,0621431
1430,9225;0,0609361
1431,8867;0,0598244
1432,8510;0,058771
1433,8152;0,0576479
1434,7794;0,0563367
1435,7437;0,0548527
1436,7079;0,05343
1437,6721;0,0524077
1438,6364;0,0519421
1439,6006;0,0519099
1440,5648;0,0520855
1441,5291;0,0523179
1442,4933;0,0525719
1443,4575;0,0528829
1444,4218;0,0532913
1445,3860;0,053803
1446,3502;0,054389
1447,3145;0,0550146
1448,2787;0,0556663
1449,2429;0,0563516
1450,2072;0,0570649
1451,1714;0,0577566
1452,1356;0,0583437
1453,0999;0,0587526
1454,0641;0,0589518
1455,0283;0,0589295
1455,9926;0,0586204
1456,9568;0,0579754
1457,9210;0,057286
1458,8853;0,0570056
1459,8495;0,0571639
1460,8137;0,0574428
1461,7780;0,0575232
1462,7422;0,0572021
1463,7064;0,056393
1464,6707;0,0551635
1465,6349;0,0537628
1466,5991;0,0524602
1467,5634;0,051319
1468,5276;0,0501924
1469,4918;0,0488674
1470,4561;0,0471613
1471,4203;0,0449601
1472,3845;0,0423084
1473,3488;0,0395388
1474,3130;0,0371323
1475,2772;0,035326
1476,2415;0,0340262
1477,2057;0,0330333
1478,1699;0,0322042
1479,1342;0,0314727
1480,0984;0,0308216
1481,0626;0,0302614
1482,0269;0,0298203
1482,9911;0,0295281
1483,9553;0,0293962
1484,9196;0,0294101
1485,8838;0,0295397
1486,8480;0,0297457
1487,8123;0,0299644
1488,7765;0,0301224
1489,7407;0,0302349
1490,7050;0,0304352
1491,6692;0,0308246
1492,6334;0,0313846
1493,5977;0,0320555
1494,5619;0,0328234
1495,5261;0,0337264
1496,4904;0,0347946
1497,4546;0,0359975
1498,4188;0,0372752
1499,3831;0,0385789
1500,3473;0,0398335
1501,3115;0,0409223
1502,2758;0,0417442
1503,2400;0,0422837
1504,2042;0,0426435
1505,1685;0,042974
1506,1327;0,0432122
1507,0969;0,0429765
1508,0612;0,0422506
1509,0254;0,0415347
1509,9896;0,0410369
1510,9539;0,0406188
1511,9181;0,040123
1512,8823;0,039481
1513,8466;0,0386844
1514,8108;0,0377436
1515,7750;0,0366765
1516,7393;0,035516
1517,7035;0,034305
1518,6677;0,0330746
1519,6320;0,0318412
1520,5962;0,0306384
1521,5604;0,029549
1522,5247;0,0286693
1523,4889;0,0280244
1524,4531;0,0275509
1525,4174;0,0271707
1526,3816;0,0268624
1527,3458;0,0266556
1528,3101;0,026573
1529,2743;0,0265978
1530,2385;0,026699
1531,2028;0,0268728
1532,1670;0,0271438
1533,1312;0,0275254
1534,0955;0,0279865
1535,0597;0,0284537
1536,0239;0,0288482
1536,9882;0,0291486
1537,9524;0,0294411
1538,9166;0,029863
1539,8809;0,0303498
1540,8451;0,0305105
1541,8093;0,0302178
1542,7736;0,0298457
1543,7378;0,0296394
1544,7020;0,0295851
1545,6663;0,0296313
1546,6305;0,0297602
1547,5947;0,0299573
1548,5590;0,0301899
1549,5232;0,0304255
1550,4874;0,0306614
1551,4517;0,0309285
1552,4159;0,0312533
1553,3801;0,0316114
1554,3444;0,0319247
1555,3086;0,0321086
1556,2728;0,0321086
1557,2371;0,0318553
1558,2013;0,031266
1559,1655;0,030656
1560,1298;0,03072
1561,0940;0,0315758
1562,0582;0,0327925
1563,0225;0,0339778
1563,9867;0,0349515
1564,9509;0,0356874
1565,9152;0,036242
1566,8794;0,0367117
1567,8436;0,0372031
1568,8079;0,0378005
1569,7721;0,0385327
1570,7363;0,0393585
1571,7006;0,0401881
1572,6648;0,0409461
1573,6290;0,0416288
1574,5933;0,0423068
1575,5575;0,0430534
1576,5217;0,0438763
1577,4860;0,0447564
1578,4502;0,0456903
1579,4144;0,046654
1580,3787;0,0476056
1581,3429;0,0485272
1582,3071;0,0494342
1583,2714;0,0503553
1584,2356;0,0513124
1585,1998;0,0523151
1586,1641;0,0533573
1587,1283;0,0544151
1588,0925;0,0554462
1589,0568;0,0563973
1590,0210;0,0572165
1590,9852;0,0578595
1591,9495;0,0582885
1592,9137;0,0584705
1593,8779;0,0583887
1594,8422;0,0580618
1595,8064;0,0575505
1596,7706;0,0569376
1597,7349;0,0562941
1598,6991;0,0556583
1599,6633;0,0550377
1600,6276;0,0544254
1601,5918;0,0538197
1602,5560;0,0532339
1603,5203;0,0526908
1604,4845;0,0522031
1605,4487;0,0517561
1606,4130;0,0513121
1607,3772;0,0508369
1608,3414;0,0503377
1609,3057;0,0498769
1610,2699;0,0495317
1611,2341;0,0493248
1612,1984;0,0491998
1613,1626;0,0490626
1614,1268;0,0488387
1615,0911;0,0485095
1616,0553;0,0481436
1617,0195;0,0479047
1617,9838;0,0479363
1618,9480;0,048208
1619,9122;0,0485505
1620,8765;0,048801
1621,8407;0,0488861
1622,8049;0,048825
1623,7692;0,0486986
1624,7334;0,0485952
1625,6976;0,0485555
1626,6619;0,0485711
1627,6261;0,0486308
1628,5903;0,0487453
1629,5546;0,0489199
1630,5188;0,0491168
1631,4830;0,049264
1632,4473;0,0493032
1633,4115;0,0492211
1634,3757;0,0490225
1635,3400;0,0487004
1636,3042;0,0483342
1637,2684;0,0481292
1638,2327;0,0481845
1639,1969;0,0484056
1640,1611;0,0486507
1641,1254;0,0488313
1642,0896;0,0489179
1643,0538;0,048921
1644,0181;0,0488729
1644,9823;0,0487958
1645,9465;0,048676
1646,9108;0,0485171
1647,8750;0,0483708
1648,8392;0,0482156
1649,8035;0,0479098
1650,7677;0,0472896
1651,7319;0,0462277
1652,6962;0,044711
1653,6604;0,0431836
1654,6246;0,0424165
1655,5889;0,042514
1656,5531;0,0429526
1657,5173;0,0432638
1658,4816;0,0432405
1659,4458;0,0428576
1660,4100;0,0421764
1661,3743;0,0413046
1662,3385;0,0404035
1663,3027;0,0396524
1664,2670;0,0391342
1665,2312;0,0387839
1666,1954;0,0384573
1667,1597;0,0380117
1668,1239;0,0373489
1669,0881;0,0364611
1670,0524;0,0354754
1671,0166;0,034571
1671,9808;0,0337993
1672,9451;0,0330593
1673,9093;0,0322457
1674,8735;0,0313874
1675,8378;0,0306619
1676,8020;0,0302524
1677,7662;0,030172
1678,7305;0,03025
1679,6947;0,0302589
1680,6589;0,0300185
1681,6232;0,0294113
1682,5874;0,0283697
1683,5516;0,0269822
1684,5159;0,0256651
1685,4801;0,0248784
1686,4443;0,0246458
1687,4086;0,0246677
1688,3728;0,0246677
1689,3370;0,0245257
1690,3013;0,024249
1691,2655;0,0239059
1692,2297;0,023576
1693,1940;0,0233282
1694,1582;0,0232068
1695,1224;0,0232024
1696,0867;0,0232189
1697,0509;0,023094
1698,0151;0,0227147
1698,9794;0,0221633
1699,9436;0,0217217
1700,9078;0,02166
1701,8721;0,0220231
1702,8363;0,022643
1703,8005;0,0232988
1704,7648;0,0238453
1705,7290;0,0242575
1706,6932;0,0246124
1707,6575;0,0250252
1708,6217;0,0255709
1709,5859;0,0262513
1710,5502;0,02702
1711,5144;0,0278217
1712,4786;0,0286132
1713,4429;0,0293647
1714,4071;0,0300468
1715,3713;0,0306069
1716,3356;0,0309804
1717,2998;0,0312131
1718,2640;0,0315255
1719,2283;0,0320985
1720,1925;0,0329017
1721,1567;0,0337879
1722,1210;0,0346282
1723,0852;0,0353616
1724,0494;0,0359908
1725,0137;0,0365639
1725,9779;0,0371441
1726,9421;0,0377713
1727,9064;0,0384316
1728,8706;0,0390542
1729,8348;0,0395324
1730,7991;0,0397503
1731,7633;0,0396094
1732,7275;0,0390931
1733,6918;0,0383793
1734,6560;0,0378023
1735,6202;0,0375517
1736,5845;0,0375129
1737,5487;0,0374351
1738,5129;0,0371294
1739,4772;0,0365473
1740,4414;0,0357716
1741,4056;0,0349478
1742,3699;0,0341818
1743,3341;0,0334806
1744,2983;0,0327803
1745,2626;0,0320055
1746,2268;0,0310879
1747,1910;0,0299436
1748,1553;0,0284715
1749,1195;0,0266438
1750,0837;0,0246387
1751,0480;0,0227912
1752,0122;0,0213389
1752,9764;0,0202706
1753,9407;0,019413
1754,9049;0,0185862
1755,8691;0,0176981
1756,8334;0,016757
1757,7976;0,0158195
1758,7618;0,0149199
1759,7261;0,0140414
1760,6903;0,0131532
1761,6545;0,0122728
1762,6188;0,0114771
1763,5830;0,0108426
1764,5472;0,0103806
1765,5115;0,0100371
1766,4757;0,00974162
1767,4399;0,00944777
1768,4042;0,00913895
1769,3684;0,00880403
1770,3326;0,00841309
1771,2969;0,00793426
1772,2611;0,00740061
1773,2253;0,00693702
1774,1896;0,00666398
1775,1538;0,00658968
1776,1180;0,00662292
1777,0823;0,00665603
1778,0465;0,00662294
1779,0107;0,00651044
1779,9750;0,00634067
1780,9392;0,00614498
1781,9034;0,00594532
1782,8677;0,00575542
1783,8319;0,00559599
1784,7961;0,00550051
1785,7604;0,0054965
1786,7246;0,00557849
1787,6888;0,00570283
1788,6531;0,0058108
1789,6173;0,00585595
1790,5815;0,0058152
1791,5458;0,00569444
1792,5100;0,00554656
1793,4742;0,00545995
1794,4385;0,00548301
1795,4027;0,00557857
1796,3669;0,00566659
1797,3312;0,00568558
1798,2954;0,00561629
1799,2596;0,00547366
1800,2239;0,00529111
1801,1881;0,00510908
1802,1523;0,00496445
1803,1166;0,00487934
1804,0808;0,00485769
1805,0450;0,0048902
1806,0093;0,00495967
1806,9735;0,00504217
1807,9377;0,00510728
1808,9020;0,00512339
1809,8662;0,00507141
1810,8304;0,00495961
1811,7947;0,00482189
1812,7589;0,00469453
1813,7231;0,004594
1814,6874;0,00451679
1815,6516;0,00445503
1816,6158;0,00440982
1817,5801;0,00439259
1818,5443;0,00441527
1819,5085;0,00447746
1820,4728;0,00456231
1821,4370;0,00464577
1822,4012;0,00471103
1823,3655;0,00475665
1824,3297;0,00479357
1825,2939;0,00483206
1826,2582;0,00486549
1827,2224;0,00486444
1828,1866;0,00479117
1829,1509;0,00463204
1830,1151;0,00442769
1831,0793;0,00426156
1832,0436;0,00419789
1833,0078;0,00423375
1833,9720;0,00431491
1834,9363;0,00438481
1835,9005;0,00441889
1836,8647;0,0044303
1837,8290;0,00445002
1838,7932;0,00449496
1839,7574;0,00455092
1840,7217;0,00458544
1841,6859;0,00457261
1842,6501;0,00450532
1843,6144;0,00439574
1844,5786;0,004277
1845,5428;0,00419192
1846,5071;0,00415673
1847,4713;0,00414487
1848,4355;0,00411706
1849,3998;0,00405802
1850,3640;0,00398487
1851,3282;0,00392893
1852,2925;0,00391046
1853,2567;0,0039273
1854,2209;0,0039621
1855,1852;0,00399745
1856,1494;0,00402409
1857,1136;0,00403939
1858,0779;0,00404092
1859,0421;0,00402662
1860,0063;0,00400263
1860,9706;0,00398943
1861,9348;0,00401589
1862,8990;0,00410249
1863,8633;0,00424714
1864,8275;0,00442308
1865,7917;0,00458406
1866,7560;0,00467045
1867,7202;0,00462777
1868,6844;0,00444985
1869,6487;0,00420552
1870,6129;0,00399096
1871,5771;0,00385597
1872,5414;0,0037906
1873,5056;0,00376201
1874,4698;0,00374719
1875,4341;0,00373993
1876,3983;0,00374309
1877,3625;0,00375803
1878,3268;0,00378117
1879,2910;0,0038059
1880,2552;0,00382779
1881,2195;0,00384763
1882,1837;0,00387004
1883,1479;0,0038989
1884,1122;0,00393328
1885,0764;0,00396711
1886,0406;0,00399274
1887,0049;0,00400514
1887,9691;0,00400395
1888,9333;0,0039937
1889,8976;0,00398283
1890,8618;0,00397929
1891,8260;0,00398376
1892,7903;0,00398751
1893,7545;0,00397824
1894,7188;0,00394865
1895,6830;0,00390179
1896,6472;0,00385028
1897,6115;0,00380939
1898,5757;0,00378829
1899,5399;0,00378602
1900,5042;0,00379424
1901,4684;0,00380361
1902,4326;0,00380956
1903,3969;0,00381493
1904,3611;0,00382813
1905,3253;0,00385738
1906,2896;0,00390411
1907,2538;0,00395839
1908,2180;0,00399969
1909,1823;0,00400529
1910,1465;0,00396383
1911,1107;0,0038832
1912,0750;0,00378496
1913,0392;0,00369187
1914,0034;0,00362083
1914,9677;0,00358259
1915,9319;0,00358182
1916,8961;0,00361538
1917,8604;0,00367292
1918,8246;0,00374051
1919,7888;0,00380184
1920,7531;0,00383708
1921,7173;0,00382577
1922,6815;0,00375561
1923,6458;0,00363233
1924,6100;0,00348202
1925,5742;0,00334103
1926,5385;0,0032396
1927,5027;0,00319222
1928,4669;0,00319798
1929,4312;0,00324456
1930,3954;0,00331214
1931,3596;0,00337792
1932,3239;0,00342005
1933,2881;0,0034219
1934,2523;0,0033762
1935,2166;0,00328834
1936,1808;0,00317636
1937,1450;0,00306605
1938,1093;0,00298305
1939,0735;0,00294655
1940,0377;0,00296557
1941,0020;0,00303543
1941,9662;0,00313531
1942,9304;0,00323146
1943,8947;0,00328654
1944,8589;0,00326859
1945,8231;0,00315759
1946,7874;0,00295329
1947,7516;0,0026839
1948,7158;0,00240694
1949,6801;0,00219376
1950,6443;0,00209963
1951,6085;0,00213488
1952,5728;0,00225557
1953,5370;0,00238105
1954,5012;0,00242985
1955,4655;0,00235596
1956,4297;0,00216762
1957,3939;0,00192096
1958,3582;0,00169353
1959,3224;0,00155062
1960,2866;0,00151882
1961,2509;0,00157827
1962,2151;0,00167684
1963,1793;0,00175654
1964,1436;0,00177655
1965,1078;0,00172326
1966,0720;0,00160747
1967,0363;0,00145356
1968,0005;0,00128548
1968,9647;0,00111493
1969,9290;0,00093752
1970,8932;0,000739481
1971,8574;0,000511884
1972,8217;0,000266803
1973,7859;4,79765E-05
1974,7501;-7,44665E-05
1975,7144;-2,98755E-05
1976,6786;0,0002096
1977,6428;0,000596678
1978,6071;0,00101929
1979,5713;0,00135486
1980,5355;0,00153033
1981,4998;0,00154792
1982,4640;0,00146972
1983,4282;0,00137967
1984,3925;0,00134544
1985,3567;0,00139636
1986,3209;0,00152479
1987,2852;0,00170467
1988,2494;0,00191055
1989,2136;0,00212281
1990,1779;0,00231922
1991,1421;0,00246695
1992,1063;0,00252878
1993,0706;0,00248229
1994,0348;0,00233486
1994,9990;0,00212189
1995,9633;0,00189226
1996,9275;0,00169297
1997,8917;0,00155901
1998,8560;0,00150815
1999,8202;0,00153843
2000,7844;0,0016278
2001,7487;0,00173725
2002,7129;0,00181981
2003,6771;0,00183661
2004,6414;0,0017759
2005,6056;0,0016642
2006,5698;0,00155763
2007,5341;0,00151082
2008,4983;0,0015424
2009,4625;0,00162426
2010,4268;0,00170384
2011,3910;0,00174139
2012,3552;0,00173429
2013,3195;0,00171313
2014,2837;0,00171532
2015,2479;0,00175548
2016,2122;0,00181436
2017,1764;0,00185521
2018,1406;0,0018543
2019,1049;0,00181847
2020,0691;0,00177438
2021,0333;0,00174091
2021,9976;0,0017099
2022,9618;0,00165203
2023,9260;0,00154439
2024,8903;0,00139814
2025,8545;0,00126135
2026,8187;0,00118998
2027,7830;0,00120682
2028,7472;0,00128162
2029,7114;0,00135196
2030,6757;0,00137393
2031,6399;0,00136602
2032,6041;0,00140923
2033,5684;0,00159661
2034,5326;0,00196421
2035,4968;0,00245586
2036,4611;0,00294823
2037,4253;0,00331818
2038,3895;0,00350162
2039,3538;0,00351188
2040,3180;0,00341628
2041,2822;0,0032936
2042,2465;0,00320031
2043,2107;0,00316237
2044,1749;0,00318911
2045,1392;0,00328911
2046,1034;0,00347157
2047,0676;0,00373227
2048,0320;0,00403955
2048,9961;0,00433775
2049,9604;0,00456884
2050,9246;0,00469629
2051,8889;0,00471669
2052,8530;0,00465797
2053,8174;0,00456948
2054,7815;0,00450558
2055,7458;0,00450606
2056,7100;0,00457873
2057,6743;0,00469556
2058,6384;0,0048076
2059,6028;0,00487181
2060,5669;0,00487362
2061,5313;0,00483151
2062,4954;0,00478116
2063,4597;0,00475085
2064,4238;0,00474598
2065,3882;0,00475365
2066,3523;0,00476112
2067,3167;0,00477058
2068,2808;0,00479711
2069,2451;0,00485328
2070,2092;0,00493509
2071,1736;0,00502179
2072,1377;0,00508857
2073,1021;0,00512184
2074,0662;0,00512367
2075,0305;0,00510411
2075,9946;0,00507071
2076,9590;0,00502589
2077,9231;0,00497288
2078,8875;0,00492234
2079,8516;0,00489091
2080,8159;0,00489202
2081,7800;0,00492707
2082,7444;0,00498534
2083,7085;0,00505267
2084,6729;0,00512052
2085,6370;0,00518768
2086,6013;0,00525285
2087,5654;0,00530635
2088,5298;0,00532989
2089,4939;0,00530681
2090,4583;0,00523605
2091,4224;0,0051389
2092,3867;0,00505244
2093,3508;0,00501256
2094,3152;0,0050362
2095,2793;0,00511299
2096,2437;0,0052115
2097,2078;0,00529636
2098,1721;0,00534584
2099,1362;0,00535927
2100,1006;0,0053527
2101,0647;0,00534183
2102,0291;0,00533814
2102,9932;0,00534052
2103,9575;0,0053421
2104,9216;0,00533928
2105,8860;0,00533693
2106,8501;0,00534548
2107,8145;0,00537226
2108,7786;0,00541412
2109,7429;0,00545756
2110,7070;0,0054864
2111,6714;0,00549111
2112,6355;0,00547285
2113,5999;0,00544045
2114,5640;0,0054042
2115,5283;0,00537243
2116,4924;0,00535273
2117,4568;0,00535424
2118,4209;0,00538584
2119,3853;0,0054493
2120,3494;0,00553211
2121,3137;0,00560743
2122,2778;0,00564391
2123,2422;0,00562084
2124,2063;0,00553894
2125,1707;0,00541964
2126,1348;0,00529377
2127,0991;0,00518727
2128,0632;0,00511268
2129,0276;0,00506998
2129,9917;0,00505313
2130,9561;0,00505601
2131,9202;0,00507346
2132,8845;0,00509865
2133,8486;0,00512067
2134,8130;0,00512569
2135,7771;0,00510144
2136,7415;0,00504184
2137,7056;0,00494917
2138,6699;0,00483415
2139,6340;0,00471539
2140,5984;0,00461769
2141,5625;0,00456721
2142,5269;0,00458227
2143,4910;0,00466336
2144,4553;0,00478901
2145,4194;0,00492298
2146,3838;0,00503102
2147,3479;0,00509764
2148,3123;0,00513079
2149,2764;0,00514908
2150,2407;0,00515896
2151,2048;0,00513864
2152,1692;0,00504303
2153,1333;0,0048311
2154,0977;0,00450214
2155,0618;0,00411965
2156,0261;0,00380443
2156,9902;0,00368756
2157,9546;0,00383552
2158,9187;0,00419803
2159,8831;0,00463665
2160,8472;0,00501843
2161,8115;0,00528361
2162,7756;0,00543639
2163,7400;0,00549519
2164,7041;0,00545983
2165,6685;0,00531874
2166,6326;0,00508104
2167,5969;0,00479971
2168,5610;0,00456166
2169,5254;0,00444953
2170,4895;0,00450137
2171,4539;0,00469332
2172,4180;0,00495251
2173,3823;0,00519034
2174,3464;0,00533752
2175,3108;0,00536466
2176,2749;0,00528248
2177,2393;0,005128
2178,2034;0,00494722
2179,1677;0,00478136
2180,1318;0,00465743
2181,0962;0,00458266
2182,0603;0,00454482
2183,0247;0,0045204
2183,9888;0,00448808
2184,9531;0,0044408
2185,9172;0,00439028
2186,8816;0,00436339
2187,8457;0,00439273
2188,8101;0,00450381
2189,7742;0,00470132
2190,7385;0,00495939
2191,7026;0,00522321
2192,6670;0,00542625
2193,6311;0,00551823
2194,5955;0,00548894
2195,5596;0,00537224
2196,5239;0,00522566
2197,4880;0,00509817
2198,4524;0,00500771
2199,4165;0,004943
2200,3809;0,00488573
2201,3450;0,00483385
2202,3093;0,0048076
2203,2734;0,00483475
2204,2378;0,00492862
2205,2019;0,0050762
2206,1663;0,00524343
2207,1304;0,0053904
2208,0947;0,005484
2209,0588;0,00550252
2210,0232;0,00543641
2210,9873;0,00529207
2211,9517;0,00509842
2212,9158;0,00490692
2213,8801;0,00477667
2214,8442;0,00474765
2215,8086;0,00481806
2216,7727;0,00494333
2217,7371;0,00506027
2218,7012;0,00512173
2219,6655;0,00511898
2220,6296;0,00507888
2221,5940;0,00504074
2222,5581;0,00503103
2223,5225;0,00505192
2224,4866;0,00508699
2225,4509;0,00511523
2226,4150;0,00512203
2227,3794;0,00510217
2228,3435;0,00506113
2229,3079;0,00501304
2230,2720;0,00497901
2231,2363;0,00498173
2232,2004;0,00503566
2233,1648;0,00513784
2234,1289;0,00526623
2235,0933;0,0053885
2236,0574;0,00547623
2237,0217;0,00551584
2237,9858;0,00551042
2238,9502;0,00547403
2239,9143;0,00542451
2240,8787;0,00537915
2241,8428;0,0053529
2242,8071;0,00535607
2243,7712;0,00539028
2244,7356;0,00544586
2245,6997;0,00550487
2246,6641;0,00555036
2247,6282;0,00557659
2248,5925;0,00559273
2249,5566;0,00561666
2250,5210;0,00566245
2251,4851;0,00572989
2252,4495;0,00580295
2253,4136;0,00585815
2254,3779;0,00587749
2255,3420;0,00585809
2256,3064;0,00581322
2257,2705;0,00576502
2258,2349;0,00573397
2259,1990;0,00573109
2260,1633;0,0057561
2261,1274;0,0058011
2262,0918;0,00585647
2263,0559;0,00591557
2264,0203;0,00597583
2264,9844;0,00603656
2265,9487;0,00609597
2266,9128;0,0061497
2267,8772;0,00619199
2268,8413;0,00621811
2269,8057;0,00622614
2270,7698;0,00621722
2271,7341;0,00619462
2272,6982;0,0061632
2273,6626;0,00612916
2274,6267;0,00609972
2275,5911;0,00608137
2276,5552;0,00607719
2277,5195;0,0060848
2278,4836;0,00609733
2279,4480;0,00610787
2280,4121;0,0061153
2281,3765;0,00612743
2282,3406;0,00615882
2283,3049;0,00622363
2284,2690;0,00632753
2285,2334;0,00646368
2286,1975;0,0066157
2287,1619;0,00676624
2288,1260;0,00690619
2289,0903;0,00703802
2290,0544;0,00717094
2291,0188;0,00731112
2291,9829;0,00745443
2292,9473;0,00758734
2293,9114;0,00769586
2294,8757;0,00777554
2295,8398;0,0078349
2296,8042;0,00788872
2297,7683;0,00794606
2298,7327;0,00800195
2299,6968;0,00803967
2300,6611;0,00804286
2301,6252;0,00800957
2302,5896;0,00795772
2303,5537;0,00791892
2304,5181;0,00792225
2305,4822;0,00797701
2306,4465;0,0080631
2307,4106;0,00813499
2308,3750;0,00813928
2309,3391;0,00803867
2310,3035;0,0078313
2311,2676;0,00755473
2312,2319;0,00727035
2313,1960;0,00703462
2314,1604;0,00687276
2315,1245;0,00677083
2316,0889;0,0066909
2317,0530;0,00659918
2318,0173;0,00649024
2318,9814;0,0063937
2319,9458;0,00635947
2320,9099;0,00642973
2321,8743;0,00661394
2322,8384;0,00687992
2323,8027;0,00716161
2324,7668;0,00737886
2325,7312;0,00746439
2326,6953;0,00739017
2327,6597;0,00718151
2328,6238;0,00691042
2329,5881;0,00667063
2330,5522;0,00654441
2331,5166;0,0065724
2332,4807;0,0067374
2333,4451;0,00697236
2334,4092;0,00719382
2335,3735;0,00734511
2336,3376;0,00742563
2337,3020;0,00748958
2338,2661;0,00761134
2339,2305;0,00782968
2340,1946;0,00809637
2341,1589;0,00826199
2342,1230;0,00813732
2343,0874;0,0076662
2344,0515;0,00711587
2345,0159;0,00697409
2345,9800;0,00751073
2346,9443;0,00852343
2347,9084;0,00953226
2348,8728;0,0101168
2349,8369;0,0101168
2350,8013;0,00966263
2351,7654;0,00907607
2352,7297;0,00867779
2353,6938;0,00859926
2354,6582;0,00875955
2355,6223;0,0090154
2356,5867;0,00927548
2357,5508;0,00947589
2358,5151;0,00953751
2359,4792;0,00940003
2360,4436;0,00907647
2361,4077;0,00863604
2362,3721;0,00813274
2363,3362;0,00757113
2364,3005;0,00693814
2365,2646;0,00624784
2366,2290;0,00554795
2367,1931;0,0048926
2368,1575;0,0043185
2369,1216;0,0038425
2370,0859;0,00347037
2371,0500;0,00320309
2372,0144;0,00304099
2372,9785;0,00298912
2373,9429;0,00306197
2374,9070;0,00327989
2375,8713;0,00365523
2376,8354;0,0041754
2377,7998;0,00479405
2378,7639;0,00543729
2379,7283;0,00602283
2380,6924;0,00648334
2381,6567;0,00678381
2382,6208;0,00692652
2383,5852;0,0069438
2384,5493;0,00688281
2385,5137;0,00678931
2386,4778;0,0066963
2387,4421;0,00662037
2388,4063;0,00656531
2389,3706;0,00652888
2390,3347;0,00650837
2391,2991;0,00650242
2392,2632;0,0065097
2393,2275;0,00652729
2394,1917;0,00655069
2395,1560;0,00657566
2396,1201;0,0066001
2397,0845;0,00662446
2398,0486;0,00665171
2399,0129;0,00668214
2399,9771;0,00671341
2400,9414;0,00674241
2401,9055;0,00676627
2402,8699;0,0067854
2403,8340;0,00680293
2404,7983;0,00682283
2405,7625;0,00684732
2406,7268;0,00687479
2407,6909;0,00690146
2408,6553;0,00692389
2409,6194;0,00694056
2410,5837;0,00695353
2411,5479;0,00696707
2412,5122;0,00698566
2413,4763;0,0070121
2414,4407;0,0070468
2415,4048;0,00708752
2416,3691;0,00713002
2417,3333;0,00716914
2418,2976;0,0072005
2419,2617;0,00722239
2420,2261;0,00723671
2421,1902;0,00724769
2422,1545;0,00726067
2423,1187;0,00727928
2424,0830;0,0073042
2425,0471;0,00733338
2426,0115;0,00736336
2426,9756;0,00739078
2427,9399;0,0074136
2428,9041;0,00743189
2429,8684;0,0074485
2430,8325;0,00746877
2431,7969;0,00749864
2432,7610;0,00754115
2433,7253;0,00759311
2434,6895;0,0076448
2435,6538;0,00768396
2436,6179;0,00770249
2437,5823;0,00770172
2438,5464;0,00769252
2439,5107;0,00768976
2440,4749;0,0077046
2441,4392;0,00773944
2442,4033;0,00778825
2443,3677;0,00784101
2444,3318;0,00788873
2445,2961;0,007926
2446,2603;0,00795094
2447,2246;0,00796437
2448,1887;0,0079697
2449,1531;0,00797325
2450,1172;0,00798313
2451,0815;0,00800588
2452,0457;0,00804252
2453,0100;0,00808673
2453,9741;0,00812735
2454,9385;0,0081542
2455,9026;0,00816375
2456,8669;0,00816101
2457,8311;0,00815656
2458,7954;0,00816043
2459,7595;0,00817677
2460,7239;0,00820209
2461,6880;0,008228
2462,6523;0,00824652
2463,6165;0,00825463
2464,5808;0,00825555
2465,5449;0,00825625
2466,5093;0,00826313
2467,4734;0,00827871
2468,4377;0,00830156
2469,4019;0,00832895
2470,3662;0,00835974
2471,3303;0,00839493
2472,2947;0,00843536
2473,2588;0,00847865
2474,2231;0,00851864
2475,1873;0,00854832
2476,1516;0,0085644
2477,1157;0,00856979
2478,0801;0,00857175
2479,0442;0,00857705
2480,0085;0,00858783
2480,9727;0,00860144
2481,9370;0,00861387
2482,9011;0,00862338
2483,8655;0,00863123
2484,8296;0,00863936
2485,7939;0,00864789
2486,7581;0,00865566
2487,7224;0,0086637
2488,6865;0,00867807
2489,6509;0,00870826
2490,6150;0,00876079
2491,5793;0,00883225
2492,5435;0,00890756
2493,5078;0,00896639
2494,4719;0,00899432
2495,4363;0,00899169
2496,4004;0,00897392
2497,3647;0,00896255
2498,3289;0,00897258
2499,2932;0,00900412
2500,2573;0,00904372
2501,2217;0,0090741
2502,1858;0,0090858
2503,1501;0,00908315
2504,1143;0,00908089
2505,0786;0,00909385
2506,0427;0,00912675
2507,0071;0,00917085
2507,9712;0,00920945
2508,9355;0,00922877
2509,8997;0,00922677
2510,8640;0,00921441
2511,8281;0,00920862
2512,7925;0,00922161
2513,7566;0,00925331
2514,7209;0,00929171
2515,6851;0,00932034
2516,6494;0,00932825
2517,6135;0,00931612
2518,5779;0,00929535
2519,5420;0,00928099
2520,5063;0,00928337
2521,4705;0,00930327
2522,4348;0,00933309
2523,3989;0,0093625
2524,3633;0,00938453
2525,3274;0,00939843
2526,2917;0,00940808
2527,2559;0,00941806
2528,2202;0,00943041
2529,1843;0,00944416
2530,1487;0,00945731
2531,1128;0,00946902
2532,0771;0,00948017
2533,0413;0,00949212
2534,0056;0,00950533
2534,9697;0,00951943
2535,9341;0,00953459
2536,8982;0,00955273
2537,8625;0,00957642
2538,8267;0,00960592
2539,7910;0,00963645
2540,7551;0,00965857
2541,7195;0,00966268
2542,6836;0,00964514
2543,6479;0,00961192
2544,6121;0,00957669
2545,5764;0,00955395
2546,5405;0,00955141
2547,5049;0,0095666
2548,4690;0,0095898
2549,4333;0,00961116
2550,3975;0,00962683
2551,3618;0,00964003
2552,3259;0,00965676
2553,2903;0,00967987
2554,2544;0,00970608
2555,2188;0,00972816
2556,1829;0,00974021
2557,1472;0,00974186
2558,1113;0,00973842
2559,0757;0,00973712
2560,0398;0,00974264
2561,0042;0,0097552
2561,9683;0,00977166
2562,9326;0,0097883
2563,8967;0,00980264
2564,8611;0,00981356
2565,8252;0,00982065
2566,7896;0,00982417
2567,7537;0,00982578
2568,7180;0,00982885
2569,6821;0,00983746
2570,6465;0,00985405
2571,6106;0,00987778
2572,5750;0,00990465
2573,5391;0,00992973
2574,5034;0,00994951
2575,4675;0,00996293
2576,4319;0,00997047
2577,3960;0,00997267
2578,3604;0,00996959
2579,3245;0,00996167
2580,2888;0,00995101
2581,2529;0,0099417
2582,2173;0,00993849
2583,1814;0,00994482
2584,1458;0,00996156
2585,1099;0,00998717
2586,0742;0,0100191
2587,0383;0,0100553
2588,0027;0,0100943
2588,9668;0,0101347
2589,9312;0,0101745
2590,8953;0,0102107
2591,8596;0,0102403
2592,8237;0,010262
2593,7881;0,010277
2594,7522;0,0102893
2595,7166;0,0103044
2596,6807;0,0103259
2597,6450;0,010355
2598,6091;0,0103889
2599,5735;0,0104232
2600,5376;0,010454
2601,5020;0,0104798
2602,4661;0,0105022
2603,4304;0,010524
2604,3945;0,0105479
2605,3589;0,0105748
2606,3230;0,0106043
2607,2874;0,0106356
2608,2515;0,0106685
2609,2158;0,0107035
2610,1799;0,0107401
2611,1443;0,0107768
2612,1084;0,0108104
2613,0728;0,0108382
2614,0369;0,0108602
2615,0012;0,0108798
2615,9653;0,0109029
2616,9297;0,0109344
2617,8938;0,0109755
2618,8582;0,0110218
2619,8223;0,0110653
2620,7866;0,0110982
2621,7507;0,0111173
2622,7151;0,0111256
2623,6792;0,0111311
2624,6436;0,0111428
2625,6077;0,011167
2626,5720;0,0112045
2627,5361;0,0112516
2628,5005;0,0113021
2629,4646;0,0113506
2630,4290;0,0113951
2631,3931;0,0114368
2632,3574;0,0114785
2633,3215;0,011522
2634,2859;0,0115658
2635,2500;0,0116057
2636,2144;0,0116369
2637,1785;0,0116577
2638,1428;0,0116709
2639,1069;0,0116832
2640,0713;0,011702
2641,0354;0,0117309
2641,9998;0,0117696
2642,9639;0,011814
2643,9282;0,0118602
2644,8923;0,0119061
2645,8567;0,0119514
2646,8208;0,0119962
2647,7852;0,0120392
2648,7493;0,0120781
2649,7136;0,0121113
2650,6777;0,0121396
2651,6421;0,0121656
2652,6062;0,0121924
2653,5706;0,0122217
2654,5347;0,0122529
2655,4990;0,0122845
2656,4631;0,0123159
2657,4275;0,0123475
2658,3916;0,0123803
2659,3560;0,0124143
2660,3201;0,0124473
2661,2844;0,012476
2662,2485;0,0124982
2663,2129;0,0125145
2664,1770;0,0125285
2665,1414;0,0125453
2666,1055;0,0125686
2667,0698;0,0125988
2668,0339;0,0126328
2668,9983;0,0126659
2669,9624;0,012695
2670,9268;0,0127206
2671,8909;0,0127468
2672,8552;0,0127788
2673,8193;0,0128195
2674,7837;0,012867
2675,7478;0,0129153
2676,7122;0,0129578
2677,6763;0,0129915
2678,6406;0,013019
2679,6047;0,0130476
2680,5691;0,0130851
2681,5332;0,0131351
2682,4976;0,0131948
2683,4617;0,013257
2684,4260;0,0133135
2685,3901;0,0133596
2686,3545;0,0133951
2687,3186;0,0134234
2688,2830;0,0134487
2689,2471;0,0134743
2690,2114;0,0135026
2691,1755;0,0135357
2692,1399;0,0135759
2693,1040;0,0136244
2694,0684;0,0136801
2695,0325;0,0137388
2695,9968;0,0137948
2696,9609;0,0138434
2697,9253;0,0138831
2698,8894;0,0139162
2699,8538;0,013947
2700,8179;0,0139797
2701,7822;0,0140165
2702,7463;0,0140578
2703,7107;0,0141026
2704,6748;0,0141501
2705,6392;0,0141999
2706,6033;0,0142514
2707,5676;0,0143039
2708,5317;0,0143565
2709,4961;0,0144078
2710,4602;0,0144567
2711,4246;0,0145026
2712,3887;0,0145454
2713,3530;0,0145863
2714,3171;0,0146269
2715,2815;0,0146695
2716,2456;0,0147156
2717,2100;0,0147656
2718,1741;0,0148185
2719,1384;0,0148717
2720,1025;0,0149223
2721,0669;0,0149667
2722,0310;0,0150023
2722,9954;0,0150283
2723,9595;0,0150469
2724,9238;0,0150632
2725,8879;0,0150844
2726,8523;0,0151167
2727,8164;0,0151623
2728,7808;0,0152185
2729,7449;0,0152788
2730,7092;0,0153359
2731,6733;0,0153843
2732,6377;0,0154217
2733,6018;0,0154484
2734,5662;0,0154662
2735,5303;0,0154777
2736,4946;0,0154864
2737,4587;0,0154968
2738,4231;0,0155146
2739,3872;0,0155444
2740,3516;0,0155878
2741,3157;0,0156421
2742,2800;0,0157003
2743,2441;0,0157534
2744,2085;0,0157931
2745,1726;0,0158152
2746,1370;0,0158208
2747,1011;0,015817
2748,0654;0,0158136
2749,0295;0,0158203
2749,9939;0,0158429
2750,9580;0,0158818
2751,9224;0,0159323
2752,8865;0,0159875
2753,8508;0,0160411
2754,8149;0,0160895
2755,7793;0,0161327
2756,7434;0,0161728
2757,7078;0,0162125
2758,6719;0,0162543
2759,6362;0,0162993
2760,6003;0,0163472
2761,5647;0,0163963
2762,5288;0,0164442
2763,4932;0,0164885
2764,4573;0,0165288
2765,4216;0,0165675
2766,3857;0,0166097
2767,3501;0,0166606
2768,3142;0,0167224
2769,2786;0,0167927
2770,2427;0,0168643
2771,2070;0,0169292
2772,1711;0,016983
2773,1355;0,0170277
2774,0996;0,0170708
2775,0640;0,017121
2776,0281;0,0171832
2776,9924;0,0172561
2777,9565;0,0173338
2778,9209;0,0174101
2779,8850;0,0174826
2780,8494;0,0175539
2781,8135;0,017629
2782,7778;0,0177112
2783,7419;0,0177994
2784,7063;0,0178877
2785,6704;0,0179685
2786,6348;0,0180369
2787,5989;0,0180935
2788,5632;0,0181447
2789,5273;0,0182005
2790,4917;0,0182707
2791,4558;0,0183602
2792,4202;0,0184671
2793,3843;0,0185833
2794,3486;0,0186979
2795,3127;0,0188032
2796,2771;0,0188983
2797,2412;0,0189895
2798,2056;0,0190865
2799,1697;0,0191969
2800,1340;0,0193223
2801,0981;0,0194587
2802,0625;0,0196
2803,0266;0,0197422
2803,9910;0,0198845
2804,9551;0,0200272
2805,9194;0,0201699
2806,8835;0,02031
2807,8479;0,0204452
2808,8120;0,0205762
2809,7764;0,0207083
2810,7405;0,020849
2811,7048;0,0210042
2812,6689;0,0211755
2813,6333;0,0213599
2814,5974;0,0215526
2815,5618;0,0217504
2816,5259;0,0219521
2817,4902;0,0221582
2818,4543;0,0223691
2819,4187;0,0225847
2820,3828;0,0228048
2821,3472;0,0230299
2822,3113;0,0232613
2823,2756;0,0235007
2824,2397;0,0237497
2825,2041;0,0240101
2826,1682;0,0242849
2827,1326;0,0245784
2828,0967;0,0248955
2829,0610;0,0252396
2830,0251;0,0256117
2830,9895;0,026009
2831,9536;0,0264269
2832,9180;0,0268599
2833,8821;0,0273039
2834,8464;0,027758
2835,8105;0,028225
2836,7749;0,0287124
2837,7390;0,0292325
2838,7034;0,0298006
2839,6675;0,0304334
2840,6318;0,0311468
2841,5959;0,0319539
2842,5603;0,0328615
2843,5244;0,0338661
2844,4888;0,0349472
2845,4529;0,0360624
2846,4172;0,0371478
2847,3813;0,0381256
2848,3457;0,038921
2849,3098;0,0394803
2850,2742;0,0397851
2851,2383;0,0398549
2852,2026;0,0397385
2853,1667;0,0394969
2854,1311;0,0391877
2855,0952;0,0388538
2856,0596;0,0385213
2857,0237;0,0382044
2857,9880;0,0379125
2858,9521;0,0376556
2859,9165;0,0374459
2860,8806;0,0372945
2861,8450;0,037208
2862,8091;0,0371861
2863,7734;0,0372231
2864,7375;0,0373114
2865,7019;0,037444
2866,6660;0,0376134
2867,6304;0,0378085
2868,5945;0,0380122
2869,5588;0,0382025
2870,5229;0,0383591
2871,4873;0,0384718
2872,4514;0,0385442
2873,4158;0,0385924
2874,3799;0,0386366
2875,3442;0,0386924
2876,3083;0,0387654
2877,2727;0,0388524
2878,2368;0,0389474
2879,2012;0,0390472
2880,1653;0,0391538
2881,1296;0,0392729
2882,0938;0,0394091
2883,0581;0,0395633
2884,0222;0,0397323
2884,9866;0,0399116
2885,9507;0,0400985
2886,9150;0,0402948
2887,8792;0,0405049
2888,8435;0,040732
2889,8076;0,0409747
2890,7720;0,0412252
2891,7361;0,0414713
2892,7004;0,0417025
2893,6646;0,0419144
2894,6289;0,0421114
2895,5930;0,0423048
2896,5574;0,0425067
2897,5215;0,0427245
2898,4858;0,042957
2899,4500;0,0431956
2900,4143;0,0434289
2901,3784;0,0436498
2902,3428;0,04386
2903,3069;0,0440712
2904,2712;0,0443019
2905,2354;0,0445718
2906,1997;0,0448969
2907,1638;0,0452871
2908,1282;0,0457482
2909,0923;0,046284
2910,0566;0,0468962
2911,0208;0,047581
2911,9851;0,0483233
2912,9492;0,0490921
2913,9136;0,049842
2914,8777;0,0505195
2915,8420;0,0510742
2916,8062;0,0514691
2917,7705;0,0516866
2918,7346;0,0517293
2919,6990;0,0516154
2920,6631;0,0513732
2921,6274;0,0510333
2922,5916;0,0506233
2923,5559;0,0501631
2924,5200;0,0496632
2925,4844;0,049127
2926,4485;0,0485557
2927,4128;0,0479531
2928,3770;0,0473285
2929,3413;0,0466959
2930,3054;0,0460685
2931,2698;0,0454547
2932,2339;0,0448553
2933,1982;0,0442661
2934,1624;0,0436824
2935,1267;0,043102
2936,0908;0,0425269
2937,0552;0,0419606
2938,0193;0,0414053
2938,9836;0,04086
2939,9478;0,0403213
2940,9121;0,0397854
2941,8762;0,0392517
2942,8406;0,0387246
2943,8047;0,0382135
2944,7690;0,0377305
2945,7332;0,0372864
2946,6975;0,0368872
2947,6616;0,0365315
2948,6260;0,0362113
2949,5901;0,035915
2950,5544;0,0356315
2951,5186;0,0353537
2952,4829;0,0350785
2953,4470;0,034805
2954,4114;0,0345313
2955,3755;0,0342534
2956,3398;0,0339656
2957,3040;0,033663
2958,2683;0,0333442
2959,2324;0,0330119
2960,1968;0,0326717
2961,1609;0,032329
2962,1252;0,0319854
2963,0894;0,0316382
2964,0537;0,0312815
2965,0178;0,0309105
2965,9822;0,0305258
2966,9463;0,0301335
2967,9106;0,0297433
2968,8748;0,0293628
2969,8391;0,0289941
2970,8032;0,028634
2971,7676;0,0282783
2972,7317;0,0279264
2973,6960;0,0275837
2974,6602;0,0272582
2975,6245;0,0269555
2976,5886;0,0266751
2977,5530;0,0264115
2978,5171;0,0261586
2979,4814;0,025914
2980,4456;0,0256809
2981,4099;0,0254654
2982,3740;0,0252727
2983,3384;0,0251045
2984,3025;0,0249588
2985,2668;0,0248315
2986,2310;0,0247175
2987,1953;0,0246125
2988,1594;0,024513
2989,1238;0,0244182
2990,0879;0,0243306
2991,0522;0,0242552
2992,0164;0,0241967
2992,9807;0,024156
2993,9448;0,0241293
2994,9092;0,0241108
2995,8733;0,0240975
2996,8376;0,0240922
2997,8018;0,024102
2998,7661;0,0241329
2999,7302;0,0241839
3000,6946;0,0242461
3001,6587;0,0243068
3002,6230;0,0243572
3003,5872;0,0243973
3004,5515;0,0244349
3005,5156;0,0244795
3006,4800;0,0245348
3007,4441;0,0245963
3008,4084;0,0246537
3009,3726;0,0246979
3010,3369;0,024726
3011,3010;0,0247426
3012,2654;0,024756
3013,2295;0,0247735
3014,1938;0,0247985
3015,1580;0,0248313
3016,1223;0,0248722
3017,0864;0,0249233
3018,0508;0,0249875
3019,0149;0,0250666
3019,9792;0,0251584
3020,9434;0,0252574
3021,9077;0,0253576
3022,8718;0,0254556
3023,8362;0,0255532
3024,8003;0,0256561
3025,7646;0,0257703
3026,7288;0,0258979
3027,6931;0,0260348
3028,6572;0,0261711
3029,6216;0,0262947
3030,5857;0,026397
3031,5500;0,026477
3032,5142;0,0265432
3033,4785;0,0266103
3034,4426;0,0266928
3035,4070;0,026799
3036,3711;0,0269281
3037,3354;0,0270715
3038,2996;0,027218
3039,2639;0,027359
3040,2280;0,0274925
3041,1924;0,0276234
3042,1565;0,0277603
3043,1208;0,0279108
3044,0850;0,028077
3045,0493;0,0282544
3046,0134;0,028433
3046,9778;0,0286027
3047,9419;0,0287584
3048,9063;0,0289029
3049,8704;0,0290449
3050,8347;0,0291943
3051,7988;0,0293556
3052,7632;0,029526
3053,7273;0,0296975
3054,6917;0,0298623
3055,6558;0,0300185
3056,6201;0,0301714
3057,5842;0,0303306
3058,5486;0,0305047
3059,5127;0,0306969
3060,4771;0,0309034
3061,4412;0,0311155
3062,4055;0,0313228
3063,3696;0,0315167
3064,3340;0,0316924
3065,2981;0,0318499
3066,2625;0,0319935
3067,2266;0,0321301
3068,1909;0,0322673
3069,1550;0,0324118
3070,1194;0,032569
3071,0835;0,0327417
3072,0479;0,0329303
3073,0120;0,0331319
3073,9763;0,0333407
3074,9404;0,0335493
3075,9048;0,0337514
3076,8689;0,0339431
3077,8333;0,0341235
3078,7974;0,0342925
3079,7617;0,0344498
3080,7258;0,0345951
3081,6902;0,0347302
3082,6543;0,034861
3083,6187;0,0349967
3084,5828;0,0351463
3085,5471;0,0353137
3086,5112;0,0354952
3087,4756;0,0356821
3088,4397;0,035866
3089,4041;0,0360434
3090,3682;0,0362175
3091,3325;0,0363947
3092,2966;0,0365803
3093,2610;0,0367755
3094,2251;0,0369777
3095,1895;0,0371829
3096,1536;0,0373877
3097,1179;0,0375891
3098,0820;0,0377844
3099,0464;0,0379708
3100,0105;0,0381478
3100,9749;0,0383183
3101,9390;0,0384893
3102,9033;0,0386678
3103,8674;0,0388575
3104,8318;0,0390566
3105,7959;0,0392599
3106,7603;0,0394632
3107,7244;0,039667
3108,6887;0,0398767
3109,6528;0,0400988
3110,6172;0,0403357
3111,5813;0,0405836
3112,5457;0,0408336
3113,5098;0,0410756
3114,4741;0,0413028
3115,4382;0,0415136
3116,4026;0,0417109
3117,3667;0,0418998
3118,3311;0,0420854
3119,2952;0,0422718
3120,2595;0,0424622
3121,2236;0,0426592
3122,1880;0,0428642
3123,1521;0,0430774
3124,1165;0,0432969
3125,0806;0,0435194
3126,0449;0,0437419
3127,0090;0,0439628
3127,9734;0,0441831
3128,9375;0,0444058
3129,9019;0,0446337
3130,8660;0,0448678
3131,8303;0,045106
3132,7944;0,0453441
3133,7588;0,0455786
3134,7229;0,0458088
3135,6873;0,0460369
3136,6514;0,0462658
3137,6157;0,0464971
3138,5798;0,0467293
3139,5442;0,0469594
3140,5083;0,0471856
3141,4727;0,04741
3142,4368;0,0476384
3143,4011;0,0478775
3144,3652;0,0481313
3145,3296;0,0483983
3146,2937;0,0486722
3147,2581;0,0489439
3148,2222;0,0492055
3149,1865;0,0494536
3150,1506;0,0496896
3151,1150;0,049919
3152,0791;0,050149
3153,0435;0,0503857
3154,0076;0,0506321
3154,9719;0,0508877
3155,9360;0,0511492
3156,9004;0,0514128
3157,8645;0,0516762
3158,8289;0,0519393
3159,7930;0,0522042
3160,7573;0,0524729
3161,7214;0,0527453
3162,6858;0,0530178
3163,6499;0,0532847
3164,6143;0,0535404
3165,5784;0,053783
3166,5427;0,0540158
3167,5068;0,0542468
3168,4712;0,0544857
3169,4353;0,0546579
3170,3997;0,0549299
3171,3638;0,0552172
3172,3281;0,0555129
3173,2922;0,0558088
3174,2566;0,056098
3175,2207;0,0563762
3176,1851;0,0566418
3177,1492;0,0568955
3178,1135;0,0571398
3179,0776;0,0573789
3180,0420;0,0576173
3181,0061;0,0578587
3181,9705;0,0581046
3182,9346;0,0583544
3183,8989;0,0586061
3184,8630;0,0588571
3185,8274;0,0591056
3186,7915;0,0593506
3187,7559;0,0595926
3188,7200;0,059834
3189,6843;0,0600793
3190,6484;0,0603335
3191,6128;0,0606
3192,5769;0,0608772
3193,5413;0,0611575
3194,5054;0,06143
3195,4697;0,0616855
3196,4338;0,0619207
3197,3982;0,0621409
3198,3623;0,0623567
3199,3267;0,0625788
3200,2908;0,0628138
3201,2551;0,0630629
3202,2192;0,063323
3203,1836;0,0635889
3204,1477;0,0638547
3205,1121;0,064114
3206,0762;0,0643615
3207,0405;0,0645948
3208,0046;0,0648169
3208,9690;0,0650352
3209,9331;0,0652588
3210,8975;0,0654933
3211,8616;0,065739
3212,8259;0,065991
3213,7900;0,0662432
3214,7544;0,0664913
3215,7185;0,066734
3216,6829;0,0669719
3217,6470;0,0672057
3218,6113;0,067436
3219,5754;0,0676637
3220,5398;0,0678906
3221,5039;0,0681189
3222,4683;0,0683498
3223,4324;0,0685832
3224,3967;0,0688185
3225,3608;0,0690555
3226,3252;0,069295
3227,2893;0,0695372
3228,2537;0,0697796
3229,2178;0,0700172
3230,1821;0,0702446
3231,1462;0,0704593
3232,1106;0,0706631
3233,0747;0,0708621
3234,0391;0,0710631
3235,0032;0,0712717
3235,9675;0,0714909
3236,9316;0,0717212
3237,8960;0,0719616
3238,8601;0,0722087
3239,8245;0,0724571
3240,7886;0,0727005
3241,7529;0,0729334
3242,7170;0,0731549
3243,6814;0,0733685
3244,6455;0,0735815
3245,6099;0,0738008
3246,5740;0,0740307
3247,5383;0,0742715
3248,5024;0,0745204
3249,4668;0,0747738
3250,4309;0,0750282
3251,3953;0,0752808
3252,3594;0,0755307
3253,3237;0,0757783
3254,2878;0,0760255
3255,2522;0,0762744
3256,2163;0,0765254
3257,1807;0,0767768
3258,1448;0,0770256
3259,1091;0,0772705
3260,0732;0,0775133
3261,0376;0,0777589
3262,0017;0,0780125
3262,9661;0,0782766
3263,9302;0,0785492
3264,8945;0,0788254
3265,8586;0,0790989
3266,8230;0,0793634
3267,7871;0,079614
3268,7515;0,0798459
3269,7156;0,0800549
3270,6799;0,0802386
3271,6440;0,0803976
3272,6084;0,0805357
3273,5725;0,0806592
3274,5369;0,0807749
3275,5010;0,0808881
3276,4653;0,0810019
3277,4294;0,081117
3278,3938;0,0812322
3279,3579;0,0813457
3280,3223;0,0814552
3281,2864;0,0815589
3282,2507;0,0816567
3283,2148;0,0817502
3284,1792;0,0818426
3285,1433;0,0819371
3286,1077;0,082035
3287,0718;0,082134
3288,0361;0,082228
3289,0002;0,0823093
3289,9646;0,082371
3290,9287;0,0824104
3291,8931;0,082431
3292,8572;0,0824403
3293,8215;0,0824473
3294,7856;0,0824584
3295,7500;0,0824765
3296,7141;0,0825008
3297,6785;0,0825289
3298,6426;0,0825585
3299,6069;0,0825882
3300,5710;0,0826172
3301,5354;0,0826457
3302,4995;0,0826745
3303,4639;0,0827043
3304,4280;0,0827351
3305,3923;0,0827641
3306,3564;0,0827866
3307,3208;0,0827971
3308,2849;0,0827934
3309,2493;0,0827783
3310,2134;0,0827603
3311,1777;0,0827508
3312,1418;0,08276
3313,1062;0,0827942
3314,0703;0,0828551
3315,0347;0,0829407
3315,9988;0,0830478
3316,9631;0,0831722
3317,9272;0,08331
3318,8916;0,0834567
3319,8557;0,083608
3320,8201;0,0837598
3321,7842;0,0839084
3322,7485;0,0840506
3323,7126;0,0841835
3324,6770;0,0843053
3325,6411;0,0844158
3326,6055;0,0845177
3327,5696;0,0846158
3328,5339;0,0847161
3329,4980;0,0848221
3330,4624;0,0849322
3331,4265;0,0850384
3332,3909;0,0851285
3333,3550;0,0851907
3334,3193;0,0852175
3335,2834;0,0852092
3336,2478;0,0851721
3337,2119;0,0851146
3338,1763;0,085042
3339,1404;0,0849549
3340,1047;0,0848505
3341,0688;0,0847266
3342,0332;0,0845849
3342,9973;0,0844311
3343,9617;0,0842719
3344,9258;0,0841113
3345,8901;0,0839492
3346,8542;0,0837821
3347,8186;0,0836063
3348,7827;0,0834194
3349,7471;0,0832205
3350,7112;0,0830088
3351,6755;0,0827836
3352,6396;0,0825458
3353,6040;0,0823007
3354,5681;0,082058
3355,5325;0,081829
3356,4966;0,081621
3357,4609;0,0814328
3358,4250;0,081255
3359,3894;0,0810754
3360,3535;0,0808857
3361,3179;0,0806857
3362,2820;0,0804811
3363,2463;0,0802775
3364,2104;0,0800746
3365,1748;0,0798647
3366,1389;0,0796371
3367,1033;0,0793852
3368,0674;0,0791114
3369,0317;0,0788266
3369,9958;0,0785443
3370,9602;0,0782749
3371,9243;0,0780211
3372,8887;0,0777794
3373,8528;0,0775435
3374,8171;0,0773089
3375,7813;0,0770753
3376,7456;0,0768457
3377,7097;0,0766239
3378,6741;0,0764106
3379,6382;0,0762026
3380,6025;0,075993
3381,5667;0,0757755
3382,5310;0,0755474
3383,4951;0,0753133
3384,4595;0,0750831
3385,4236;0,0748685
3386,3879;0,0746761
3387,3521;0,0745027
3388,3164;0,074336
3389,2805;0,0741594
3390,2449;0,0739597
3391,2090;0,0737336
3392,1733;0,0734893
3393,1375;0,0732419
3394,1018;0,0730048
3395,0659;0,0727827
3396,0303;0,0725697
3396,9944;0,0723534
3397,9587;0,0721218
3398,9229;0,0718686
3399,8872;0,0715954
3400,8513;0,0713099
3401,8157;0,0710222
3402,7798;0,0707412
3403,7441;0,0704727
3404,7083;0,0702179
3405,6726;0,0699742
3406,6367;0,0697352
3407,6011;0,0694929
3408,5652;0,0692391
3409,5295;0,0689683
3410,4937;0,0686795
3411,4580;0,0683773
3412,4221;0,0680713
3413,3865;0,0677724
3414,3506;0,0674882
3415,3149;0,0672187
3416,2791;0,0669554
3417,2434;0,0666837
3418,2075;0,0663893
3419,1719;0,0660648
3420,1360;0,0657144
3421,1003;0,0653524
3422,0645;0,064997
3423,0288;0,0646605
3423,9929;0,0643448
3424,9573;0,0640426
3425,9214;0,0637428
3426,8857;0,0634364
3427,8499;0,0631206
3428,8142;0,0627976
3429,7783;0,0624718
3430,7427;0,0621463
3431,7068;0,0618212
3432,6711;0,0614949
3433,6353;0,0611671
3434,5996;0,0608398
3435,5637;0,0605169
3436,5281;0,0602009
3437,4922;0,0598921
3438,4565;0,0595895
3439,4207;0,0592934
3440,3850;0,0590056
3441,3491;0,0587264
3442,3135;0,0584493
3443,2776;0,0581597
3444,2419;0,0578385
3445,2061;0,057473
3446,1704;0,057067
3447,1345;0,0566428
3448,0989;0,0562318
3449,0630;0,0558574
3450,0273;0,0555237
3450,9915;0,0552179
3451,9558;0,0549213
3452,9199;0,0546202
3453,8843;0,0543103
3454,8484;0,0539945
3455,8127;0,0536778
3456,7769;0,0533629
3457,7412;0,0530499
3458,7053;0,0527378
3459,6697;0,0524265
3460,6338;0,0521165
3461,5981;0,0518076
3462,5623;0,0514968
3463,5266;0,0511789
3464,4907;0,0508477
3465,4551;0,0505
3466,4192;0,050138
3467,3835;0,0497707
3468,3477;0,0494108
3469,3120;0,0490686
3470,2761;0,0487458
3471,2405;0,0484342
3472,2046;0,0481215
3473,1689;0,0478001
3474,1331;0,0474752
3475,0974;0,0471628
3476,0615;0,0468794
3477,0259;0,0466285
3477,9900;0,0463947
3478,9543;0,0461498
3479,9185;0,0458673
3480,8828;0,0455381
3481,8469;0,0451755
3482,8113;0,0448063
3483,7754;0,0444515
3484,7397;0,044114
3485,7039;0,0437807
3486,6682;0,0434359
3487,6323;0,0430758
3488,5967;0,0427131
3489,5608;0,0423693
3490,5251;0,0420596
3491,4893;0,0417822
3492,4536;0,0415195
3493,4177;0,0412512
3494,3821;0,040968
3495,3462;0,0406811
3496,3105;0,0404147
3497,2747;0,0401884
3498,2390;0,0399987
3499,2031;0,0398149
3500,1675;0,0395918
3501,1316;0,0392933
3502,0959;0,0389155
3503,0601;0,0384958
3504,0244;0,0380919
3504,9885;0,0377446
3505,9529;0,0374541
3506,9170;0,0371868
3507,8813;0,0369012
3508,8455;0,036572
3509,8098;0,0362028
3510,7739;0,0358201
3511,7383;0,0354535
3512,7024;0,035118
3513,6667;0,0348119
3514,6309;0,0345278
3515,5952;0,0342636
3516,5593;0,0340249
3517,5237;0,033818
3518,4878;0,0336409
3519,4521;0,0334799
3520,4163;0,0333136
3521,3806;0,0331223
3522,3447;0,0328952
3523,3091;0,0326321
3524,2732;0,0323379
3525,2375;0,0320149
3526,2017;0,0316601
3527,1660;0,0312732
3528,1301;0,0308657
3529,0945;0,030463
3530,0586;0,0300937
3531,0229;0,0297723
3531,9871;0,0294911
3532,9514;0,0292264
3533,9155;0,0289519
3534,8799;0,0286535
3535,8440;0,0283371
3536,8083;0,0280291
3537,7725;0,0277641
3538,7368;0,027568
3539,7009;0,0274441
3540,6653;0,0273701
3541,6294;0,0273023
3542,5938;0,0271847
3543,5579;0,0269647
3544,5222;0,02662
3545,4863;0,0261819
3546,4507;0,0257263
3547,4148;0,0253244
3548,3792;0,0249977
3549,3433;0,0247143
3550,3076;0,0244202
3551,2717;0,0240768
3552,2361;0,0236864
3553,2002;0,0232914
3554,1646;0,0229452
3555,1287;0,0226764
3556,0930;0,022477
3557,0571;0,0223201
3558,0215;0,0221859
3558,9856;0,0220767
3559,9500;0,0220107
3560,9141;0,0219996
3561,8784;0,0220256
3562,8425;0,0220329
3563,8069;0,0219335
3564,7710;0,0216244
3565,7354;0,0210375
3566,6995;0,0202293
3567,6638;0,0194073
3568,6279;0,0187854
3569,5923;0,0184225
3570,5564;0,0182341
3571,5208;0,018101
3572,4849;0,0179448
3573,4492;0,0177451
3574,4133;0,0175198
3575,3777;0,017296
3576,3418;0,0170879
3577,3062;0,0168956
3578,2703;0,0167192
3579,2346;0,0165727
3580,1987;0,0164788
3581,1631;0,0164482
3582,1272;0,0164592
3583,0916;0,0164573
3584,0557;0,0163693
3585,0200;0,0161253
3585,9841;0,0156961
3586,9485;0,0151499
3587,9126;0,0146613
3588,8770;0,0143921
3589,8411;0,014361
3590,8054;0,0144571
3591,7695;0,0145393
3592,7339;0,0145103
3593,6980;0,0143445
3594,6624;0,0140859
3595,6265;0,0138114
3596,5908;0,0135712
3597,5549;0,0133543
3598,5193;0,0131114
3599,4834;0,0128087
3600,4478;0,0124663
3601,4119;0,012146
3602,3762;0,0118985
3603,3403;0,0117212
3604,3047;0,0115601
3605,2688;0,011343
3606,2332;0,0110144
3607,1973;0,0105671
3608,1616;0,0100576
3609,1257;0,00958279
3610,0901;0,0092241
3611,0542;0,00900969
3612,0186;0,00891814
3612,9827;0,00890142
3613,9470;0,00890251
3614,9111;0,00886473
3615,8755;0,00873958
3616,8396;0,00849986
3617,8040;0,00816037
3618,7681;0,00779922
3619,7324;0,00754639
3620,6965;0,00750853
3621,6609;0,0076845
3622,6250;0,00796409
3623,5894;0,00819836
3624,5535;0,00826427
3625,5178;0,00808775
3626,4819;0,00763719
3627,4463;0,00692936
3628,4104;0,00609043
3629,3748;0,00537085
3630,3389;0,00495362
3631,3032;0,00478802
3632,2673;0,00468895
3633,2317;0,00450804
3634,1958;0,00420382
3635,1602;0,00382317
3636,1243;0,00344402
3637,0886;0,00312074
3638,0527;0,00286506
3639,0171;0,00266633
3639,9812;0,00252176
3640,9456;0,00244517
3641,9097;0,00244897
3642,8740;0,00252125
3643,8381;0,00262256
3644,8025;0,00270161
3645,7666;0,00270211
3646,7310;0,0025325
3647,6951;0,00204253
3648,6594;0,00117991
3649,6235;0,000237162
3650,5879;-0,000385784
3651,5520;-0,000621054
3652,5164;-0,000675111
3653,4805;-0,000763276
3654,4448;-0,000983399
3655,4089;-0,0013074
3656,3733;-0,00162664
3657,3374;-0,00183442
3658,3018;-0,0019047
3659,2659;-0,00189683
3660,2302;-0,00188731
3661,1943;-0,00190409
3662,1587;-0,00191648
3663,1228;-0,00187699
3664,0872;-0,00177335
3665,0513;-0,00164083
3666,0156;-0,00153287
3666,9797;-0,00148369
3667,9441;-0,00149799
3668,9082;-0,00156049
3669,8726;-0,0016398
3670,8367;-0,00170708
3671,8010;-0,00177603
3672,7651;-0,0019002
3673,7295;-0,00212561
3674,6936;-0,00244915
3675,6580;-0,00279065
3676,6221;-0,00301539
3677,5864;-0,00304873
3678,5505;-0,00294084
3679,5149;-0,00278865
3680,4790;-0,0026439
3681,4434;-0,00250029
3682,4075;-0,00233628
3683,3718;-0,00215761
3684,3359;-0,00200136
3685,3003;-0,00190431
3686,2644;-0,0018707
3687,2288;-0,00187419
3688,1929;-0,0018932
3689,1572;-0,00192284
3690,1213;-0,00193836
3691,0857;-0,00190017
3692,0498;-0,00180494
3693,0142;-0,00168408
3693,9783;-0,00156608
3694,9426;-0,00146194
3695,9067;-0,00137595
3696,8711;-0,00131759
3697,8352;-0,00130046
3698,7996;-0,00133087
3699,7637;-0,00139711
3700,7280;-0,00146686
3701,6921;-0,00149475
3702,6565;-0,0014417
3703,6206;-0,00129965
3704,5850;-0,00110058
3705,5491;-0,000899827
3706,5134;-0,000753143
3707,4775;-0,000712419
3708,4419;-0,000844241
3709,4060;-0,00123675
3710,3704;-0,00192267
3711,3345;-0,00274326
3712,2988;-0,00339064
3713,2629;-0,00366075
3714,2273;-0,00357243
3715,1914;-0,00326417
3716,1558;-0,00286824
3717,1199;-0,00246022
3718,0842;-0,00206443
3719,0483;-0,00168031
3720,0127;-0,00130796
3720,9768;-0,000961373
3721,9412;-0,000667274
3722,9053;-0,000453578
3723,8696;-0,000333789
3724,8337;-0,000294601
3725,7981;-0,000299279
3726,7622;-0,000311238
3727,7266;-0,000317628
3728,6907;-0,00032858
3729,6550;-0,000357309
3730,6191;-0,000406761
3731,5835;-0,000481344
3732,5476;-0,000619189
3733,5120;-0,000901755
3734,4761;-0,00137115
3735,4404;-0,00190389
3736,4045;-0,00226508
3737,3689;-0,00233935
3738,3330;-0,00222478
3739,2974;-0,00212557
3740,2615;-0,00221803
3741,2258;-0,00257597
3742,1899;-0,00313953
3743,1543;-0,0037181
3744,1184;-0,00406261
3745,0828;-0,00402828
3746,0469;-0,00369903
3747,0112;-0,00331712
3747,9753;-0,00311815
3748,9397;-0,00323781
3749,9038;-0,00367163
3750,8682;-0,00422501
3751,8323;-0,00458389
3752,7966;-0,00458387
3753,7607;-0,00432865
3754,7251;-0,00403073
3755,6892;-0,00384833
3756,6536;-0,00383927
3757,6177;-0,00397515
3758,5820;-0,00416769
3759,5461;-0,00431096
3760,5105;-0,00434054
3761,4746;-0,0042648
3762,4390;-0,00414104
3763,4031;-0,00403188
3764,3674;-0,00397945
3765,3315;-0,0040006
3766,2959;-0,00409174
3767,2600;-0,00423594
3768,2244;-0,00440858
3769,1885;-0,00457827
3770,1528;-0,00470585
3771,1169;-0,00475426
3772,0813;-0,00470989
3773,0454;-0,00459572
3774,0098;-0,00445982
3774,9739;-0,00435025
3775,9382;-0,00429658
3776,9023;-0,00430563
3777,8667;-0,00436331
3778,8308;-0,004434
3779,7952;-0,00447034
3780,7593;-0,00444242
3781,7236;-0,00436094
3782,6877;-0,00427024
3783,6521;-0,00422268
3784,6162;-0,00425271
3785,5806;-0,00435903
3786,5447;-0,00450377
3787,5090;-0,00463168
3788,4731;-0,0046989
3789,4375;-0,00469133
3790,4016;-0,00462229
3791,3660;-0,00451407
3792,3301;-0,00437774
3793,2944;-0,00420606
3794,2585;-0,00398611
3795,2229;-0,00372363
3796,1870;-0,00345815
3797,1514;-0,00325368
3798,1155;-0,00317131
3799,0798;-0,00324219
3800,0439;-0,00345001
3801,0083;-0,00372619
3801,9724;-0,00398043
3802,9368;-0,00417059
3803,9009;-0,00433655
3804,8652;-0,00454709
3805,8293;-0,00481472
3806,7937;-0,00505587
3807,7578;-0,00513734
3808,7222;-0,00498923
3809,6863;-0,00467415
3810,6506;-0,00433645
3811,6147;-0,00409769
3812,5791;-0,00399112
3813,5432;-0,00395939
3814,5076;-0,00390356
3815,4717;-0,00375719
3816,4360;-0,00353965
3817,4001;-0,00335019
3818,3645;-0,00331132
3819,3286;-0,00349756
3820,2930;-0,00387151
3821,2571;-0,00427104
3822,2214;-0,00451094
3823,1855;-0,00452621
3824,1499;-0,00439242
3825,1140;-0,00423136
3826,0784;-0,00412512
3827,0425;-0,00408902
3828,0068;-0,00408785
3828,9709;-0,00407028
3829,9353;-0,0040012
3830,8994;-0,00387705
3831,8638;-0,00372212
3832,8279;-0,00357318
3833,7922;-0,00346306
3834,7563;-0,00341121
3835,7207;-0,00342534
3836,6848;-0,00350895
3837,6492;-0,00366065
3838,6133;-0,00386041
3839,5776;-0,00406994
3840,5417;-0,00425864
3841,5061;-0,00441734
3842,4702;-0,00453709
3843,4346;-0,00458448
3844,3987;-0,00450917
3845,3630;-0,00428273
3846,3271;-0,00393513
3847,2915;-0,0035562
3848,2556;-0,00326373
3849,2200;-0,00316489
3850,1841;-0,00333462
3851,1484;-0,00381402
3852,1125;-0,00458228
3853,0769;-0,00542482
3854,0410;-0,00591688
3855,0054;-0,00582592
3855,9695;-0,00533248
3856,9338;-0,00475526
3857,8979;-0,00430429
3858,8623;-0,00404136
3859,8264;-0,00392755
3860,7908;-0,0038836
3861,7549;-0,00384453
3862,7192;-0,00379095
3863,6833;-0,00373888
3864,6477;-0,00370833
3865,6118;-0,00370965
3866,5762;-0,00374684
3867,5403;-0,00381898
3868,5046;-0,00392082
3869,4688;-0,00404666
3870,4331;-0,00418909
3871,3972;-0,00433074
3872,3616;-0,00444408
3873,3257;-0,00450649
3874,2900;-0,00451429
3875,2542;-0,00448143
3876,2185;-0,00442579
3877,1826;-0,00435654
3878,1470;-0,00427274
3879,1111;-0,00417613
3880,0754;-0,00408629
3881,0396;-0,00404082
3882,0039;-0,00407759
3882,9680;-0,00421051
3883,9324;-0,00441102
3884,8965;-0,00460916
3885,8608;-0,00472788
3886,8250;-0,00473527
3887,7893;-0,00466635
3888,7534;-0,00459133
3889,7178;-0,00456229
3890,6819;-0,00457839
3891,6462;-0,00458541
3892,6104;-0,00451526
3893,5747;-0,00434667
3894,5388;-0,00412691
3895,5032;-0,00393044
3896,4673;-0,00380619
3897,4316;-0,00376017
3898,3958;-0,00377396
3899,3601;-0,00383255
3900,3242;-0,00393822
3901,2886;-0,00410341
3902,2527;-0,00433145
3903,2170;-0,00459568
3904,1812;-0,00483702
3905,1455;-0,00499612
3906,1096;-0,00505351
3907,0740;-0,00503446
3908,0381;-0,00497921
3909,0024;-0,00491359
3909,9666;-0,00484138
3910,9309;-0,00475528
3911,8950;-0,00465321
3912,8594;-0,00454719
3913,8235;-0,00446035
3914,7878;-0,00441629
3915,7520;-0,00442598
3916,7163;-0,0044764
3917,6804;-0,0045288
3918,6448;-0,00453862
3919,6089;-0,00448723
3920,5732;-0,00439628
3921,5374;-0,00431132
3922,5017;-0,00427251
3923,4658;-0,00429106
3924,4302;-0,00434181
3925,3943;-0,00437954
3926,3586;-0,004372
3927,3228;-0,00432266
3928,2871;-0,00426598
3929,2512;-0,00424583
3930,2156;-0,00429301
3931,1797;-0,00440753
3932,1440;-0,00455344
3933,1082;-0,00467753
3934,0725;-0,00474209
3935,0366;-0,00474212
3936,0010;-0,00469687
3936,9651;-0,00463175
3937,9294;-0,00456674
3938,8936;-0,00451385
3939,8579;-0,00447901
3940,8220;-0,00446315
3941,7864;-0,00446049
3942,7505;-0,00445835
3943,7148;-0,0044432
3944,6790;-0,00441186
3945,6433;-0,00437628
3946,6074;-0,00435767
3947,5718;-0,00437428
3948,5359;-0,00443003
3949,5002;-0,00451009
3950,4644;-0,00458886
3951,4287;-0,00464651
3952,3928;-0,00467974
3953,3572;-0,0046985
3954,3213;-0,00471461
3955,2856;-0,00473262
3956,2498;-0,00474844
3957,2141;-0,00475473
3958,1782;-0,00474853
3959,1426;-0,00473529
3960,1067;-0,00472663
3961,0710;-0,00473312
3962,0352;-0,00475691
3962,9995;-0,00478952
3963,9636;-0,0048169
3964,9280;-0,0048273
3965,8921;-0,00481738
3966,8564;-0,00479252
3967,8206;-0,00476286
3968,7849;-0,00473753
3969,7490;-0,00472076
3970,7134;-0,00471178
3971,6775;-0,00470826
3972,6418;-0,00470997
3973,6060;-0,00471952
3974,5703;-0,00473965
3975,5344;-0,00476923
3976,4988;-0,00480184
3977,4629;-0,00482827
3978,4272;-0,00484165
3979,3914;-0,00484152
3980,3557;-0,00483432
3981,3198;-0,00482973
3982,2842;-0,00483479
3983,2483;-0,00484953
3984,2126;-0,00486721
3985,1768;-0,00487877
3986,1411;-0,00487837
3987,1052;-0,00486613
3988,0696;-0,00484706
3989,0337;-0,00482708
3989,9980;-0,00481037
3990,9622;-0,00479872
3991,9265;-0,00479349
3992,8906;-0,00479716
3993,8550;-0,00481252
3994,8191;-0,00483983
3995,7834;-0,00487451
3996,7476;-0,00490801
3997,7119;-0,00493164
3998,6760;-0,00494066
3999,6404;-0,00493582
4000,6045;-0,00471781

##### Extended Information
[Comments]
Sample name
Comment
Username
Division
Organization;UNIVERSIDAD INDUSTRIAL DE SANTANDER

[Detailed Information]
Creation date;5/02/2025 11:26 a.m.

Data array type;Linear data array
Horizontal axis;Wavenumber [cm-1]
Vertical axis;Abs
Start;399,193 cm-1
End;4000,6 cm-1
Data interval;0,964233 cm-1
Data points;3736    

[Measurement Information]
Model name;FT/IR-4X1typeA
Serial No.;A035162111

Accessory;ATR PRO 4X
Accessory S/N;A021162126
Incident angle;45 deg

Measurement date;5/02/2025 11:26 a.m.

Light source;Standard
Detector;TGS
Accumulation;Auto (78)
Resolution;4 cm-1
Zero filling;On
Apodization;Cosine
Gain;Auto (8)
Aperture;Auto (7 mm)
Scan speed;Auto (2 mm/sec)
Filter;Auto (12800 Hz)

