TITLE;
DATA TYPE;INFRARED SPECTRUM
ORIGIN;JASCO
OWNER;
DATE;25/02/05
TIME;11:21:24
SPECTROMETER/DATA SYSTEM;
LOCALE;9226
RESOLUTION;
DELTAX;0,964233
XUNITS;1/CM
YUNITS;ABSORBANCE
FIRSTX;  399,1927
LASTX; 4000,6047
NPOINTS;    3736
FIRSTY;     0,21790
MAXY;     0,33042
MINY;    -0,00464
XYDATA
399,1927;0,217903
400,1569;0,217387
401,1211;0,217636
402,0854;0,218297
403,0496;0,218948
404,0138;0,219297
404,9781;0,219287
405,9423;0,219122
406,9065;0,21914
407,8708;0,21959
408,8350;0,220452
409,7992;0,221453
410,7635;0,222248
411,7277;0,222661
412,6919;0,222794
413,6562;0,222928
414,6204;0,223329
415,5846;0,224135
416,5489;0,225339
417,5131;0,226784
418,4773;0,228189
419,4416;0,229301
420,4058;0,230108
421,3700;0,230778
422,3343;0,231438
423,2985;0,232087
424,2627;0,232651
425,2270;0,233042
426,1912;0,233228
427,1554;0,233269
428,1197;0,233306
429,0839;0,233504
430,0481;0,233978
431,0124;0,234713
431,9766;0,235534
432,9408;0,236162
433,9051;0,236353
434,8693;0,236059
435,8335;0,235495
436,7978;0,235029
437,7620;0,234946
438,7262;0,235276
439,6905;0,235784
440,6547;0,236131
441,6189;0,23607
442,5832;0,235595
443,5474;0,23493
444,5116;0,234337
445,4759;0,233915
446,4401;0,233549
447,4043;0,233053
448,3686;0,232337
449,3328;0,231483
450,2970;0,230692
451,2613;0,230164
452,2255;0,22999
453,1897;0,230125
454,1540;0,230453
455,1182;0,230847
456,0824;0,231189
457,0467;0,231356
458,0109;0,231244
458,9751;0,23084
459,9394;0,230257
460,9036;0,229675
461,8678;0,229225
462,8321;0,228935
463,7963;0,228742
464,7605;0,228559
465,7248;0,228351
466,6890;0,228177
467,6532;0,228137
468,6175;0,228281
469,5817;0,228536
470,5459;0,228721
471,5102;0,22865
472,4744;0,228271
473,4386;0,227733
474,4029;0,227285
475,3671;0,22711
476,3313;0,22723
477,2956;0,227541
478,2598;0,227892
479,2240;0,228164
480,1883;0,228327
481,1525;0,228436
482,1167;0,228599
483,0810;0,228911
484,0452;0,229395
485,0094;0,229983
485,9737;0,230568
486,9379;0,231076
487,9021;0,23151
488,8664;0,231926
489,8306;0,232375
490,7948;0,232857
491,7591;0,233305
492,7233;0,233638
493,6875;0,233823
494,6518;0,233903
495,6160;0,233966
496,5802;0,23409
497,5445;0,234304
498,5087;0,234595
499,4729;0,234938
500,4372;0,235318
501,4014;0,235722
502,3656;0,236122
503,3299;0,23647
504,2941;0,236719
505,2583;0,236869
506,2226;0,236987
507,1868;0,237185
508,1510;0,23757
509,1153;0,238181
510,0795;0,23896
511,0437;0,239786
512,0080;0,240543
512,9722;0,241178
513,9365;0,241729
514,9007;0,242292
515,8649;0,242971
516,8292;0,2438
517,7934;0,244709
518,7576;0,245547
519,7219;0,246176
520,6861;0,246548
521,6503;0,246703
522,6146;0,246723
523,5788;0,246676
524,5430;0,246605
525,5073;0,246531
526,4715;0,246479
527,4357;0,24647
528,4000;0,246505
529,3642;0,246547
530,3284;0,246527
531,2927;0,246374
532,2569;0,246055
533,2211;0,245605
534,1854;0,245117
535,1496;0,2447
536,1138;0,244428
537,0781;0,244309
538,0423;0,244292
539,0065;0,244309
539,9708;0,244306
540,9350;0,244274
541,8992;0,24424
542,8635;0,244251
543,8277;0,244346
544,7919;0,244539
545,7562;0,244822
546,7204;0,245169
547,6846;0,245556
548,6489;0,245967
549,6131;0,24639
550,5773;0,246817
551,5416;0,247251
552,5058;0,247706
553,4700;0,24821
554,4343;0,248778
555,3985;0,249381
556,3627;0,249921
557,3270;0,250241
558,2912;0,250171
559,2554;0,249604
560,2197;0,248546
561,1839;0,247129
562,1481;0,24556
563,1124;0,244048
564,0766;0,242732
565,0408;0,24165
566,0051;0,240757
566,9693;0,239974
567,9335;0,239241
568,8978;0,238548
569,8620;0,23793
570,8262;0,237432
571,7905;0,237081
572,7547;0,236874
573,7189;0,236784
574,6832;0,236781
575,6474;0,236835
576,6116;0,236916
577,5759;0,23698
578,5401;0,236975
579,5043;0,236851
580,4686;0,236591
581,4328;0,236232
582,3970;0,235859
583,3613;0,235567
584,3255;0,235415
585,2897;0,235394
586,2540;0,235436
587,2182;0,235457
588,1824;0,235402
589,1467;0,235267
590,1109;0,235087
591,0751;0,234897
592,0394;0,23471
593,0036;0,234497
593,9678;0,234213
594,9321;0,233822
595,8963;0,233318
596,8605;0,232724
597,8248;0,232076
598,7890;0,231416
599,7532;0,230772
600,7175;0,230165
601,6817;0,2296
602,6459;0,229075
603,6102;0,228583
604,5744;0,22811
605,5386;0,227636
606,5029;0,227132
607,4671;0,226562
608,4313;0,225894
609,3956;0,225113
610,3598;0,224237
611,3240;0,223323
612,2883;0,222449
613,2525;0,221677
614,2167;0,221013
615,1810;0,22039
616,1452;0,219683
617,1094;0,218761
618,0737;0,217557
619,0379;0,216098
620,0021;0,214487
620,9664;0,212839
621,9306;0,211241
622,8948;0,209745
623,8591;0,208381
624,8233;0,20716
625,7875;0,206116
626,7518;0,205233
627,7160;0,204462
628,6802;0,203736
629,6445;0,202998
630,6087;0,20223
631,5729;0,20145
632,5372;0,200695
633,5014;0,199994
634,4656;0,199353
635,4299;0,198762
636,3941;0,198208
637,3583;0,197686
638,3226;0,197197
639,2868;0,196738
640,2510;0,196295
641,2153;0,195849
642,1795;0,195393
643,1437;0,19494
644,1080;0,194523
645,0722;0,194174
646,0364;0,193901
647,0007;0,193685
647,9649;0,193475
648,9291;0,193221
649,8934;0,192903
650,8576;0,192543
651,8218;0,1922
652,7861;0,191941
653,7503;0,19181
654,7145;0,191814
655,6788;0,191927
656,6430;0,192103
657,6072;0,192293
658,5715;0,192447
659,5357;0,192499
660,4999;0,192378
661,4642;0,192041
662,4284;0,191511
663,3926;0,19087
664,3569;0,190233
665,3211;0,189744
666,2853;0,189538
667,2496;0,189538
668,2138;0,189227
669,1780;0,188068
670,1423;0,186244
671,1065;0,184253
672,0707;0,182287
673,0350;0,180313
673,9992;0,178288
674,9634;0,176247
675,9277;0,174269
676,8919;0,172415
677,8561;0,170685
678,8204;0,169037
679,7846;0,167435
680,7488;0,165881
681,7131;0,164407
682,6773;0,163051
683,6415;0,161834
684,6058;0,160761
685,5700;0,159833
686,5342;0,159041
687,4985;0,158357
688,4627;0,15774
689,4269;0,157133
690,3912;0,1565
691,3554;0,155829
692,3196;0,15514
693,2839;0,154464
694,2481;0,15383
695,2123;0,15325
696,1766;0,152718
697,1408;0,152206
698,1050;0,151682
699,0693;0,151115
700,0335;0,150493
700,9977;0,149821
701,9620;0,149117
702,9262;0,148404
703,8904;0,147689
704,8547;0,146977
705,8189;0,146266
706,7831;0,145553
707,7474;0,144843
708,7116;0,144142
709,6758;0,143454
710,6401;0,142769
711,6043;0,142068
712,5685;0,141334
713,5328;0,140571
714,4970;0,139813
715,4612;0,138867
716,4255;0,138307
717,3897;0,137842
718,3539;0,13738
719,3182;0,136787
720,2824;0,135951
721,2466;0,13485
722,2109;0,133561
723,1751;0,132216
724,1393;0,130934
725,1036;0,129778
726,0678;0,128758
727,0320;0,127845
727,9963;0,126999
728,9605;0,126177
729,9247;0,125345
730,8890;0,124479
731,8532;0,123569
732,8174;0,122627
733,7817;0,12168
734,7459;0,120762
735,7101;0,119904
736,6744;0,119124
737,6386;0,118427
738,6028;0,117805
739,5671;0,117241
740,5313;0,116707
741,4955;0,116169
742,4598;0,115599
743,4240;0,114979
744,3882;0,114313
745,3525;0,113618
746,3167;0,112917
747,2809;0,112224
748,2452;0,111542
749,2094;0,110864
750,1736;0,110182
751,1379;0,109491
752,1021;0,108792
753,0663;0,108094
754,0306;0,107406
754,9948;0,106738
755,9590;0,106101
756,9233;0,1055
757,8875;0,104937
758,8517;0,104402
759,8160;0,103884
760,7802;0,103369
761,7444;0,102854
762,7087;0,102344
763,6729;0,10185
764,6371;0,101384
765,6014;0,100946
766,5656;0,10053
767,5298;0,100116
768,4941;0,0996878
769,4583;0,0992318
770,4225;0,0987489
771,3868;0,0982527
772,3510;0,0977653
773,3152;0,0973084
774,2795;0,0968949
775,2437;0,0965238
776,2079;0,0961819
777,1722;0,0958502
778,1364;0,0955104
779,1006;0,095149
780,0649;0,0947577
781,0291;0,0943321
781,9933;0,0938722
782,9576;0,0933847
783,9218;0,092884
784,8860;0,0923907
785,8503;0,091926
786,8145;0,0915057
787,7787;0,0911371
788,7430;0,0908195
789,7072;0,0905474
790,6714;0,0903132
791,6357;0,0901078
792,5999;0,0899206
793,5641;0,0897406
794,5284;0,0895576
795,4926;0,0893647
796,4568;0,089159
797,4211;0,0889414
798,3853;0,0887162
799,3495;0,0884907
800,3138;0,0882754
801,2780;0,0880811
802,2422;0,0879152
803,2065;0,0877764
804,1707;0,0876523
805,1349;0,0875232
806,0992;0,0873701
807,0634;0,0871838
808,0276;0,0869684
808,9919;0,0867378
809,9561;0,0865064
810,9203;0,0862819
811,8846;0,0860628
812,8488;0,0858437
813,8130;0,0856224
814,7773;0,0854035
815,7415;0,0851957
816,7057;0,0850053
817,6700;0,084831
818,6342;0,0846647
819,5984;0,0844972
820,5627;0,0843259
821,5269;0,0841574
822,4911;0,084005
823,4554;0,0838819
824,4196;0,0837943
825,3839;0,0837379
826,3481;0,0836994
827,3123;0,0836602
828,2766;0,0836023
829,2408;0,0835123
830,2050;0,0833841
831,1693;0,083218
832,1335;0,0830178
833,0977;0,0827872
834,0620;0,0825277
835,0262;0,0822389
835,9904;0,0819214
836,9547;0,0815805
837,9189;0,0812275
838,8831;0,0808783
839,8474;0,080548
840,8116;0,0802468
841,7758;0,0799773
842,7401;0,0797357
843,7043;0,0795165
844,6685;0,0793172
845,6328;0,0791394
846,5970;0,0789877
847,5612;0,0788646
848,5255;0,0787667
849,4897;0,0786846
850,4539;0,0786066
851,4182;0,0785247
852,3824;0,0784375
853,3466;0,0783498
854,3109;0,0782674
855,2751;0,0781922
856,2393;0,0781214
857,2036;0,0780506
858,1678;0,077979
859,1320;0,0779121
860,0963;0,0778606
861,0605;0,0778344
862,0247;0,0778389
862,9890;0,0778731
863,9532;0,0779337
864,9174;0,0780196
865,8817;0,078136
866,8459;0,0782933
867,8101;0,0785024
868,7744;0,0787683
869,7386;0,0790847
870,7028;0,0794313
871,6671;0,0797758
872,6313;0,0800808
873,5955;0,0803135
874,5598;0,080455
875,5240;0,0805065
876,4882;0,0804884
877,4525;0,0804343
878,4167;0,0803817
879,3809;0,0803654
880,3452;0,0804148
881,3094;0,0805544
882,2736;0,0808064
883,2379;0,0811895
884,2021;0,0817172
885,1663;0,0823943
886,1306;0,083216
887,0948;0,0841685
888,0590;0,0852314
889,0233;0,0863787
889,9875;0,0875788
890,9517;0,0887948
891,9160;0,0899854
892,8802;0,0911082
893,8444;0,0921224
894,8087;0,0929911
895,7729;0,0936807
896,7371;0,09416
897,7014;0,0944013
898,6656;0,094385
899,6298;0,0941067
900,5941;0,0935836
901,5583;0,0928563
902,5225;0,0919846
903,4868;0,0910385
904,4510;0,0900875
905,4152;0,0891923
906,3795;0,0883992
907,3437;0,0877376
908,3079;0,0872192
909,2722;0,0868387
910,2364;0,0865781
911,2007;0,0864144
912,1649;0,0863285
913,1292;0,0863128
914,0934;0,0863712
915,0576;0,086513
916,0219;0,0867426
916,9861;0,0870523
917,9503;0,0874218
918,9146;0,087825
919,8788;0,0882388
920,8430;0,088649
921,8073;0,0890496
922,7715;0,0894371
923,7357;0,0898063
924,7000;0,0901485
925,6642;0,0904553
926,6284;0,0907229
927,5927;0,090955
928,5569;0,0911613
929,5211;0,091354
930,4854;0,0915445
931,4496;0,0917425
932,4138;0,0919573
933,3781;0,0921998
934,3423;0,0924823
935,3065;0,0928164
936,2708;0,0932093
937,2350;0,0936623
938,1992;0,0941723
939,1635;0,0947374
940,1277;0,0953615
941,0919;0,0960559
942,0562;0,0968366
943,0204;0,0977175
943,9846;0,0987065
944,9489;0,0998038
945,9131;0,101005
946,8773;0,102305
947,8416;0,103699
948,8058;0,105186
949,7700;0,106763
950,7343;0,108433
951,6985;0,110201
952,6627;0,112076
953,6270;0,114068
954,5912;0,11618
955,5554;0,118404
956,5197;0,120721
957,4839;0,12311
958,4481;0,12555
959,4124;0,128031
960,3766;0,130553
961,3408;0,133116
962,3051;0,135719
963,2693;0,138357
964,2335;0,141024
965,1978;0,143719
966,1620;0,146449
967,1262;0,149231
968,0905;0,152091
969,0547;0,15506
970,0189;0,158176
970,9832;0,161479
971,9474;0,165011
972,9116;0,168814
973,8759;0,172922
974,8401;0,17736
975,8043;0,18214
976,7686;0,187259
977,7328;0,19269
978,6970;0,198373
979,6613;0,204205
980,6255;0,210038
981,5897;0,215695
982,5540;0,220995
983,5182;0,225788
984,4824;0,22999
985,4467;0,233589
986,4109;0,236634
987,3751;0,23921
988,3394;0,241411
989,3036;0,243317
990,2678;0,244987
991,2321;0,246465
992,1963;0,247785
993,1605;0,248987
994,1248;0,250112
995,0890;0,251209
996,0532;0,252318
997,0175;0,253463
997,9817;0,254647
998,9459;0,255854
999,9102;0,257064
1000,8744;0,258268
1001,8386;0,259478
1002,8029;0,260732
1003,7671;0,262089
1004,7313;0,263615
1005,6956;0,265374
1006,6598;0,267421
1007,6240;0,269791
1008,5883;0,2725
1009,5525;0,275541
1010,5167;0,278889
1011,4810;0,282494
1012,4452;0,286285
1013,4094;0,29017
1014,3737;0,294044
1015,3379;0,297793
1016,3021;0,301321
1017,2664;0,304563
1018,2306;0,307495
1019,1948;0,31014
1020,1591;0,31255
1021,1233;0,31479
1022,0875;0,316918
1023,0518;0,318976
1024,0160;0,320983
1024,9802;0,322932
1025,9445;0,324799
1026,9087;0,326532
1027,8729;0,328061
1028,8372;0,329292
1029,8014;0,330116
1030,7656;0,330416
1031,7299;0,330089
1032,6941;0,329067
1033,6583;0,327335
1034,6226;0,324952
1035,5868;0,322052
1036,5510;0,318833
1037,5153;0,315528
1038,4795;0,312372
1039,4437;0,309559
1040,4080;0,307217
1041,3722;0,305393
1042,3364;0,304054
1043,3007;0,303103
1044,2649;0,302401
1045,2291;0,301801
1046,1934;0,301169
1047,1576;0,3004
1048,1218;0,299424
1049,0861;0,298195
1050,0503;0,296681
1051,0145;0,294857
1051,9788;0,292705
1052,9430;0,290225
1053,9072;0,287435
1054,8715;0,284365
1055,8357;0,281035
1056,7999;0,27743
1057,7642;0,273499
1058,7284;0,26917
1059,6926;0,264396
1060,6569;0,259203
1061,6211;0,253708
1062,5853;0,248102
1063,5496;0,242605
1064,5138;0,237404
1065,4780;0,232619
1066,4423;0,228294
1067,4065;0,224407
1068,3707;0,220904
1069,3350;0,217713
1070,2992;0,214764
1071,2634;0,211986
1072,2277;0,209309
1073,1919;0,206665
1074,1561;0,203994
1075,1204;0,201252
1076,0846;0,198422
1077,0488;0,195521
1078,0131;0,192599
1078,9773;0,189735
1079,9415;0,187012
1080,9058;0,184509
1081,8700;0,182276
1082,8342;0,180331
1083,7985;0,178659
1084,7627;0,177226
1085,7269;0,175991
1086,6912;0,174917
1087,6554;0,173982
1088,6196;0,173182
1089,5839;0,172529
1090,5481;0,172042
1091,5123;0,171736
1092,4766;0,171615
1093,4408;0,171668
1094,4050;0,171875
1095,3693;0,172214
1096,3335;0,172666
1097,2977;0,173211
1098,2620;0,173828
1099,2262;0,174483
1100,1904;0,175128
1101,1547;0,175707
1102,1189;0,176163
1103,0831;0,176448
1104,0474;0,176539
1105,0116;0,176433
1105,9758;0,176147
1106,9401;0,175702
1107,9043;0,175114
1108,8685;0,174376
1109,8328;0,173453
1110,7970;0,172297
1111,7612;0,170862
1112,7255;0,16914
1113,6897;0,167172
1114,6539;0,165056
1115,6182;0,16292
1116,5824;0,160885
1117,5466;0,159031
1118,5109;0,157366
1119,4751;0,155836
1120,4393;0,15434
1121,4036;0,152764
1122,3678;0,15101
1123,3320;0,149011
1124,2963;0,146735
1125,2605;0,144184
1126,2247;0,141387
1127,1890;0,138394
1128,1532;0,13527
1129,1174;0,132086
1130,0817;0,128908
1131,0459;0,125791
1132,0101;0,122778
1132,9744;0,119905
1133,9386;0,117215
1134,9028;0,114755
1135,8671;0,112577
1136,8313;0,110723
1137,7955;0,109216
1138,7598;0,108054
1139,7240;0,107213
1140,6882;0,106656
1141,6525;0,10634
1142,6167;0,106221
1143,5809;0,10626
1144,5452;0,106427
1145,5094;0,106705
1146,4736;0,107089
1147,4379;0,107584
1148,4021;0,108195
1149,3663;0,108922
1150,3306;0,109751
1151,2948;0,110653
1152,2590;0,111585
1153,2233;0,112495
1154,1875;0,113331
1155,1517;0,114035
1156,1160;0,114547
1157,0802;0,114798
1158,0444;0,114705
1159,0087;0,114181
1159,9729;0,113138
1160,9371;0,111507
1161,9014;0,109257
1162,8656;0,106407
1163,8298;0,103032
1164,7941;0,0992518
1165,7583;0,0952171
1166,7225;0,0910878
1167,6868;0,0870166
1168,6510;0,0831322
1169,6152;0,0795283
1170,5795;0,0762578
1171,5437;0,073335
1172,5079;0,070747
1173,4722;0,0684682
1174,4364;0,0664732
1175,4006;0,0647428
1176,3649;0,0632615
1177,3291;0,0620124
1178,2933;0,0609719
1179,2576;0,0601109
1180,2218;0,0593998
1181,1860;0,0588145
1182,1503;0,0583403
1183,1145;0,0579708
1184,0787;0,0577044
1185,0430;0,0575405
1186,0072;0,0574779
1186,9714;0,0575162
1187,9357;0,0576573
1188,8999;0,0579055
1189,8641;0,0582667
1190,8284;0,058745
1191,7926;0,059341
1192,7568;0,0600517
1193,7211;0,0608717
1194,6853;0,0617938
1195,6495;0,0628077
1196,6138;0,0638983
1197,5780;0,0650436
1198,5422;0,0662173
1199,5065;0,0672785
1200,4707;0,0684539
1201,4349;0,069607
1202,3992;0,0707377
1203,3634;0,0718489
1204,3276;0,0729413
1205,2919;0,0740114
1206,2561;0,0750552
1207,2203;0,0760754
1208,1846;0,0770878
1209,1488;0,0781216
1210,1130;0,0792131
1211,0773;0,0803953
1212,0415;0,0816865
1213,0057;0,0830846
1213,9700;0,0845682
1214,9342;0,0861048
1215,8984;0,0876605
1216,8627;0,0892064
1217,8269;0,0907209
1218,7911;0,0921901
1219,7554;0,0936046
1220,7196;0,0949576
1221,6838;0,0962434
1222,6481;0,0974578
1223,6123;0,0985983
1224,5765;0,0996645
1225,5408;0,100658
1226,5050;0,101584
1227,4692;0,102446
1228,4335;0,103246
1229,3977;0,103984
1230,3619;0,104653
1231,3262;0,105249
1232,2904;0,105765
1233,2546;0,106204
1234,2189;0,106571
1235,1831;0,106878
1236,1473;0,107141
1237,1116;0,107373
1238,0758;0,107583
1239,0400;0,107775
1240,0043;0,107946
1240,9685;0,108086
1241,9327;0,108179
1242,8970;0,108208
1243,8612;0,108153
1244,8254;0,108001
1245,7897;0,107744
1246,7539;0,107387
1247,7181;0,106942
1248,6824;0,106429
1249,6466;0,105871
1250,6108;0,105289
1251,5751;0,1047
1252,5393;0,104117
1253,5035;0,103547
1254,4678;0,102994
1255,4320;0,102455
1256,3962;0,101921
1257,3605;0,101378
1258,3247;0,100814
1259,2889;0,100219
1260,2532;0,0995923
1261,2174;0,0989337
1262,1816;0,098241
1263,1459;0,0975047
1264,1101;0,0967078
1265,0743;0,0958318
1266,0386;0,0948624
1267,0028;0,0937943
1267,9670;0,0926313
1268,9313;0,0913836
1269,8955;0,0900646
1270,8597;0,0886889
1271,8240;0,0872721
1272,7882;0,0858319
1273,7524;0,0843891
1274,7167;0,0829671
1275,6809;0,0815898
1276,6451;0,0802759
1277,6094;0,079033
1278,5736;0,0778539
1279,5378;0,0767195
1280,5021;0,0756088
1281,4663;0,0745102
1282,4305;0,0734283
1283,3948;0,0723813
1284,3590;0,0713923
1285,3232;0,0704799
1286,2875;0,0696536
1287,2517;0,0689151
1288,2159;0,0682631
1289,1802;0,0676974
1290,1444;0,0672198
1291,1086;0,0668333
1292,0729;0,066541
1293,0371;0,0663461
1294,0013;0,0662525
1294,9656;0,0662646
1295,9298;0,0663861
1296,8940;0,0666194
1297,8583;0,066965
1298,8225;0,0674214
1299,7867;0,0679837
1300,7510;0,0686427
1301,7152;0,0693863
1302,6794;0,0702005
1303,6437;0,0710734
1304,6079;0,0719988
1305,5721;0,0729738
1306,5364;0,0739951
1307,5006;0,0750544
1308,4648;0,0761382
1309,4291;0,0772296
1310,3933;0,0783105
1311,3575;0,0793606
1312,3218;0,0803553
1313,2860;0,0812641
1314,2502;0,0820526
1315,2145;0,082684
1316,1787;0,083124
1317,1429;0,083347
1318,1072;0,0833471
1319,0714;0,0831483
1320,0356;0,0828049
1320,9999;0,082386
1321,9641;0,0819528
1322,9283;0,0815443
1323,8926;0,0811775
1324,8568;0,0808552
1325,8210;0,0805751
1326,7853;0,0803332
1327,7495;0,0801235
1328,7137;0,0799353
1329,6780;0,0797513
1330,6422;0,0795505
1331,6064;0,0793122
1332,5707;0,079021
1333,5349;0,0786681
1334,4991;0,0782465
1335,4634;0,0777441
1336,4276;0,0771413
1337,3918;0,0764182
1338,3561;0,0755758
1339,3203;0,0746596
1340,2845;0,0737558
1341,2488;0,0729485
1342,2130;0,0722787
1343,1772;0,0717407
1344,1415;0,0713098
1345,1057;0,070967
1346,0699;0,0707104
1347,0342;0,0705518
1347,9984;0,0705093
1348,9626;0,0705981
1349,9269;0,0708217
1350,8911;0,071169
1351,8553;0,0716179
1352,8196;0,0721447
1353,7838;0,0727335
1354,7480;0,0733794
1355,7123;0,0740827
1356,6765;0,0748397
1357,6407;0,0756389
1358,6050;0,076467
1359,5692;0,0773142
1360,5334;0,0781689
1361,4977;0,0790058
1362,4619;0,0797888
1363,4261;0,0804949
1364,3904;0,0811271
1365,3546;0,0816998
1366,3188;0,0822195
1367,2831;0,0826806
1368,2473;0,0830698
1369,2115;0,083372
1370,1758;0,0835724
1371,1400;0,0836559
1372,1042;0,0836029
1373,0685;0,0833923
1374,0327;0,0830156
1374,9969;0,0824908
1375,9612;0,0818492
1376,9254;0,0810988
1377,8896;0,0802089
1378,8539;0,0791414
1379,8181;0,0779005
1380,7823;0,0765559
1381,7466;0,0752095
1382,7108;0,0739297
1383,6750;0,0727101
1384,6393;0,0714884
1385,6035;0,0702116
1386,5677;0,0689096
1387,5320;0,0677165
1388,4962;0,0667863
1389,4604;0,0661718
1390,4247;0,065805
1391,3889;0,065575
1392,3531;0,065402
1393,3174;0,0652596
1394,2816;0,0651559
1395,2458;0,0651047
1396,2101;0,0651096
1397,1743;0,0651693
1398,1385;0,0652896
1399,1028;0,0654847
1400,0670;0,0657637
1401,0313;0,0661191
1401,9955;0,0665302
1402,9597;0,0669791
1403,9240;0,0674639
1404,8882;0,0679989
1405,8524;0,0686015
1406,8167;0,069277
1407,7809;0,0700154
1408,7451;0,0708038
1409,7094;0,0716415
1410,6736;0,0725396
1411,6378;0,0735015
1412,6021;0,0745044
1413,5663;0,0754996
1414,5305;0,0764356
1415,4948;0,0772799
1416,4590;0,0780224
1417,4232;0,0786578
1418,3875;0,0791764
1419,3517;0,0795871
1420,3159;0,0799136
1421,2802;0,0801383
1422,2444;0,0801899
1423,2086;0,0800022
1424,1729;0,0795702
1425,1371;0,0789482
1426,1013;0,0781954
1427,0656;0,0773211
1428,0298;0,0762868
1428,9940;0,0750706
1429,9583;0,0737374
1430,9225;0,0724218
1431,8867;0,0712192
1432,8510;0,0701018
1433,8152;0,0689428
1434,7794;0,0676179
1435,7437;0,0661345
1436,7079;0,0647184
1437,6721;0,0636954
1438,6364;0,063213
1439,6006;0,0631585
1440,5648;0,0633295
1441,5291;0,0635906
1442,4933;0,0639061
1443,4575;0,0642991
1444,4218;0,0647976
1445,3860;0,0654031
1446,3502;0,0660914
1447,3145;0,0668313
1448,2787;0,0676009
1449,2429;0,0683872
1450,2072;0,069167
1451,1714;0,0698923
1452,1356;0,0704982
1453,0999;0,0709281
1454,0641;0,0711514
1455,0283;0,0711456
1455,9926;0,0708557
1456,9568;0,0702792
1457,9210;0,0696988
1458,8853;0,0694785
1459,8495;0,0696148
1460,8137;0,0698347
1461,7780;0,069863
1462,7422;0,0694999
1463,7064;0,0686262
1464,6707;0,0672699
1465,6349;0,0656637
1466,5991;0,064092
1467,5634;0,0626475
1468,5276;0,0611982
1469,4918;0,0595146
1470,4561;0,0573715
1471,4203;0,0546292
1472,3845;0,0513901
1473,3488;0,0481236
1474,3130;0,0453948
1475,2772;0,0434021
1476,2415;0,0419736
1477,2057;0,0408629
1478,1699;0,0399118
1479,1342;0,0390544
1480,0984;0,0382796
1481,0626;0,037607
1482,0269;0,0370723
1482,9911;0,0367075
1483,9553;0,0365179
1484,9196;0,0364759
1485,8838;0,036537
1486,8480;0,0366591
1487,8123;0,0368121
1488,7765;0,0369929
1489,7407;0,0372583
1490,7050;0,037696
1491,6692;0,0383303
1492,6334;0,0391084
1493,5977;0,0399755
1494,5619;0,0409299
1495,5261;0,0420175
1496,4904;0,0432772
1497,4546;0,0446866
1498,4188;0,0461747
1499,3831;0,0476671
1500,3473;0,0490841
1501,3115;0,0503328
1502,2758;0,0513376
1503,2400;0,0520811
1504,2042;0,0526193
1505,1685;0,0530234
1506,1327;0,0532049
1507,0969;0,0529138
1508,0612;0,0522588
1509,0254;0,0516763
1509,9896;0,0512939
1510,9539;0,0509646
1511,9181;0,0505365
1512,8823;0,0499291
1513,8466;0,0491133
1514,8108;0,0480934
1515,7750;0,0469091
1516,7393;0,0456307
1517,7035;0,0443232
1518,6677;0,0430107
1519,6320;0,0416875
1520,5962;0,0403806
1521,5604;0,0391938
1522,5247;0,0382531
1523,4889;0,0376
1524,4531;0,0371728
1525,4174;0,0368879
1526,3816;0,0367118
1527,3458;0,0366559
1528,3101;0,0367262
1529,2743;0,0368957
1530,2385;0,0371296
1531,2028;0,0374229
1532,1670;0,0378066
1533,1312;0,0383117
1534,0955;0,038925
1535,0597;0,0395787
1536,0239;0,0401884
1536,9882;0,0407078
1537,9524;0,0411564
1538,9166;0,04156
1539,8809;0,0417931
1540,8451;0,0416144
1541,8093;0,0411374
1542,7736;0,0407655
1543,7378;0,0406415
1544,7020;0,0406807
1545,6663;0,040798
1546,6305;0,0409589
1547,5947;0,0411442
1548,5590;0,0413271
1549,5232;0,0414845
1550,4874;0,0416221
1551,4517;0,0417784
1552,4159;0,0419923
1553,3801;0,0422575
1554,3444;0,0425111
1555,3086;0,0426649
1556,2728;0,0426281
1557,2371;0,0422872
1558,2013;0,0415866
1559,1655;0,0409143
1560,1298;0,0409143
1561,0940;0,0416383
1562,0582;0,0426927
1563,0225;0,0437479
1563,9867;0,0446534
1564,9509;0,0453782
1565,9152;0,0459553
1566,8794;0,046456
1567,8436;0,0469761
1568,8079;0,0476066
1569,7721;0,0483864
1570,7363;0,0492738
1571,7006;0,0501779
1572,6648;0,0510268
1573,6290;0,0518179
1574,5933;0,052614
1575,5575;0,0534795
1576,5217;0,054416
1577,4860;0,0553886
1578,4502;0,0563794
1579,4144;0,057375
1580,3787;0,0583576
1581,3429;0,0593251
1582,3071;0,0602948
1583,2714;0,0612918
1584,2356;0,062336
1585,1998;0,0634362
1586,1641;0,0645831
1587,1283;0,0657439
1588,0925;0,0668637
1589,0568;0,067879
1590,0210;0,068735
1590,9852;0,0693937
1591,9495;0,0698285
1592,9137;0,0700173
1593,8779;0,0699497
1594,8422;0,0696442
1595,8064;0,0691551
1596,7706;0,0685551
1597,7349;0,0679075
1598,6991;0,0672484
1599,6633;0,0665902
1600,6276;0,0659362
1601,5918;0,0652952
1602,5560;0,0646878
1603,5203;0,0641378
1604,4845;0,063656
1605,4487;0,0632273
1606,4130;0,0628168
1607,3772;0,062395
1608,3414;0,0619694
1609,3057;0,0615952
1610,2699;0,0613382
1611,2341;0,0612163
1612,1984;0,0611807
1613,1626;0,0611506
1614,1268;0,0610616
1615,0911;0,0608987
1616,0553;0,0607217
1617,0195;0,0606609
1617,9838;0,0608183
1618,9480;0,0611593
1619,9122;0,0615521
1620,8765;0,0618791
1621,8407;0,0620925
1622,8049;0,0622121
1623,7692;0,0622971
1624,7334;0,0624049
1625,6976;0,0625579
1626,6619;0,0627477
1627,6261;0,0629664
1628,5903;0,0632206
1629,5546;0,0635096
1630,5188;0,0638009
1631,4830;0,0640374
1632,4473;0,0641706
1633,4115;0,0641822
1634,3757;0,0640719
1635,3400;0,0638551
1636,3042;0,0636323
1637,2684;0,063575
1638,2327;0,0637389
1639,1969;0,0640299
1640,1611;0,0643299
1641,1254;0,064569
1642,0896;0,0647218
1643,0538;0,064787
1644,0181;0,0647709
1644,9823;0,0646714
1645,9465;0,064488
1646,9108;0,0642768
1647,8750;0,0641297
1648,8392;0,0640306
1649,8035;0,0638241
1650,7677;0,0633025
1651,7319;0,0622552
1652,6962;0,0606102
1653,6604;0,0588585
1654,6246;0,0578307
1655,5889;0,0576384
1656,5531;0,0577845
1657,5173;0,0578352
1658,4816;0,0575901
1659,4458;0,0569996
1660,4100;0,0560893
1661,3743;0,0549511
1662,3385;0,0537655
1663,3027;0,0527447
1664,2670;0,0519874
1665,2312;0,0514216
1666,1954;0,0508784
1667,1597;0,0501802
1668,1239;0,0492065
1669,0881;0,047974
1670,0524;0,0466789
1671,0166;0,0455502
1671,9808;0,0446299
1672,9451;0,0437737
1673,9093;0,04283
1674,8735;0,0417934
1675,8378;0,0408306
1676,8020;0,0401439
1677,7662;0,039785
1678,7305;0,0396216
1679,6947;0,039446
1680,6589;0,0390639
1681,6232;0,0383109
1682,5874;0,0370699
1683,5516;0,0354377
1684,5159;0,0338885
1685,4801;0,0329011
1686,4443;0,0324787
1687,4086;0,03232
1688,3728;0,0321663
1689,3370;0,0319143
1690,3013;0,0315784
1691,2655;0,031219
1692,2297;0,0308914
1693,1940;0,0306255
1694,1582;0,0304242
1695,1224;0,0302586
1696,0867;0,0300615
1697,0509;0,0297484
1698,0151;0,0292863
1698,9794;0,0287728
1699,9436;0,0284232
1700,9078;0,0284232
1701,8721;0,0287913
1702,8363;0,0293979
1703,8005;0,0300816
1704,7648;0,0307359
1705,7290;0,0313342
1706,6932;0,0319132
1707,6575;0,0325338
1708,6217;0,0332368
1709,5859;0,0340217
1710,5502;0,0348572
1711,5144;0,035701
1712,4786;0,0365133
1713,4429;0,0372637
1714,4071;0,0379371
1715,3713;0,0385327
1716,3356;0,0390668
1717,2998;0,0396066
1718,2640;0,0402685
1719,2283;0,0411117
1720,1925;0,0420821
1721,1567;0,0430768
1722,1210;0,0440132
1723,0852;0,0448462
1724,0494;0,0455651
1725,0137;0,0461882
1725,9779;0,0467536
1726,9421;0,0472958
1727,9064;0,0478203
1728,8706;0,0482905
1729,8348;0,0486345
1730,7991;0,0487574
1731,7633;0,0485646
1732,7275;0,0480279
1733,6918;0,0472979
1734,6560;0,0466694
1735,6202;0,0463097
1736,5845;0,0461194
1737,5487;0,0458743
1738,5129;0,0453958
1739,4772;0,0446249
1740,4414;0,0436285
1741,4056;0,0425455
1742,3699;0,0414894
1743,3341;0,0404828
1744,2983;0,0394767
1745,2626;0,038405
1746,2268;0,0372015
1747,1910;0,0357799
1748,1553;0,0340409
1749,1195;0,0319699
1750,0837;0,0297593
1751,0480;0,0277403
1752,0122;0,0261274
1752,9764;0,0248877
1753,9407;0,0238363
1754,9049;0,022793
1755,8691;0,0216761
1756,8334;0,0205121
1757,7976;0,0193754
1758,7618;0,0183054
1759,7261;0,0172756
1760,6903;0,0162421
1761,6545;0,0152176
1762,6188;0,0142853
1763,5830;0,0135291
1764,5472;0,0129615
1765,5115;0,0125226
1766,4757;0,0121326
1767,4399;0,0117379
1768,4042;0,0113194
1769,3684;0,0108702
1770,3326;0,0103714
1771,2969;0,00980723
1772,2611;0,00922162
1773,2253;0,00873342
1774,1896;0,00844498
1775,1538;0,0083522
1776,1180;0,00836292
1777,0823;0,00837163
1778,0465;0,00831174
1779,0107;0,00816935
1779,9750;0,00797031
1780,9392;0,00775275
1781,9034;0,00754236
1782,8677;0,00735007
1783,8319;0,00718996
1784,7961;0,00709039
1785,7604;0,00707933
1786,7246;0,00715676
1787,6888;0,00728417
1788,6531;0,00740019
1789,6173;0,00744448
1790,5815;0,00737605
1791,5458;0,00719592
1792,5100;0,006973
1793,4742;0,00681742
1794,4385;0,0067899
1795,4027;0,00685825
1796,3669;0,00694299
1797,3312;0,00697606
1798,2954;0,00692516
1799,2596;0,00679343
1800,2239;0,00661232
1801,1881;0,00643048
1802,1523;0,00629438
1803,1166;0,00622912
1804,0808;0,00623351
1805,0450;0,00628823
1806,0093;0,00636539
1806,9735;0,00643428
1807,9377;0,00646562
1808,9020;0,00643861
1809,8662;0,00635111
1810,8304;0,00622525
1811,7947;0,00609742
1812,7589;0,00599589
1813,7231;0,00592659
1814,6874;0,00587867
1815,6516;0,00584081
1816,6158;0,0058129
1817,5801;0,00580608
1818,5443;0,00583215
1819,5085;0,0058908
1820,4728;0,00596585
1821,4370;0,00603447
1822,4012;0,00608148
1823,3655;0,00610747
1824,3297;0,00612502
1825,2939;0,00614349
1826,2582;0,0061524
1827,2224;0,006119
1828,1866;0,00600812
1829,1509;0,00581696
1830,1151;0,00559905
1831,0793;0,00544118
1832,0436;0,00539907
1833,0078;0,00545892
1833,9720;0,00556039
1834,9363;0,00564491
1835,9005;0,00568813
1836,8647;0,00570557
1837,8290;0,00573177
1838,7932;0,00578626
1839,7574;0,00585435
1840,7217;0,00589813
1841,6859;0,00588184
1842,6501;0,00579142
1843,6144;0,00564595
1844,5786;0,00549803
1845,5428;0,00540504
1846,5071;0,00538307
1847,4713;0,00539796
1848,4355;0,00540208
1849,3998;0,00537143
1850,3640;0,0053151
1851,3282;0,00526113
1852,2925;0,00523441
1853,2567;0,00524307
1854,2209;0,00527942
1855,1852;0,00532921
1856,1494;0,00537853
1857,1136;0,00541551
1858,0779;0,00542968
1859,0421;0,00541612
1860,0063;0,00538334
1860,9706;0,00535654
1861,9348;0,00536813
1862,8990;0,00543942
1863,8633;0,00556679
1864,8275;0,00572087
1865,7917;0,00585419
1866,7560;0,00591198
1867,7202;0,00585279
1868,6844;0,00568237
1869,6487;0,00546514
1870,6129;0,00527811
1871,5771;0,00515515
1872,5414;0,00508364
1873,5056;0,00503736
1874,4698;0,00500268
1875,4341;0,0049829
1876,3983;0,00498908
1877,3625;0,00502762
1878,3268;0,00509439
1879,2910;0,00517631
1880,2552;0,00525774
1881,2195;0,00532615
1882,1837;0,00537475
1883,1479;0,00540227
1884,1122;0,0054112
1885,0764;0,00540537
1886,0406;0,0053885
1887,0049;0,00536348
1887,9691;0,00533252
1888,9333;0,00529834
1889,8976;0,00526617
1890,8618;0,00524285
1891,8260;0,00523189
1892,7903;0,0052301
1893,7545;0,00522959
1894,7188;0,00522301
1895,6830;0,00520812
1896,6472;0,00518919
1897,6115;0,00517402
1898,5757;0,00516833
1899,5399;0,00517226
1900,5042;0,00518135
1901,4684;0,00519035
1902,4326;0,0051967
1903,3969;0,00520173
1904,3611;0,00520893
1905,3253;0,00522078
1906,2896;0,00523634
1907,2538;0,00525101
1908,2180;0,00525814
1909,1823;0,0052524
1910,1465;0,00523331
1911,1107;0,00520533
1912,0750;0,00517392
1913,0392;0,00514192
1914,0034;0,0051105
1914,9677;0,00508295
1915,9319;0,00506643
1916,8961;0,00506977
1917,8604;0,00509866
1918,8246;0,00515009
1919,7888;0,00520833
1920,7531;0,00524656
1921,7173;0,00523672
1922,6815;0,0051646
1923,6458;0,0050425
1924,6100;0,00490889
1925,5742;0,00481044
1926,5385;0,00477758
1927,5027;0,00481106
1928,4669;0,00488504
1929,4312;0,00496058
1930,3954;0,00500324
1931,3596;0,0049979
1932,3239;0,00495216
1933,2881;0,00488746
1934,2523;0,00482539
1935,2166;0,0047785
1936,1808;0,00475
1937,1450;0,00474011
1938,1093;0,00475259
1939,0735;0,00479571
1940,0377;0,00487553
1941,0020;0,00498429
1941,9662;0,0050936
1942,9304;0,00516351
1943,8947;0,00516459
1944,8589;0,00509359
1945,8231;0,00496977
1946,7874;0,00482033
1947,7516;0,00466897
1948,7158;0,00453228
1949,6801;0,00442142
1950,6443;0,00434418
1951,6085;0,00430309
1952,5728;0,00428991
1953,5370;0,00428264
1954,5012;0,00425274
1955,4655;0,00418318
1956,4297;0,00408639
1957,3939;0,00400568
1958,3582;0,00399203
1959,3224;0,00406666
1960,2866;0,00419613
1961,2509;0,00430496
1962,2151;0,00432337
1963,1793;0,00423555
1964,1436;0,00409093
1965,1078;0,00396991
1966,0720;0,00392634
1967,0363;0,00394608
1968,0005;0,00395563
1968,9647;0,00387751
1969,9290;0,00368658
1970,8932;0,00342416
1971,8574;0,00316948
1972,8217;0,0029984
1973,7859;0,00295613
1974,7501;0,00305126
1975,7144;0,00326442
1976,6786;0,00355555
1977,6428;0,00386671
1978,6071;0,00413044
1979,5713;0,00429123
1980,5355;0,00432972
1981,4998;0,00427118
1982,4640;0,00417181
1983,4282;0,00409129
1984,3925;0,00406694
1985,3567;0,00410408
1986,3209;0,00418774
1987,2852;0,00430563
1988,2494;0,00446163
1989,2136;0,00466664
1990,1779;0,00491249
1991,1421;0,005153
1992,1063;0,0053156
1993,0706;0,00534245
1994,0348;0,00522876
1994,9990;0,00502674
1995,9633;0,00481534
1996,9275;0,00466047
1997,8917;0,00458882
1998,8560;0,00458596
1999,8202;0,00461641
2000,7844;0,004651
2001,7487;0,00468323
2002,7129;0,00472691
2003,6771;0,00480241
2004,6414;0,00492299
2005,6056;0,00508646
2006,5698;0,00527197
2007,5341;0,00544047
2008,4983;0,00554298
2009,4625;0,00554003
2010,4268;0,00542613
2011,3910;0,00524405
2012,3552;0,00507439
2013,3195;0,00499991
2014,2837;0,00505993
2015,2479;0,00522118
2016,2122;0,00538946
2017,1764;0,00546415
2018,1406;0,00540246
2019,1049;0,00524413
2020,0691;0,00507764
2021,0333;0,00497644
2021,9976;0,00495296
2022,9618;0,00495988
2023,9260;0,00493466
2024,8903;0,00485507
2025,8545;0,00476383
2026,8187;0,0047414
2027,7830;0,00484575
2028,7472;0,00506516
2029,7114;0,00532162
2030,6757;0,00552487
2031,6399;0,00563787
2032,6041;0,00570221
2033,5684;0,00580132
2034,5326;0,00598836
2035,4968;0,006239
2036,4611;0,00646825
2037,4253;0,00659609
2038,3895;0,00660524
2039,3538;0,00654865
2040,3180;0,00650613
2041,2822;0,00652607
2042,2465;0,00659793
2043,2107;0,0066758
2044,1749;0,00673056
2045,1392;0,00678404
2046,1034;0,0068949
2047,0676;0,00710538
2048,0320;0,00739186
2048,9961;0,00766458
2049,9604;0,00782007
2050,9246;0,00780242
2051,8889;0,00762982
2052,8530;0,00737927
2053,8174;0,00714861
2054,7815;0,00701546
2055,7458;0,00700926
2056,7100;0,00710543
2057,6743;0,00724365
2058,6384;0,00735984
2059,6028;0,00741553
2060,5669;0,00741137
2061,5313;0,00738041
2062,4954;0,00736543
2063,4597;0,00739242
2064,4238;0,00745509
2065,3882;0,00752058
2066,3523;0,007553
2067,3167;0,00753808
2068,2808;0,00749163
2069,2451;0,00744737
2070,2092;0,00743428
2071,1736;0,0074596
2072,1377;0,00750745
2073,1021;0,00755243
2074,0662;0,00757633
2075,0305;0,00757651
2075,9946;0,00756215
2076,9590;0,00754449
2077,9231;0,00752972
2078,8875;0,00751899
2079,8516;0,00751282
2080,8159;0,00751424
2081,7800;0,00752759
2082,7444;0,00755439
2083,7085;0,00759033
2084,6729;0,00762599
2085,6370;0,00765075
2086,6013;0,00765673
2087,5654;0,00764078
2088,5298;0,0076044
2089,4939;0,00755315
2090,4583;0,00749691
2091,4224;0,00745022
2092,3867;0,00743101
2093,3508;0,00745578
2094,3152;0,00753187
2095,2793;0,00765032
2096,2437;0,00778501
2097,2078;0,00790085
2098,1721;0,00796838
2099,1362;0,0079763
2100,1006;0,0079358
2101,0647;0,00787096
2102,0291;0,00781108
2102,9932;0,00777618
2103,9575;0,0077733
2104,9216;0,00779893
2105,8860;0,00784459
2106,8501;0,00790062
2107,8145;0,00795672
2108,7786;0,00800147
2109,7429;0,00802397
2110,7070;0,00801811
2111,6714;0,00798615
2112,6355;0,00793817
2113,5999;0,00788701
2114,5640;0,00784256
2115,5283;0,00780969
2116,4924;0,00779103
2117,4568;0,00779086
2118,4209;0,00781534
2119,3853;0,00786754
2120,3494;0,00794071
2121,3137;0,00801579
2122,2778;0,00806649
2123,2422;0,00807004
2124,2063;0,00801728
2125,1707;0,00791659
2126,1348;0,00779037
2127,0991;0,00766714
2128,0632;0,00757348
2129,0276;0,00752867
2129,9917;0,00754202
2130,9561;0,00761175
2131,9202;0,00772475
2132,8845;0,00785783
2133,8486;0,00798152
2134,8130;0,0080666
2135,7771;0,00809211
2136,7415;0,00805239
2137,7056;0,0079609
2138,6699;0,00784916
2139,6340;0,00775959
2140,5984;0,00773189
2141,5625;0,00778642
2142,5269;0,00791184
2143,4910;0,00806585
2144,4553;0,0081923
2145,4194;0,00824828
2146,3838;0,00822686
2147,3479;0,00816126
2148,3123;0,00810645
2149,2764;0,00810735
2150,2407;0,00817135
2151,2048;0,00826057
2152,1692;0,00830895
2153,1333;0,00825691
2154,0977;0,00808852
2155,0618;0,0078551
2156,0261;0,00767141
2156,9902;0,00767325
2157,9546;0,00793928
2158,9187;0,00842076
2159,8831;0,00895088
2160,8472;0,00934456
2161,8115;0,00950191
2162,7756;0,00943687
2163,7400;0,00923792
2164,7041;0,00900784
2165,6685;0,00881625
2166,6326;0,00868039
2167,5969;0,0085769
2168,5610;0,00847363
2169,5254;0,00836019
2170,4895;0,00825931
2171,4539;0,00821398
2172,4180;0,0082594
2173,3823;0,00839634
2174,3464;0,0085832
2175,3108;0,00875332
2176,2749;0,00884767
2177,2393;0,00884081
2178,2034;0,00874422
2179,1677;0,00858952
2180,1318;0,00840829
2181,0962;0,0082231
2182,0603;0,00805105
2183,0247;0,00790947
2183,9888;0,00781346
2184,9531;0,00776692
2185,9172;0,00775854
2186,8816;0,00777125
2187,8457;0,00779915
2188,8101;0,00785648
2189,7742;0,00796731
2190,7385;0,00814124
2191,7026;0,00835419
2192,6670;0,008552
2193,6311;0,0086767
2194,5955;0,00869745
2195,5596;0,0086241
2196,5239;0,00849563
2197,4880;0,00835467
2198,4524;0,00822768
2199,4165;0,00812246
2200,3809;0,00803848
2201,3450;0,00797727
2202,3093;0,00794416
2203,2734;0,00794362
2204,2378;0,00797618
2205,2019;0,00803998
2206,1663;0,00813264
2207,1304;0,00824735
2208,0947;0,00836429
2209,0588;0,0084471
2210,0232;0,00845349
2210,9873;0,00835798
2211,9517;0,00817245
2212,9158;0,00794757
2213,8801;0,00774993
2214,8442;0,00762754
2215,8086;0,00758585
2216,7727;0,00759047
2217,7371;0,00759426
2218,7012;0,00757009
2219,6655;0,00752758
2220,6296;0,00750388
2221,5940;0,00753606
2222,5581;0,00763355
2223,5225;0,00776793
2224,4866;0,00788538
2225,4509;0,00793356
2226,4150;0,00788684
2227,3794;0,00775628
2228,3435;0,00758311
2229,3079;0,00741869
2230,2720;0,00730509
2231,2363;0,00726454
2232,2004;0,00729934
2233,1648;0,00739753
2234,1289;0,00753826
2235,0933;0,00769448
2236,0574;0,00783496
2237,0217;0,00792918
2237,9858;0,00795589
2238,9502;0,00791185
2239,9143;0,00781501
2240,8787;0,00769919
2241,8428;0,00760191
2242,8071;0,00755118
2243,7712;0,00755739
2244,7356;0,00761283
2245,6997;0,00769757
2246,6641;0,00778785
2247,6282;0,00786337
2248,5925;0,00791194
2249,5566;0,00793116
2250,5210;0,0079277
2251,4851;0,00791447
2252,4495;0,00790637
2253,4136;0,00791533
2254,3779;0,00794607
2255,3420;0,00799389
2256,3064;0,00804561
2257,2705;0,00808325
2258,2349;0,00808982
2259,1990;0,00805546
2260,1633;0,00798221
2261,1274;0,00788543
2262,0918;0,0077905
2263,0559;0,00772481
2264,0203;0,0077079
2264,9844;0,00774385
2265,9487;0,00781982
2266,9128;0,00791138
2267,8772;0,00799193
2268,8413;0,00804168
2269,8057;0,00805259
2270,7698;0,00802858
2271,7341;0,00798208
2272,6982;0,00792912
2273,6626;0,00788447
2274,6267;0,00785788
2275,5911;0,00785219
2276,5552;0,00786379
2277,5195;0,00788528
2278,4836;0,00790926
2279,4480;0,00793171
2280,4121;0,0079535
2281,3765;0,00797951
2282,3406;0,00801588
2283,3049;0,00806695
2284,2690;0,00813321
2285,2334;0,00821126
2286,1975;0,0082959
2287,1619;0,00838314
2288,1260;0,00847232
2289,0903;0,00856544
2290,0544;0,00866377
2291,0188;0,00876406
2291,9829;0,0088578
2292,9473;0,00893509
2293,9114;0,00899118
2294,8757;0,00903066
2295,8398;0,00906538
2296,8042;0,00910644
2297,7683;0,00915554
2298,7327;0,00920241
2299,6968;0,00923124
2300,6611;0,00923249
2301,6252;0,00921214
2302,5896;0,00919125
2303,5537;0,00919622
2304,5181;0,00924434
2305,4822;0,00933277
2306,4465;0,00943632
2307,4106;0,00951571
2308,3750;0,00953293
2309,3391;0,00946722
2310,3035;0,00932446
2311,2676;0,00913533
2312,2319;0,00894225
2313,1960;0,00878061
2314,1604;0,00866416
2315,1245;0,00858307
2316,0889;0,00851589
2317,0530;0,00844816
2318,0173;0,00838601
2318,9814;0,00835581
2319,9458;0,00838875
2320,9099;0,0084991
2321,8743;0,00867119
2322,8384;0,00886362
2323,8027;0,00902469
2324,7668;0,00910889
2325,7312;0,00909095
2326,6953;0,00897641
2327,6597;0,00880358
2328,6238;0,00863196
2329,5881;0,00852008
2330,5522;0,00850351
2331,5166;0,00858292
2332,4807;0,00872537
2333,4451;0,00887716
2334,4092;0,00898617
2335,3735;0,0090264
2336,3376;0,00901321
2337,3020;0,00899872
2338,2661;0,00904362
2339,2305;0,00917394
2340,1946;0,0093441
2341,1589;0,00943315
2342,1230;0,00930017
2343,0874;0,00891574
2344,0515;0,00849036
2345,0159;0,00838329
2345,9800;0,0087844
2346,9443;0,00954184
2347,9084;0,0103079
2348,8728;0,0107798
2349,8369;0,0108402
2350,8013;0,0105793
2351,7654;0,0102244
2352,7297;0,0100025
2353,6938;0,0100025
2354,6582;0,0101517
2355,6223;0,0103267
2356,5867;0,0104531
2357,5508;0,0105053
2358,5151;0,0104698
2359,4792;0,010341
2360,4436;0,0101316
2361,4077;0,00985907
2362,3721;0,00952076
2363,3362;0,0090971
2364,3005;0,00858298
2365,2646;0,00800919
2366,2290;0,00743053
2367,1931;0,00689677
2368,1575;0,00643641
2369,1216;0,00606087
2370,0859;0,00577449
2371,0500;0,00557855
2372,0144;0,00547099
2372,9785;0,00544851
2373,9429;0,00551148
2374,9070;0,00566596
2375,8713;0,00591847
2376,8354;0,0062655
2377,7998;0,00668486
2378,7639;0,00713496
2379,7283;0,00756354
2380,6924;0,00792214
2381,6567;0,00817961
2382,6208;0,00832922
2383,5852;0,00838709
2384,5493;0,00838355
2385,5137;0,00835163
2386,4778;0,00831733
2387,4421;0,0082949
2388,4063;0,0082877
2389,3706;0,00829259
2390,3347;0,00830478
2391,2991;0,00832069
2392,2632;0,00833852
2393,2275;0,00835758
2394,1917;0,00837766
2395,1560;0,00839907
2396,1201;0,00842289
2397,0845;0,00845083
2398,0486;0,00848539
2399,0129;0,00852655
2399,9771;0,00857186
2400,9414;0,00861743
2401,9055;0,00865869
2402,8699;0,0086929
2403,8340;0,00871992
2404,7983;0,00874193
2405,7625;0,00876206
2406,7268;0,00878262
2407,6909;0,0088051
2408,6553;0,00883079
2409,6194;0,00886066
2410,5837;0,00889574
2411,5479;0,00893567
2412,5122;0,00897786
2413,4763;0,00901791
2414,4407;0,0090517
2415,4048;0,00907772
2416,3691;0,0090981
2417,3333;0,0091176
2418,2976;0,00914118
2419,2617;0,0091718
2420,2261;0,00920944
2421,1902;0,0092512
2422,1545;0,00929298
2423,1187;0,0093303
2424,0830;0,00935946
2425,0471;0,0093787
2426,0115;0,00938939
2426,9756;0,00939637
2427,9399;0,00940668
2428,9041;0,00942688
2429,8684;0,00946031
2430,8325;0,00950593
2431,7969;0,00955915
2432,7610;0,00961381
2433,7253;0,00966395
2434,6895;0,00970465
2435,6538;0,00973257
2436,6179;0,00974714
2437,5823;0,00975209
2438,5464;0,00975583
2439,5107;0,00976919
2440,4749;0,00980068
2441,4392;0,0098518
2442,4033;0,00991551
2443,3677;0,00997927
2444,3318;0,0100311
2445,2961;0,0100648
2446,2603;0,0100819
2447,2246;0,0100895
2448,1887;0,0100957
2449,1531;0,0101071
2450,1172;0,0101269
2451,0815;0,0101552
2452,0457;0,01019
2453,0100;0,0102272
2453,9741;0,0102615
2454,9385;0,010288
2455,9026;0,0103052
2456,8669;0,0103156
2457,8311;0,0103261
2458,7954;0,0103443
2459,7595;0,0103745
2460,7239;0,0104148
2461,6880;0,0104574
2462,6523;0,0104913
2463,6165;0,0105081
2464,5808;0,0105055
2465,5449;0,0104891
2466,5093;0,0104703
2467,4734;0,0104617
2468,4377;0,0104723
2469,4019;0,0105039
2470,3662;0,0105514
2471,3303;0,0106051
2472,2947;0,0106544
2473,2588;0,0106917
2474,2231;0,0107151
2475,1873;0,010728
2476,1516;0,0107376
2477,1157;0,0107511
2478,0801;0,0107723
2479,0442;0,0107997
2480,0085;0,0108281
2480,9727;0,0108519
2481,9370;0,0108689
2482,9011;0,0108819
2483,8655;0,0108965
2484,8296;0,0109172
2485,7939;0,0109448
2486,7581;0,0109763
2487,7224;0,0110075
2488,6865;0,0110372
2489,6509;0,011068
2490,6150;0,0111048
2491,5793;0,0111505
2492,5435;0,0112026
2493,5078;0,0112538
2494,4719;0,0112953
2495,4363;0,0113226
2496,4004;0,0113381
2497,3647;0,0113506
2498,3289;0,0113693
2499,2932;0,0113977
2500,2573;0,0114307
2501,2217;0,0114579
2502,1858;0,0114706
2503,1501;0,011469
2504,1143;0,0114626
2505,0786;0,0114655
2506,0427;0,0114864
2507,0071;0,0115231
2507,9712;0,0115639
2508,9355;0,0115954
2509,8997;0,0116115
2510,8640;0,0116175
2511,8281;0,0116251
2512,7925;0,0116445
2513,7566;0,0116764
2514,7209;0,011712
2515,6851;0,011738
2516,6494;0,0117451
2517,6135;0,0117332
2518,5779;0,0117114
2519,5420;0,0116931
2520,5063;0,0116892
2521,4705;0,0117037
2522,4348;0,0117328
2523,3989;0,0117676
2524,3633;0,0117992
2525,3274;0,0118224
2526,2917;0,0118372
2527,2559;0,0118471
2528,2202;0,011857
2529,1843;0,0118695
2530,1487;0,0118853
2531,1128;0,0119035
2532,0771;0,0119232
2533,0413;0,0119437
2534,0056;0,0119644
2534,9697;0,011984
2535,9341;0,0120013
2536,8982;0,0120157
2537,8625;0,0120279
2538,8267;0,0120393
2539,7910;0,0120508
2540,7551;0,0120619
2541,7195;0,0120721
2542,6836;0,012081
2543,6479;0,0120897
2544,6121;0,0120989
2545,5764;0,0121078
2546,5405;0,0121137
2547,5049;0,0121146
2548,4690;0,0121122
2549,4333;0,0121131
2550,3975;0,0121259
2551,3618;0,0121556
2552,3259;0,0121981
2553,2903;0,0122414
2554,2544;0,0122714
2555,2188;0,0122809
2556,1829;0,0122748
2557,1472;0,012268
2558,1113;0,0122756
2559,0757;0,0123039
2560,0398;0,0123455
2561,0042;0,0123844
2561,9683;0,0124059
2562,9326;0,0124061
2563,8967;0,0123935
2564,8611;0,0123828
2565,8252;0,0123851
2566,7896;0,0124014
2567,7537;0,0124237
2568,7180;0,0124415
2569,6821;0,0124501
2570,6465;0,0124534
2571,6106;0,0124606
2572,5750;0,012479
2573,5391;0,0125089
2574,5034;0,0125432
2575,4675;0,0125723
2576,4319;0,0125898
2577,3960;0,0125958
2578,3604;0,0125961
2579,3245;0,0125983
2580,2888;0,0126084
2581,2529;0,0126287
2582,2173;0,0126586
2583,1814;0,012695
2584,1458;0,012734
2585,1099;0,0127716
2586,0742;0,0128044
2587,0383;0,0128309
2588,0027;0,0128522
2588,9668;0,0128717
2589,9312;0,012893
2590,8953;0,0129177
2591,8596;0,0129443
2592,8237;0,0129692
2593,7881;0,0129894
2594,7522;0,013005
2595,7166;0,0130194
2596,6807;0,0130378
2597,6450;0,0130638
2598,6091;0,013097
2599,5735;0,0131337
2600,5376;0,0131698
2601,5020;0,0132031
2602,4661;0,013235
2603,4304;0,0132683
2604,3945;0,0133048
2605,3589;0,0133431
2606,3230;0,0133798
2607,2874;0,0134127
2608,2515;0,0134427
2609,2158;0,013474
2610,1799;0,0135105
2611,1443;0,0135526
2612,1084;0,0135966
2613,0728;0,0136365
2614,0369;0,0136689
2615,0012;0,0136954
2615,9653;0,0137223
2616,9297;0,0137567
2617,8938;0,0138018
2618,8582;0,013854
2619,8223;0,0139051
2620,7866;0,0139463
2621,7507;0,0139733
2622,7151;0,0139886
2623,6792;0,0140009
2624,6436;0,014021
2625,6077;0,0140559
2626,5720;0,0141062
2627,5361;0,014166
2628,5005;0,0142262
2629,4646;0,0142804
2630,4290;0,0143271
2631,3931;0,0143703
2632,3574;0,0144147
2633,3215;0,0144622
2634,2859;0,0145093
2635,2500;0,0145502
2636,2144;0,0145813
2637,1785;0,0146043
2638,1428;0,0146267
2639,1069;0,0146574
2640,0713;0,0147011
2641,0354;0,0147564
2641,9998;0,0148168
2642,9639;0,0148755
2643,9282;0,0149286
2644,8923;0,0149763
2645,8567;0,0150207
2646,8208;0,0150627
2647,7852;0,0151014
2648,7493;0,015135
2649,7136;0,0151639
2650,6777;0,0151906
2651,6421;0,0152192
2652,6062;0,0152526
2653,5706;0,0152908
2654,5347;0,0153309
2655,4990;0,0153699
2656,4631;0,0154062
2657,4275;0,0154403
2658,3916;0,0154734
2659,3560;0,0155061
2660,3201;0,0155372
2661,2844;0,0155647
2662,2485;0,0155876
2663,2129;0,0156069
2664,1770;0,0156258
2665,1414;0,0156478
2666,1055;0,0156753
2667,0698;0,0157077
2668,0339;0,0157427
2668,9983;0,0157772
2669,9624;0,0158094
2670,9268;0,0158401
2671,8909;0,0158719
2672,8552;0,0159084
2673,8193;0,0159516
2674,7837;0,0160008
2675,7478;0,0160522
2676,7122;0,016101
2677,6763;0,0161436
2678,6406;0,0161799
2679,6047;0,0162141
2680,5691;0,0162528
2681,5332;0,0163012
2682,4976;0,0163603
2683,4617;0,0164262
2684,4260;0,0164916
2685,3901;0,0165502
2686,3545;0,0165991
2687,3186;0,0166398
2688,2830;0,0166757
2689,2471;0,01671
2690,2114;0,0167446
2691,1755;0,0167805
2692,1399;0,0168191
2693,1040;0,0168625
2694,0684;0,0169118
2695,0325;0,0169661
2695,9968;0,0170218
2696,9609;0,0170749
2697,9253;0,0171232
2698,8894;0,017168
2699,8538;0,0172133
2700,8179;0,0172628
2701,7822;0,0173178
2702,7463;0,0173764
2703,7107;0,0174351
2704,6748;0,0174905
2705,6392;0,0175417
2706,6033;0,0175899
2707,5676;0,017638
2708,5317;0,0176889
2709,4961;0,0177441
2710,4602;0,0178035
2711,4246;0,0178652
2712,3887;0,0179269
2713,3530;0,0179869
2714,3171;0,0180447
2715,2815;0,0181011
2716,2456;0,0181573
2717,2100;0,0182136
2718,1741;0,0182698
2719,1384;0,0183246
2720,1025;0,0183759
2721,0669;0,0184217
2722,0310;0,0184599
2722,9954;0,0184898
2723,9595;0,018514
2724,9238;0,0185389
2725,8879;0,0185734
2726,8523;0,0186244
2727,8164;0,0186937
2728,7808;0,0187752
2729,7449;0,0188576
2730,7092;0,0189293
2731,6733;0,0189831
2732,6377;0,0190186
2733,6018;0,0190405
2734,5662;0,0190554
2735,5303;0,0190691
2736,4946;0,0190858
2737,4587;0,0191087
2738,4231;0,0191405
2739,3872;0,0191831
2740,3516;0,0192359
2741,3157;0,0192951
2742,2800;0,0193541
2743,2441;0,0194055
2744,2085;0,0194438
2745,1726;0,019467
2746,1370;0,0194777
2747,1011;0,0194823
2748,0654;0,0194891
2749,0295;0,0195059
2749,9939;0,0195377
2750,9580;0,0195848
2751,9224;0,019644
2752,8865;0,0197097
2753,8508;0,0197765
2754,8149;0,0198407
2755,7793;0,0199008
2756,7434;0,0199565
2757,7078;0,0200083
2758,6719;0,0200568
2759,6362;0,0201035
2760,6003;0,0201504
2761,5647;0,0201998
2762,5288;0,020253
2763,4932;0,02031
2764,4573;0,0203702
2765,4216;0,0204331
2766,3857;0,0204992
2767,3501;0,0205691
2768,3142;0,0206424
2769,2786;0,0207159
2770,2427;0,0207851
2771,2070;0,0208463
2772,1711;0,0209007
2773,1355;0,0209545
2774,0996;0,0210163
2775,0640;0,0210922
2776,0281;0,0211815
2776,9924;0,0212767
2777,9565;0,0213686
2778,9209;0,0214521
2779,8850;0,0215299
2780,8494;0,0216105
2781,8135;0,0217018
2782,7778;0,0218056
2783,7419;0,0219157
2784,7063;0,022021
2785,6704;0,0221127
2786,6348;0,0221897
2787,5989;0,0222592
2788,5632;0,0223335
2789,5273;0,0224239
2790,4917;0,0225356
2791,4558;0,0226669
2792,4202;0,02281
2793,3843;0,0229545
2794,3486;0,0230917
2795,3127;0,0232174
2796,2771;0,0233335
2797,2412;0,0234477
2798,2056;0,02357
2799,1697;0,0237094
2800,1340;0,0238689
2801,0981;0,0240452
2802,0625;0,02423
2803,0266;0,024414
2803,9910;0,0245907
2804,9551;0,0247579
2805,9194;0,0249175
2806,8835;0,0250731
2807,8479;0,0252289
2808,8120;0,0253896
2809,7764;0,02556
2810,7405;0,0257443
2811,7048;0,0259452
2812,6689;0,0261625
2813,6333;0,026393
2814,5974;0,0266323
2815,5618;0,0268769
2816,5259;0,0271259
2817,4902;0,0273808
2818,4543;0,0276445
2819,4187;0,0279194
2820,3828;0,028206
2821,3472;0,0285031
2822,3113;0,0288086
2823,2756;0,0291209
2824,2397;0,0294407
2825,2041;0,0297719
2826,1682;0,0301213
2827,1326;0,0304971
2828,0967;0,0309058
2829,0610;0,0313509
2830,0251;0,0318309
2830,9895;0,0323415
2831,9536;0,0328769
2832,9180;0,0334329
2833,8821;0,0340087
2834,8464;0,0346072
2835,8105;0,0352353
2836,7749;0,0359041
2837,7390;0,036629
2838,7034;0,037429
2839,6675;0,0383256
2840,6318;0,0393402
2841,5959;0,04049
2842,5603;0,0417829
2843,5244;0,0432108
2844,4888;0,0447428
2845,4529;0,04632
2846,4172;0,0478573
2847,3813;0,0492532
2848,3457;0,0504094
2849,3098;0,0512537
2850,2742;0,0517563
2851,2383;0,0519344
2852,2026;0,0518406
2853,1667;0,051544
2854,1311;0,0511106
2855,0952;0,0505926
2856,0596;0,0500277
2857,0237;0,0494455
2857,9880;0,0488746
2858,9521;0,0483451
2859,9165;0,0478854
2860,8806;0,0475171
2861,8450;0,0472506
2862,8091;0,0470851
2863,7734;0,0470133
2864,7375;0,0470251
2865,7019;0,0471102
2866,6660;0,0472563
2867,6304;0,0474454
2868,5945;0,0476523
2869,5588;0,0478478
2870,5229;0,0480054
2871,4873;0,0481097
2872,4514;0,0481611
2873,4158;0,0481739
2874,3799;0,0481695
2875,3442;0,0481682
2876,3083;0,0481834
2877,2727;0,0482215
2878,2368;0,0482841
2879,2012;0,0483721
2880,1653;0,0484873
2881,1296;0,048631
2882,0938;0,0488036
2883,0581;0,0490033
2884,0222;0,0492272
2884,9866;0,0494726
2885,9507;0,0497384
2886,9150;0,0500246
2887,8792;0,050331
2888,8435;0,0506559
2889,8076;0,0509949
2890,7720;0,0513412
2891,7361;0,0516869
2892,7004;0,0520257
2893,6646;0,0523552
2894,6289;0,0526781
2895,5930;0,0530019
2896,5574;0,0533358
2897,5215;0,0536859
2898,4858;0,0540523
2899,4500;0,0544288
2900,4143;0,0548059
2901,3784;0,0551766
2902,3428;0,055542
2903,3069;0,0559131
2904,2712;0,0563094
2905,2354;0,0567551
2906,1997;0,0572734
2907,1638;0,057884
2908,1282;0,0586013
2909,0923;0,0594339
2910,0566;0,0603822
2911,0208;0,0614343
2911,9851;0,0625613
2912,9492;0,0637159
2913,9136;0,0648363
2914,8777;0,0658556
2915,8420;0,0667144
2916,8062;0,067371
2917,7705;0,0678066
2918,7346;0,0680241
2919,6990;0,0680414
2920,6631;0,0678839
2921,6274;0,0675776
2922,5916;0,0671449
2923,5559;0,0666022
2924,5200;0,0659607
2925,4844;0,0652287
2926,4485;0,0644149
2927,4128;0,0635321
2928,3770;0,062598
2929,3413;0,0616331
2930,3054;0,0606566
2931,2698;0,0596816
2932,2339;0,0587141
2933,1982;0,0577553
2934,1624;0,0568057
2935,1267;0,0558681
2936,0908;0,0549486
2937,0552;0,0540532
2938,0193;0,0531858
2938,9836;0,052346
2939,9478;0,0515315
2940,9121;0,0507409
2941,8762;0,0499774
2942,8406;0,0492496
2943,8047;0,0485711
2944,7690;0,0479564
2945,7332;0,0474168
2946,6975;0,0469561
2947,6616;0,0465688
2948,6260;0,0462411
2949,5901;0,0459545
2950,5544;0,0456906
2951,5186;0,0454347
2952,4829;0,0451769
2953,4470;0,0449111
2954,4114;0,0446324
2955,3755;0,0443347
2956,3398;0,0440113
2957,3040;0,0436557
2958,2683;0,0432638
2959,2324;0,0428348
2960,1968;0,0423714
2961,1609;0,0418777
2962,1252;0,0413576
2963,0894;0,0408138
2964,0537;0,040249
2965,0178;0,0396676
2965,9822;0,039077
2966,9463;0,0384876
2967,9106;0,0379098
2968,8748;0,0373501
2969,8391;0,0368094
2970,8032;0,0362841
2971,7676;0,0357706
2972,7317;0,0352691
2973,6960;0,0347848
2974,6602;0,0343249
2975,6245;0,0338939
2976,5886;0,0334913
2977,5530;0,0331125
2978,5171;0,0327537
2979,4814;0,032415
2980,4456;0,0321008
2981,4099;0,031816
2982,3740;0,0315623
2983,3384;0,0313356
2984,3025;0,0311286
2985,2668;0,0309339
2986,2310;0,030748
2987,1953;0,0305716
2988,1594;0,0304084
2989,1238;0,0302632
2990,0879;0,0301398
2991,0522;0,0300395
2992,0164;0,0299606
2992,9807;0,0298992
2993,9448;0,0298509
2994,9092;0,0298138
2995,8733;0,0297907
2996,8376;0,0297877
2997,8018;0,0298104
2998,7661;0,0298587
2999,7302;0,0299243
3000,6946;0,029994
3001,6587;0,0300562
3002,6230;0,030107
3003,5872;0,0301509
3004,5515;0,0301961
3005,5156;0,030247
3006,4800;0,0303001
3007,4441;0,0303457
3008,4084;0,0303752
3009,3726;0,0303871
3010,3369;0,030389
3011,3010;0,0303932
3012,2654;0,0304094
3013,2295;0,0304399
3014,1938;0,0304808
3015,1580;0,0305261
3016,1223;0,0305739
3017,0864;0,0306272
3018,0508;0,0306913
3019,0149;0,030769
3019,9792;0,0308585
3020,9434;0,0309547
3021,9077;0,0310534
3022,8718;0,0311542
3023,8362;0,0312614
3024,8003;0,0313808
3025,7646;0,0315158
3026,7288;0,0316643
3027,6931;0,0318188
3028,6572;0,0319682
3029,6216;0,0321026
3030,5857;0,0322163
3031,5500;0,0323109
3032,5142;0,0323958
3033,4785;0,0324849
3034,4426;0,0325914
3035,4070;0,0327225
3036,3711;0,0328768
3037,3354;0,0330456
3038,2996;0,0332177
3039,2639;0,0333852
3040,2280;0,0335468
3041,1924;0,0337077
3042,1565;0,0338749
3043,1208;0,034053
3044,0850;0,0342405
3045,0493;0,0344313
3046,0134;0,0346184
3046,9778;0,0347987
3047,9419;0,0349751
3048,9063;0,0351549
3049,8704;0,0353449
3050,8347;0,0355465
3051,7988;0,0357542
3052,7632;0,035958
3053,7273;0,0361491
3054,6917;0,0363255
3055,6558;0,0364935
3056,6201;0,0366653
3057,5842;0,036852
3058,5486;0,0370589
3059,5127;0,0372829
3060,4771;0,0375151
3061,4412;0,0377452
3062,4055;0,037965
3063,3696;0,0381695
3064,3340;0,0383575
3065,2981;0,0385306
3066,2625;0,0386935
3067,2266;0,0388534
3068,1909;0,0390194
3069,1550;0,0391996
3070,1194;0,0393981
3071,0835;0,0396131
3072,0479;0,0398375
3073,0120;0,0400616
3073,9763;0,0402771
3074,9404;0,0404802
3075,9048;0,0406719
3076,8689;0,0408567
3077,8333;0,0410384
3078,7974;0,0412185
3079,7617;0,0413958
3080,7258;0,0415682
3081,6902;0,0417364
3082,6543;0,0419042
3083,6187;0,0420778
3084,5828;0,0422625
3085,5471;0,0424596
3086,5112;0,042666
3087,4756;0,0428761
3088,4397;0,0430846
3089,4041;0,0432893
3090,3682;0,0434906
3091,3325;0,0436905
3092,2966;0,04389
3093,2610;0,0440891
3094,2251;0,0442876
3095,1895;0,0444861
3096,1536;0,0446867
3097,1179;0,0448914
3098,0820;0,0451007
3099,0464;0,0453121
3100,0105;0,0455218
3100,9749;0,0457272
3101,9390;0,0459289
3102,9033;0,0461306
3103,8674;0,0463374
3104,8318;0,0465531
3105,7959;0,0467781
3106,7603;0,0470113
3107,7244;0,0472507
3108,6887;0,0474957
3109,6528;0,0477461
3110,6172;0,0480008
3111,5813;0,048257
3112,5457;0,04851
3113,5098;0,0487562
3114,4741;0,0489943
3115,4382;0,0492262
3116,4026;0,0494552
3117,3667;0,0496837
3118,3311;0,0499122
3119,2952;0,0501401
3120,2595;0,0503681
3121,2236;0,0505982
3122,1880;0,0508338
3123,1521;0,0510768
3124,1165;0,0513262
3125,0806;0,0515788
3126,0449;0,0518315
3127,0090;0,0520834
3127,9734;0,0523366
3128,9375;0,0525945
3129,9019;0,0528591
3130,8660;0,0531299
3131,8303;0,0534043
3132,7944;0,0536794
3133,7588;0,0539538
3134,7229;0,0542279
3135,6873;0,0545026
3136,6514;0,0547772
3137,6157;0,0550493
3138,5798;0,0553158
3139,5442;0,0555754
3140,5083;0,0558304
3141,4727;0,056087
3142,4368;0,0563532
3143,4011;0,0566348
3144,3652;0,0569325
3145,3296;0,0572403
3146,2937;0,0575483
3147,2581;0,0578465
3148,2222;0,0581302
3149,1865;0,0584019
3150,1506;0,05867
3151,1150;0,0589438
3152,0791;0,0592291
3153,0435;0,0595256
3154,0076;0,0598285
3154,9719;0,0601322
3155,9360;0,0604339
3156,9004;0,0607343
3157,8645;0,0610361
3158,8289;0,0613414
3159,7930;0,0616494
3160,7573;0,0619574
3161,7214;0,0622622
3162,6858;0,0625617
3163,6499;0,0628561
3164,6143;0,063148
3165,5784;0,0634409
3166,5427;0,0637382
3167,5068;0,0640415
3168,4712;0,0643502
3169,4353;0,0646133
3170,3997;0,0649262
3171,3638;0,0652393
3172,3281;0,0655524
3173,2922;0,0658656
3174,2566;0,0661776
3175,2207;0,0664852
3176,1851;0,0667849
3177,1492;0,0670758
3178,1135;0,0673603
3179,0776;0,0676439
3180,0420;0,0679317
3181,0061;0,0682254
3181,9705;0,0685229
3182,9346;0,0688202
3183,8989;0,069114
3184,8630;0,0694038
3185,8274;0,069691
3186,7915;0,0699775
3187,7559;0,0702649
3188,7200;0,0705547
3189,6843;0,0708494
3190,6484;0,0711517
3191,6128;0,0714623
3192,5769;0,0717773
3193,5413;0,0720882
3194,5054;0,0723853
3195,4697;0,072663
3196,4338;0,072924
3197,3982;0,0731791
3198,3623;0,0734421
3199,3267;0,0737218
3200,2908;0,0740176
3201,2551;0,0743202
3202,2192;0,0746173
3203,1836;0,0749007
3204,1477;0,0751703
3205,1121;0,075433
3206,0762;0,0756979
3207,0405;0,0759711
3208,0046;0,076253
3208,9690;0,0765394
3209,9331;0,0768246
3210,8975;0,0771046
3211,8616;0,0773782
3212,8259;0,0776463
3213,7900;0,0779106
3214,7544;0,0781725
3215,7185;0,0784328
3216,6829;0,0786923
3217,6470;0,0789522
3218,6113;0,0792134
3219,5754;0,0794772
3220,5398;0,079744
3221,5039;0,0800136
3222,4683;0,0802851
3223,4324;0,0805572
3224,3967;0,0808292
3225,3608;0,081101
3226,3252;0,081374
3227,2893;0,0816487
3228,2537;0,0819237
3229,2178;0,0821945
3230,1821;0,0824558
3231,1462;0,0827043
3232,1106;0,0829416
3233,0747;0,0831755
3234,0391;0,0834166
3235,0032;0,0836742
3235,9675;0,0839516
3236,9316;0,0842455
3237,8960;0,0845476
3238,8601;0,0848488
3239,8245;0,0851425
3240,7886;0,0854265
3241,7529;0,0857017
3242,7170;0,0859711
3243,6814;0,0862371
3244,6455;0,0865015
3245,6099;0,0867654
3246,5740;0,0870309
3247,5383;0,0873009
3248,5024;0,0875787
3249,4668;0,0878667
3250,4309;0,0881651
3251,3953;0,088472
3252,3594;0,0887847
3253,3237;0,0891011
3254,2878;0,0894199
3255,2522;0,0897396
3256,2163;0,0900576
3257,1807;0,0903694
3258,1448;0,0906715
3259,1091;0,0909635
3260,0732;0,0912504
3261,0376;0,0915406
3262,0017;0,0918417
3262,9661;0,0921563
3263,9302;0,0924797
3264,8945;0,0928021
3265,8586;0,0931129
3266,8230;0,0934042
3267,7871;0,0936729
3268,7515;0,0939189
3269,7156;0,0941428
3270,6799;0,0943448
3271,6440;0,0945252
3272,6084;0,0946871
3273,5725;0,0948369
3274,5369;0,0949841
3275,5010;0,0951365
3276,4653;0,0952961
3277,4294;0,0954572
3278,3938;0,0956091
3279,3579;0,0957417
3280,3223;0,0958516
3281,2864;0,0959449
3282,2507;0,0960343
3283,2148;0,0961325
3284,1792;0,0962451
3285,1433;0,0963676
3286,1077;0,0964883
3287,0718;0,0965935
3288,0361;0,0966746
3289,0002;0,0967296
3289,9646;0,0967628
3290,9287;0,0967809
3291,8931;0,0967896
3292,8572;0,0967922
3293,8215;0,0967906
3294,7856;0,0967864
3295,7500;0,0967823
3296,7141;0,0967814
3297,6785;0,0967862
3298,6426;0,0967973
3299,6069;0,0968124
3300,5710;0,096828
3301,5354;0,0968398
3302,4995;0,0968452
3303,4639;0,0968438
3304,4280;0,0968365
3305,3923;0,0968246
3306,3564;0,0968085
3307,3208;0,0967882
3308,2849;0,0967645
3309,2493;0,0967411
3310,2134;0,0967247
3311,1777;0,0967236
3312,1418;0,0967445
3313,1062;0,0967898
3314,0703;0,0968569
3315,0347;0,0969408
3315,9988;0,0970365
3316,9631;0,0971421
3317,9272;0,0972577
3318,8916;0,0973834
3319,8557;0,0975167
3320,8201;0,0976522
3321,7842;0,0977837
3322,7485;0,0979077
3323,7126;0,0980248
3324,6770;0,0981391
3325,6411;0,0982549
3326,6055;0,0983742
3327,5696;0,0984954
3328,5339;0,0986145
3329,4980;0,0987264
3330,4624;0,098825
3331,4265;0,0989037
3332,3909;0,0989564
3333,3550;0,0989787
3334,3193;0,0989697
3335,2834;0,098933
3336,2478;0,0988737
3337,2119;0,0987958
3338,1763;0,0987002
3339,1404;0,0985852
3340,1047;0,0984493
3341,0688;0,0982936
3342,0332;0,0981226
3342,9973;0,0979418
3343,9617;0,0977552
3344,9258;0,0975642
3345,8901;0,0973683
3346,8542;0,0971662
3347,8186;0,0969563
3348,7827;0,0967367
3349,7471;0,0965042
3350,7112;0,0962559
3351,6755;0,0959922
3352,6396;0,0957186
3353,6040;0,0954462
3354,5681;0,0951868
3355,5325;0,094948
3356,4966;0,0947283
3357,4609;0,094518
3358,4250;0,0943039
3359,3894;0,0940766
3360,3535;0,0938341
3361,3179;0,0935822
3362,2820;0,093329
3363,2463;0,0930797
3364,2104;0,0928338
3365,1748;0,0925859
3366,1389;0,0923305
3367,1033;0,0920655
3368,0674;0,0917939
3369,0317;0,0915212
3369,9958;0,0912525
3370,9602;0,09099
3371,9243;0,0907327
3372,8887;0,0904774
3373,8528;0,0902203
3374,8171;0,0899578
3375,7813;0,089688
3376,7456;0,089411
3377,7097;0,0891303
3378,6741;0,0888517
3379,6382;0,088581
3380,6025;0,0883211
3381,5667;0,0880706
3382,5310;0,0878248
3383,4951;0,0875795
3384,4595;0,0873348
3385,4236;0,0870948
3386,3879;0,0868645
3387,3521;0,0866443
3388,3164;0,0864275
3389,2805;0,0862025
3390,2449;0,0859599
3391,2090;0,0856985
3392,1733;0,0854275
3393,1375;0,0851617
3394,1018;0,0849127
3395,0659;0,0846816
3396,0303;0,0844587
3396,9944;0,0842286
3397,9587;0,0839788
3398,9229;0,0837049
3399,8872;0,0834116
3400,8513;0,0831086
3401,8157;0,0828061
3402,7798;0,0825109
3403,7441;0,0822252
3404,7083;0,0819469
3405,6726;0,0816717
3406,6367;0,0813946
3407,6011;0,0811108
3408,5652;0,0808167
3409,5295;0,0805098
3410,4937;0,0801897
3411,4580;0,0798591
3412,4221;0,0795248
3413,3865;0,0791962
3414,3506;0,0788809
3415,3149;0,0785798
3416,2791;0,0782843
3417,2434;0,0779786
3418,2075;0,0776471
3419,1719;0,0772838
3420,1360;0,0768976
3421,1003;0,0765086
3422,0645;0,0761371
3423,0288;0,0757925
3423,9929;0,0754693
3424,9573;0,0751521
3425,9214;0,0748251
3426,8857;0,0744797
3427,8499;0,0741174
3428,8142;0,0737463
3429,7783;0,0733754
3430,7427;0,07301
3431,7068;0,0726507
3432,6711;0,0722955
3433,6353;0,0719429
3434,5996;0,0715926
3435,5637;0,0712448
3436,5281;0,0708979
3437,4922;0,0705492
3438,4565;0,0701968
3439,4207;0,0698431
3440,3850;0,0694944
3441,3491;0,069156
3442,3135;0,0688251
3443,2776;0,0684884
3444,2419;0,0681273
3445,2061;0,0677298
3446,1704;0,0673019
3447,1345;0,0668678
3448,0989;0,0664576
3449,0630;0,066088
3450,0273;0,0657532
3450,9915;0,0654305
3451,9558;0,0650958
3452,9199;0,0647367
3453,8843;0,0643574
3454,8484;0,0639726
3455,8127;0,0635971
3456,7769;0,0632371
3457,7412;0,0628893
3458,7053;0,0625454
3459,6697;0,0621979
3460,6338;0,0618425
3461,5981;0,0614785
3462,5623;0,0611061
3463,5266;0,0607256
3464,4907;0,0603374
3465,4551;0,0599439
3466,4192;0,0595502
3467,3835;0,059164
3468,3477;0,0587926
3469,3120;0,0584384
3470,2761;0,0580966
3471,2405;0,0577562
3472,2046;0,0574056
3473,1689;0,0570409
3474,1331;0,0566703
3475,0974;0,0563103
3476,0615;0,0559755
3477,0259;0,0556672
3477,9900;0,0553704
3478,9543;0,0550608
3479,9185;0,0547185
3480,8828;0,05434
3481,8469;0,0539409
3482,8113;0,0535449
3483,7754;0,0531678
3484,7397;0,0528076
3485,7039;0,0524493
3486,6682;0,0520772
3487,6323;0,0516878
3488,5967;0,0512929
3489,5608;0,0509127
3490,5251;0,0505612
3491,4893;0,0502368
3492,4536;0,0499232
3493,4177;0,049601
3494,3821;0,0492619
3495,3462;0,0489174
3496,3105;0,0485927
3497,2747;0,0483094
3498,2390;0,0480666
3499,2031;0,0478358
3500,1675;0,0475724
3501,1316;0,0472394
3502,0959;0,0468308
3503,0601;0,0463805
3504,0244;0,0459436
3504,9885;0,0455596
3505,9529;0,0452304
3506,9170;0,0449261
3507,8813;0,0446081
3508,8455;0,0442525
3509,8098;0,0438622
3510,7739;0,0434611
3511,7383;0,043076
3512,7024;0,0427204
3513,6667;0,0423925
3514,6309;0,0420843
3515,5952;0,0417916
3516,5593;0,0415161
3517,5237;0,0412608
3518,4878;0,0410221
3519,4521;0,0407875
3520,4163;0,0405396
3521,3806;0,0402642
3522,3447;0,0399568
3523,3091;0,0396218
3524,2732;0,0392664
3525,2375;0,0388925
3526,2017;0,0384969
3527,1660;0,0380801
3528,1301;0,0376552
3529,0945;0,0372471
3530,0586;0,036879
3531,0229;0,0365561
3531,9871;0,0362616
3532,9514;0,0359662
3533,9155;0,0356452
3534,8799;0,0352923
3535,8440;0,0349252
3536,8083;0,0345773
3537,7725;0,0342818
3538,7368;0,0340546
3539,7009;0,0338877
3540,6653;0,0337513
3541,6294;0,0336011
3542,5938;0,0333876
3543,5579;0,0330715
3544,5222;0,0326474
3545,4863;0,0321578
3546,4507;0,0316761
3547,4148;0,0312597
3548,3792;0,0309152
3549,3433;0,030603
3550,3076;0,0302705
3551,2717;0,0298877
3552,2361;0,029468
3553,2002;0,0290606
3554,1646;0,0287157
3555,1287;0,0284506
3556,0930;0,0282436
3557,0571;0,0280577
3558,0215;0,0278693
3558,9856;0,0276845
3559,9500;0,0275312
3560,9141;0,0274305
3561,8784;0,0273673
3562,8425;0,0272798
3563,8069;0,0270705
3564,7710;0,0266377
3565,7354;0,025941
3566,6995;0,0250796
3567,6638;0,0242753
3568,6279;0,0237096
3569,5923;0,0234
3570,5564;0,0232421
3571,5208;0,0231144
3572,4849;0,0229406
3573,4492;0,0227007
3574,4133;0,0224159
3575,3777;0,0221209
3576,3418;0,0218402
3577,3062;0,0215829
3578,2703;0,0213542
3579,2346;0,0211679
3580,1987;0,021043
3581,1631;0,0209847
3582,1272;0,0209654
3583,0916;0,0209216
3584,0557;0,0207681
3585,0200;0,0204256
3585,9841;0,0198731
3586,9485;0,0192086
3587,9126;0,0186323
3588,8770;0,0183027
3589,8411;0,0182202
3590,8054;0,0182611
3591,7695;0,0182794
3592,7339;0,0181758
3593,6980;0,017927
3594,6624;0,0175853
3595,6265;0,0172363
3596,5908;0,0169328
3597,5549;0,0166625
3598,5193;0,0163767
3599,4834;0,0160476
3600,4478;0,0157029
3601,4119;0,0154055
3602,3762;0,015197
3603,3403;0,0150591
3604,3047;0,0149232
3605,2688;0,014708
3606,2332;0,0143627
3607,1973;0,0138987
3608,1616;0,0133911
3609,1257;0,0129347
3610,0901;0,0125854
3611,0542;0,0123434
3612,0186;0,0121791
3612,9827;0,0120629
3613,9470;0,0119699
3614,9111;0,0118671
3615,8755;0,0117051
3616,8396;0,0114308
3617,8040;0,0110272
3618,7681;0,0105596
3619,7324;0,0101769
3620,6965;0,0100217
3621,6609;0,0101246
3622,6250;0,0103937
3623,5894;0,0106817
3624,5535;0,0108429
3625,5178;0,0107502
3626,4819;0,0103027
3627,4463;0,0094812
3628,4104;0,00846181
3629,3748;0,00759041
3630,3389;0,0070943
3631,3032;0,00691031
3632,2673;0,00683234
3633,2317;0,00669709
3634,1958;0,00644842
3635,1602;0,0061184
3636,1243;0,00577474
3637,0886;0,00546929
3638,0527;0,00521778
3639,0171;0,00501689
3639,9812;0,00487276
3640,9456;0,00480936
3641,9097;0,00484926
3642,8740;0,00498651
3643,8381;0,00517542
3644,8025;0,00533598
3645,7666;0,00535525
3646,7310;0,00507857
3647,6951;0,00435924
3648,6594;0,00327291
3649,6235;0,00224512
3650,5879;0,00166111
3651,5520;0,00150632
3652,5164;0,0015311
3653,4805;0,00150659
3654,4448;0,00132081
3655,4089;0,000987806
3656,3733;0,000618736
3657,3374;0,000342343
3658,3018;0,000210308
3659,2659;0,000177905
3660,2302;0,000170256
3661,1943;0,000153997
3662,1587;0,000155566
3663,1228;0,00022402
3664,0872;0,000375013
3665,0513;0,000566161
3666,0156;0,000716549
3666,9797;0,000748453
3667,9441;0,000629143
3668,9082;0,000405818
3669,8726;0,000195746
3670,8367;9,01938E-05
3671,8010;6,14626E-05
3672,7651;-1,39444E-05
3673,7295;-0,000262119
3674,6936;-0,000717393
3675,6580;-0,0012551
3676,6221;-0,00165394
3677,5864;-0,00179266
3678,5505;-0,0017256
3679,5149;-0,00156911
3680,4790;-0,00139168
3681,4434;-0,00119732
3682,4075;-0,000966549
3683,3718;-0,000702524
3684,3359;-0,000447235
3685,3003;-0,000265085
3686,2644;-0,000215356
3687,2288;-0,000329774
3688,1929;-0,0005876
3689,1572;-0,000889339
3690,1213;-0,00109196
3691,0857;-0,00111974
3692,0498;-0,00100863
3693,0142;-0,000839263
3693,9783;-0,000669309
3694,9426;-0,000519981
3695,9067;-0,00039498
3696,8711;-0,000301936
3697,8352;-0,000260068
3698,7996;-0,000291255
3699,7637;-0,0004003
3700,7280;-0,00055526
3701,6921;-0,000685601
3702,6565;-0,000714085
3703,6206;-0,000605152
3704,5850;-0,000384897
3705,5491;-0,00012085
3706,5134;0,000105647
3707,4775;0,000207119
3708,4419;8,33145E-05
3709,4060;-0,000358166
3710,3704;-0,00110436
3711,3345;-0,00193632
3712,2988;-0,00253667
3713,2629;-0,00273888
3714,2273;-0,0025944
3715,1914;-0,00225288
3716,1558;-0,00185102
3717,1199;-0,00147279
3718,0842;-0,00115128
3719,0483;-0,000884901
3720,0127;-0,000658497
3720,9768;-0,000464204
3721,9412;-0,00031218
3722,9053;-0,000221805
3723,8696;-0,000197678
3724,8337;-0,000210539
3725,7981;-0,000206369
3726,7622;-0,000142181
3727,7266;-1,50831E-05
3728,6907;0,000140651
3729,6550;0,000275944
3730,6191;0,000342036
3731,5835;0,000287234
3732,5476;4,86254E-05
3733,5120;-0,000422012
3734,4761;-0,00106933
3735,4404;-0,00167664
3736,4045;-0,00199674
3737,3689;-0,00195668
3738,3330;-0,00168167
3739,2974;-0,00137488
3740,2615;-0,00121462
3741,2258;-0,00130826
3742,1899;-0,00166351
3743,1543;-0,00215344
3744,1184;-0,0025293
3745,0828;-0,00257797
3746,0469;-0,00231366
3747,0112;-0,00195629
3747,9753;-0,00176462
3748,9397;-0,00191667
3749,9038;-0,00242359
3750,8682;-0,00305263
3751,8323;-0,00344762
3752,7966;-0,00344763
3753,7607;-0,00317659
3754,7251;-0,00285744
3755,6892;-0,0026575
3756,6536;-0,00264613
3757,6177;-0,00279633
3758,5820;-0,0030035
3759,5461;-0,00314199
3760,5105;-0,00314334
3761,4746;-0,00302645
3762,4390;-0,00286134
3763,4031;-0,0027187
3764,3674;-0,0026435
3765,3315;-0,00265234
3766,2959;-0,00274199
3767,2600;-0,00289892
3768,2244;-0,00310114
3769,1885;-0,0033113
3770,1528;-0,00347357
3771,1169;-0,00353256
3772,0813;-0,00346648
3773,0454;-0,00330385
3774,0098;-0,0031086
3774,9739;-0,00295067
3775,9382;-0,00288134
3776,9023;-0,00291718
3777,8667;-0,00303053
3778,8308;-0,00315511
3779,7952;-0,00322112
3780,7593;-0,00320089
3781,7236;-0,00312221
3782,6877;-0,00304248
3783,6521;-0,00301384
3784,6162;-0,00305983
3785,5806;-0,00316741
3786,5447;-0,00329504
3787,5090;-0,00339255
3788,4731;-0,00342286
3789,4375;-0,00337425
3790,4016;-0,00325926
3791,3660;-0,00310299
3792,3301;-0,00292782
3793,2944;-0,00274304
3794,2585;-0,00254621
3795,2229;-0,00233685
3796,1870;-0,00213359
3797,1514;-0,0019806
3798,1155;-0,00193517
3799,0798;-0,00203916
3800,0439;-0,00228292
3801,0083;-0,00258612
3801,9724;-0,00284007
3802,9368;-0,00299963
3803,9009;-0,00311916
3804,8652;-0,00328824
3805,8293;-0,0035366
3806,7937;-0,00378389
3807,7578;-0,00388184
3808,7222;-0,00373692
3809,6863;-0,00339214
3810,6506;-0,00298412
3811,6147;-0,00264608
3812,5791;-0,00244575
3813,5432;-0,00236993
3814,5076;-0,00234288
3815,4717;-0,00227918
3816,4360;-0,00215658
3817,4001;-0,00204959
3818,3645;-0,00208438
3819,3286;-0,00234631
3820,2930;-0,00279197
3821,2571;-0,00323899
3822,2214;-0,00349231
3823,1855;-0,00349415
3824,1499;-0,00332882
3825,1140;-0,00312127
3826,0784;-0,00295627
3827,0425;-0,00285582
3828,0068;-0,00279457
3828,9709;-0,00273064
3829,9353;-0,00263357
3830,8994;-0,00249725
3831,8638;-0,00233745
3832,8279;-0,00218276
3833,7922;-0,00206677
3834,7563;-0,00202311
3835,7207;-0,00208056
3836,6848;-0,00225233
3837,6492;-0,00251853
3838,6133;-0,00281976
3839,5776;-0,00308721
3840,5417;-0,00328686
3841,5061;-0,00342439
3842,4702;-0,00350853
3843,4346;-0,00351881
3844,3987;-0,00340997
3845,3630;-0,0031486
3846,3271;-0,00274932
3847,2915;-0,00228189
3848,2556;-0,00185169
3849,2200;-0,00157831
3850,1841;-0,00158872
3851,1484;-0,00200884
3852,1125;-0,00287336
3853,0769;-0,00391298
3854,0410;-0,00459362
3855,0054;-0,00464101
3855,9695;-0,004234
3856,9338;-0,00367991
3857,8979;-0,00318362
3858,8623;-0,0028281
3859,8264;-0,00262084
3860,7908;-0,0025351
3861,7549;-0,00253341
3862,7192;-0,00257431
3863,6833;-0,00261458
3864,6477;-0,00262367
3865,6118;-0,0026018
3866,5762;-0,002578
3867,5403;-0,00259028
3868,5046;-0,00266708
3869,4688;-0,00281561
3870,4331;-0,00301406
3871,3972;-0,00321323
3872,3616;-0,0033564
3873,3257;-0,00340736
3874,2900;-0,00336502
3875,2542;-0,00325783
3876,2185;-0,00312653
3877,1826;-0,00300675
3878,1470;-0,00291802
3879,1111;-0,00286281
3880,0754;-0,00283604
3881,0396;-0,00283986
3882,0039;-0,00289074
3882,9680;-0,00300525
3883,9324;-0,0031705
3884,8965;-0,00332948
3885,8608;-0,00340989
3886,8250;-0,00338173
3887,7893;-0,00328657
3888,7534;-0,00320837
3889,7178;-0,00321382
3890,6819;-0,00330137
3891,6462;-0,0033895
3892,6104;-0,00337109
3893,5747;-0,00320247
3894,5388;-0,00293323
3895,5032;-0,00265628
3896,4673;-0,00244782
3897,4316;-0,00234311
3898,3958;-0,00234313
3899,3601;-0,00243362
3900,3242;-0,00260359
3901,2886;-0,0028505
3902,2527;-0,00316371
3903,2170;-0,00349889
3904,1812;-0,00377907
3905,1455;-0,00393746
3906,1096;-0,00396048
3907,0740;-0,00388604
3908,0381;-0,00376811
3909,0024;-0,00364485
3909,9666;-0,00352842
3910,9309;-0,00341334
3911,8950;-0,0032932
3912,8594;-0,00317453
3913,8235;-0,00307976
3914,7878;-0,0030378
3915,7520;-0,00306581
3916,7163;-0,00315025
3917,6804;-0,00324382
3918,6448;-0,003292
3919,6089;-0,00327158
3920,5732;-0,00320504
3921,5374;-0,0031407
3922,5017;-0,00311911
3923,4658;-0,00314714
3924,4302;-0,00319324
3925,3943;-0,0032107
3926,3586;-0,00317451
3927,3228;-0,00310078
3928,2871;-0,00303574
3929,2512;-0,00302855
3930,2156;-0,00310437
3931,1797;-0,00324746
3932,1440;-0,00340548
3933,1082;-0,00351902
3934,0725;-0,00355526
3935,0366;-0,00351791
3936,0010;-0,00343366
3936,9651;-0,00333437
3937,9294;-0,00324727
3938,8936;-0,00319154
3939,8579;-0,00317601
3940,8220;-0,00319555
3941,7864;-0,00322983
3942,7505;-0,00325099
3943,7148;-0,00324002
3944,6790;-0,00320064
3945,6433;-0,00315809
3946,6074;-0,00314409
3947,5718;-0,00317838
3948,5359;-0,00325679
3949,5002;-0,00335289
3950,4644;-0,00343428
3951,4287;-0,00348198
3952,3928;-0,00349749
3953,3572;-0,00349462
3954,3213;-0,00348682
3955,2856;-0,00348005
3956,2498;-0,0034738
3957,2141;-0,00346653
3958,1782;-0,00345981
3959,1426;-0,00345796
3960,1067;-0,00346425
3961,0710;-0,00347732
3962,0352;-0,00349121
3962,9995;-0,00349908
3963,9636;-0,00349786
3964,9280;-0,00348959
3965,8921;-0,00347927
3966,8564;-0,00347081
3967,8206;-0,00346465
3968,7849;-0,00345859
3969,7490;-0,00345107
3970,7134;-0,00344416
3971,6775;-0,0034435
3972,6418;-0,00345479
3973,6060;-0,00347904
3974,5703;-0,00351018
3975,5344;-0,0035373
3976,4988;-0,00355051
3977,4629;-0,00354664
3978,4272;-0,00353091
3979,3914;-0,00351397
3980,3557;-0,00350618
3981,3198;-0,00351252
3982,2842;-0,00353064
3983,2483;-0,0035528
3984,2126;-0,00357031
3985,1768;-0,00357759
3986,1411;-0,00357383
3987,1052;-0,00356205
3988,0696;-0,00354698
3989,0337;-0,00353295
3989,9980;-0,00352331
3990,9622;-0,00352039
3991,9265;-0,00352562
3992,8906;-0,00353897
3993,8550;-0,0035581
3994,8191;-0,00357828
3995,7834;-0,00359394
3996,7476;-0,00360118
3997,7119;-0,00359972
3998,6760;-0,0035924
3999,6404;-0,00358273
4000,6045;-0,00345812

##### Extended Information
[Comments]
Sample name
Comment
Username
Division
Organization;UNIVERSIDAD INDUSTRIAL DE SANTANDER

[Detailed Information]
Creation date;5/02/2025 11:21 a.m.

Data array type;Linear data array
Horizontal axis;Wavenumber [cm-1]
Vertical axis;Abs
Start;399,193 cm-1
End;4000,6 cm-1
Data interval;0,964233 cm-1
Data points;3736    

[Measurement Information]
Model name;FT/IR-4X1typeA
Serial No.;A035162111

Accessory;ATR PRO 4X
Accessory S/N;A021162126
Incident angle;45 deg

Measurement date;5/02/2025 11:21 a.m.

Light source;Standard
Detector;TGS
Accumulation;Auto (80)
Resolution;4 cm-1
Zero filling;On
Apodization;Cosine
Gain;Auto (8)
Aperture;Auto (7 mm)
Scan speed;Auto (2 mm/sec)
Filter;Auto (12800 Hz)

