TITLE;
DATA TYPE;INFRARED SPECTRUM
ORIGIN;JASCO
OWNER;
DATE;25/03/18
TIME;10:28:45
SPECTROMETER/DATA SYSTEM;
LOCALE;9226
RESOLUTION;
DELTAX;0,964233
XUNITS;1/CM
YUNITS;ABSORBANCE
FIRSTX;  399,1927
LASTX; 4000,6047
NPOINTS;    3736
FIRSTY;     0,16423
MAXY;     0,21842
MINY;     0,01129
XYDATA
399,1927;0,164225
400,1569;0,166462
401,1211;0,167632
402,0854;0,167941
403,0496;0,167671
404,0138;0,167037
404,9781;0,166194
405,9423;0,165269
406,9065;0,164391
407,8708;0,16371
408,8350;0,1634
409,7992;0,163619
410,7635;0,164414
411,7277;0,16562
412,6919;0,166865
413,6562;0,167743
414,6204;0,168013
415,5846;0,167705
416,5489;0,167163
417,5131;0,167036
418,4773;0,167991
419,4416;0,170033
420,4058;0,172293
421,3700;0,173877
422,3343;0,174516
423,2985;0,174425
424,2627;0,173965
425,2270;0,173455
426,1912;0,173072
427,1554;0,172822
428,1197;0,172599
429,0839;0,172295
430,0481;0,171878
431,0124;0,171402
431,9766;0,170959
432,9408;0,170612
433,9051;0,170359
434,8693;0,170134
435,8335;0,16986
436,7978;0,16949
437,7620;0,169023
438,7262;0,168491
439,6905;0,167925
440,6547;0,167356
441,6189;0,166828
442,5832;0,166406
443,5474;0,166171
444,5116;0,166163
445,4759;0,16634
446,4401;0,166573
447,4043;0,166695
448,3686;0,16657
449,3328;0,166158
450,2970;0,165526
451,2613;0,164814
452,2255;0,164146
453,1897;0,163565
454,1540;0,163014
455,1182;0,162405
456,0824;0,1617
457,0467;0,160983
458,0109;0,160436
458,9751;0,160221
459,9394;0,160358
460,9036;0,160729
461,8678;0,161172
462,8321;0,161547
463,7963;0,161752
464,7605;0,16171
465,7248;0,161377
466,6890;0,16076
467,6532;0,159925
468,6175;0,158983
469,5817;0,158055
470,5459;0,157258
471,5102;0,156686
472,4744;0,156404
473,4386;0,156433
474,4029;0,156747
475,3671;0,157273
476,3313;0,157897
477,2956;0,158484
478,2598;0,158901
479,2240;0,159077
480,1883;0,159045
481,1525;0,158935
482,1167;0,158917
483,0810;0,159112
484,0452;0,159523
485,0094;0,160049
485,9737;0,160558
486,9379;0,160975
487,9021;0,161302
488,8664;0,161579
489,8306;0,161831
490,7948;0,162042
491,7591;0,162182
492,7233;0,162257
493,6875;0,162335
494,6518;0,162516
495,6160;0,162867
496,5802;0,163371
497,5445;0,163932
498,5087;0,164422
499,4729;0,164738
500,4372;0,164859
501,4014;0,164855
502,3656;0,164854
503,3299;0,164972
504,2941;0,165251
505,2583;0,165658
506,2226;0,166126
507,1868;0,166602
508,1510;0,167078
509,1153;0,167583
510,0795;0,168149
511,0437;0,168778
512,0080;0,169435
512,9722;0,170073
513,9365;0,170671
514,9007;0,171259
515,8649;0,171901
516,8292;0,172638
517,7934;0,173428
518,7576;0,174134
519,7219;0,174604
520,6861;0,174766
521,6503;0,174671
522,6146;0,174462
523,5788;0,174296
524,5430;0,174278
525,5073;0,17442
526,4715;0,174644
527,4357;0,174852
528,4000;0,175002
529,3642;0,175127
530,3284;0,175286
531,2927;0,175492
532,2569;0,175674
533,2211;0,175698
534,1854;0,175444
535,1496;0,174897
536,1138;0,174184
537,0781;0,173526
538,0423;0,173125
539,0065;0,173067
539,9708;0,173278
540,9350;0,173579
541,8992;0,173778
542,8635;0,173769
543,8277;0,173562
544,7919;0,173261
545,7562;0,173006
546,7204;0,172905
547,6846;0,173001
548,6489;0,173271
549,6131;0,173653
550,5773;0,17408
551,5416;0,174498
552,5058;0,174885
553,4700;0,175248
554,4343;0,17561
555,3985;0,17599
556,3627;0,176381
557,3270;0,176729
558,2912;0,176952
559,2554;0,176962
560,2197;0,17671
561,1839;0,176212
562,1481;0,17555
563,1124;0,174847
564,0766;0,174219
565,0408;0,173739
566,0051;0,173416
566,9693;0,173209
567,9335;0,173054
568,8978;0,172902
569,8620;0,172736
570,8262;0,172576
571,7905;0,172452
572,7547;0,172381
573,7189;0,172355
574,6832;0,172338
575,6474;0,17229
576,6116;0,172173
577,5759;0,171973
578,5401;0,171697
579,5043;0,171371
580,4686;0,171035
581,4328;0,170732
582,3970;0,170498
583,3613;0,170341
584,3255;0,170241
585,2897;0,170155
586,2540;0,17004
587,2182;0,169881
588,1824;0,169693
589,1467;0,169509
590,1109;0,169357
591,0751;0,169241
592,0394;0,16914
593,0036;0,169021
593,9678;0,168856
594,9321;0,168638
595,8963;0,168371
596,8605;0,168066
597,8248;0,167737
598,7890;0,167394
599,7532;0,167044
600,7175;0,166692
601,6817;0,166342
602,6459;0,165999
603,6102;0,165668
604,5744;0,16535
605,5386;0,165025
606,5029;0,164652
607,4671;0,16418
608,4313;0,163576
609,3956;0,162856
610,3598;0,162084
611,3240;0,161341
612,2883;0,160683
613,2525;0,160112
614,2167;0,159576
615,1810;0,159004
616,1452;0,158343
617,1094;0,157585
618,0737;0,156754
619,0379;0,155887
620,0021;0,155009
620,9664;0,154129
621,9306;0,153248
622,8948;0,15237
623,8591;0,151505
624,8233;0,150666
625,7875;0,149855
626,7518;0,149084
627,7160;0,14837
628,6802;0,147732
629,6445;0,147178
630,6087;0,146693
631,5729;0,14624
632,5372;0,145774
633,5014;0,145266
634,4656;0,144715
635,4299;0,144148
636,3941;0,143599
637,3583;0,143093
638,3226;0,142634
639,2868;0,142215
640,2510;0,141822
641,2153;0,14145
642,1795;0,141099
643,1437;0,140769
644,1080;0,140456
645,0722;0,140148
646,0364;0,139828
647,0007;0,139484
647,9649;0,139114
648,9291;0,138729
649,8934;0,138357
650,8576;0,138028
651,8218;0,137773
652,7861;0,137617
653,7503;0,137573
654,7145;0,137647
655,6788;0,13783
656,6430;0,138103
657,6072;0,13843
658,5715;0,138758
659,5357;0,139017
660,4999;0,139143
661,4642;0,139116
662,4284;0,138982
663,3926;0,138831
664,3569;0,138746
665,3211;0,138746
666,2853;0,138739
667,2496;0,138493
668,2138;0,137747
669,1780;0,1365
670,1423;0,135045
671,1065;0,133625
672,0707;0,13229
673,0350;0,13099
673,9992;0,12967
674,9634;0,128315
675,9277;0,126959
676,8919;0,125654
677,8561;0,124432
678,8204;0,123284
679,7846;0,122196
680,7488;0,121168
681,7131;0,120222
682,6773;0,119378
683,6415;0,118646
684,6058;0,11802
685,5700;0,117488
686,5342;0,117036
687,4985;0,116644
688,4627;0,116287
689,4269;0,115943
690,3912;0,115597
691,3554;0,115242
692,3196;0,114876
693,2839;0,114504
694,2481;0,114133
695,2123;0,113778
696,1766;0,113452
697,1408;0,113164
698,1050;0,112904
699,0693;0,112647
700,0335;0,112363
700,9977;0,112029
701,9620;0,111641
702,9262;0,111214
703,8904;0,110768
704,8547;0,110317
705,8189;0,109863
706,7831;0,109396
707,7474;0,108912
708,7116;0,108414
709,6758;0,107919
710,6401;0,107446
711,6043;0,107004
712,5685;0,106587
713,5328;0,106176
714,4970;0,105749
715,4612;0,105382
716,4255;0,104869
717,3897;0,104312
718,3539;0,103713
719,3182;0,103074
720,2824;0,102394
721,2466;0,101679
722,2109;0,100942
723,1751;0,100202
724,1393;0,0994791
725,1036;0,098789
726,0678;0,0981413
727,0320;0,0975347
727,9963;0,0969553
728,9605;0,0963801
729,9247;0,095786
730,8890;0,0951621
731,8532;0,094517
732,8174;0,0938776
733,7817;0,0932785
734,7459;0,0927465
735,7101;0,0922896
736,6744;0,0918944
737,6386;0,0915346
738,6028;0,0911833
739,5671;0,0908241
740,5313;0,0904537
741,4955;0,090078
742,4598;0,0897034
743,4240;0,0893304
744,3882;0,0889531
745,3525;0,0885637
746,3167;0,0881578
747,2809;0,0877372
748,2452;0,0873085
749,2094;0,08688
750,1736;0,0864582
751,1379;0,0860475
752,1021;0,0856492
753,0663;0,0852623
754,0306;0,0848831
754,9948;0,0845071
755,9590;0,0841314
756,9233;0,0837572
757,8875;0,0833907
758,8517;0,0830398
759,8160;0,0827091
760,7802;0,0823964
761,7444;0,0820934
762,7087;0,0817897
763,6729;0,0814784
764,6371;0,0811593
765,6014;0,0808373
766,5656;0,0805169
767,5298;0,0801969
768,4941;0,0798692
769,4583;0,0795228
770,4225;0,0791521
771,3868;0,0787636
772,3510;0,0783766
773,3152;0,0780159
774,2795;0,0776993
775,2437;0,0774277
776,2079;0,0771832
777,1722;0,0769366
778,1364;0,07666
779,1006;0,0763385
780,0649;0,0759729
781,0291;0,0755773
781,9933;0,0751709
782,9576;0,0747713
783,9218;0,074391
784,8860;0,0740366
785,8503;0,0737114
786,8145;0,0734176
787,7787;0,0731574
788,7430;0,0729318
789,7072;0,0727376
790,6714;0,0725656
791,6357;0,0724009
792,5999;0,072228
793,5641;0,0720379
794,5284;0,0718316
795,4926;0,0716195
796,4568;0,0714147
797,4211;0,0712264
798,3853;0,0710569
799,3495;0,0709034
800,3138;0,0707624
801,2780;0,0706325
802,2422;0,0705124
803,2065;0,0703981
804,1707;0,0702818
805,1349;0,070154
806,0992;0,0700091
807,0634;0,0698484
808,0276;0,0696787
808,9919;0,0695071
809,9561;0,0693371
810,9203;0,0691677
811,8846;0,0689988
812,8488;0,0688358
813,8130;0,0686904
814,7773;0,0685748
815,7415;0,0684916
816,7057;0,0684286
817,6700;0,068361
818,6342;0,068263
819,5984;0,0681215
820,5627;0,0679443
821,5269;0,067757
822,4911;0,0675912
823,4554;0,0674703
824,4196;0,0674004
825,3839;0,0673697
826,3481;0,0673558
827,3123;0,0673357
828,2766;0,0672938
829,2408;0,0672234
830,2050;0,0671243
831,1693;0,0669972
832,1335;0,0668397
833,0977;0,0666484
834,0620;0,0664245
835,0262;0,0661797
835,9904;0,0659363
836,9547;0,0657187
837,9189;0,0655401
838,8831;0,0653933
839,8474;0,0652528
840,8116;0,0650885
841,7758;0,0648834
842,7401;0,0646417
843,7043;0,0643835
844,6685;0,0641311
845,6328;0,0638968
846,5970;0,0636814
847,5612;0,0634825
848,5255;0,0633033
849,4897;0,063153
850,4539;0,0630397
851,4182;0,0629621
852,3824;0,0629086
853,3466;0,0628648
854,3109;0,0628233
855,2751;0,0627865
856,2393;0,0627611
857,2036;0,0627507
858,1678;0,062753
859,1320;0,0627643
860,0963;0,0627857
861,0605;0,0628243
862,0247;0,0628879
862,9890;0,0629773
863,9532;0,0630847
864,9174;0,0631994
865,8817;0,0633168
866,8459;0,063443
867,8101;0,0635894
868,7744;0,0637634
869,7386;0,0639606
870,7028;0,0641638
871,6671;0,0643497
872,6313;0,0644955
873,5955;0,0645839
874,5598;0,0646049
875,5240;0,0645583
876,4882;0,064457
877,4525;0,0643302
878,4167;0,0642196
879,3809;0,0641691
880,3452;0,0642106
881,3094;0,064355
882,2736;0,0645936
883,2379;0,0649102
884,2021;0,0652949
885,1663;0,0657519
886,1306;0,0662954
887,0948;0,066938
888,0590;0,0676783
889,0233;0,068497
889,9875;0,0693622
890,9517;0,0702378
891,9160;0,0710908
892,8802;0,0718911
893,8444;0,0726088
894,8087;0,0732116
895,7729;0,0736685
896,7371;0,0739566
897,7014;0,0740675
898,6656;0,0740081
899,6298;0,0737972
900,5941;0,0734584
901,5583;0,0730166
902,5225;0,0724972
903,4868;0,0719275
904,4510;0,0713378
905,4152;0,0707603
906,3795;0,0702256
907,3437;0,0697597
908,3079;0,0693801
909,2722;0,0690945
910,2364;0,0689008
911,2007;0,0687884
912,1649;0,0687433
913,1292;0,0687521
914,0934;0,0688059
915,0576;0,0689007
916,0219;0,069035
916,9861;0,0692065
917,9503;0,0694104
918,9146;0,0696391
919,8788;0,0698832
920,8430;0,0701323
921,8073;0,0703754
922,7715;0,0706016
923,7357;0,0708022
924,7000;0,0709727
925,6642;0,0711142
926,6284;0,0712329
927,5927;0,0713373
928,5569;0,0714357
929,5211;0,0715341
930,4854;0,0716356
931,4496;0,0717409
932,4138;0,0718506
933,3781;0,0719664
934,3423;0,0720938
935,3065;0,0722421
936,2708;0,0724235
937,2350;0,07265
938,1992;0,0729297
939,1635;0,0732663
940,1277;0,0736598
941,0919;0,0741097
942,0562;0,0746159
943,0204;0,0751792
943,9846;0,0758
944,9489;0,0764787
945,9131;0,0772174
946,8773;0,0780223
947,8416;0,0789028
948,8058;0,0798687
949,7700;0,0809248
950,7343;0,0820693
951,6985;0,0832963
952,6627;0,0846016
953,6270;0,0859869
954,5912;0,0874596
955,5554;0,0890254
956,5197;0,0906798
957,4839;0,092404
958,4481;0,0941681
959,4124;0,0959425
960,3766;0,09771
961,3408;0,0994715
962,3051;0,101242
963,2693;0,103038
964,2335;0,104869
965,1978;0,106727
966,1620;0,108598
967,1262;0,110472
968,0905;0,112355
969,0547;0,114272
970,0189;0,11626
970,9832;0,118362
971,9474;0,12061
972,9116;0,123023
973,8759;0,125606
974,8401;0,12836
975,8043;0,131285
976,7686;0,134383
977,7328;0,137652
978,6970;0,141075
979,6613;0,144604
980,6255;0,148159
981,5897;0,151629
982,5540;0,154903
983,5182;0,157885
984,4824;0,160523
985,4467;0,16281
986,4109;0,164777
987,3751;0,166476
988,3394;0,16796
989,3036;0,169274
990,2678;0,170444
991,2321;0,171486
992,1963;0,172405
993,1605;0,173211
994,1248;0,17392
995,0890;0,174562
996,0532;0,175172
997,0175;0,17578
997,9817;0,176404
998,9459;0,177047
999,9102;0,177708
1000,8744;0,17839
1001,8386;0,179112
1002,8029;0,179908
1003,7671;0,180816
1004,7313;0,181875
1005,6956;0,183115
1006,6598;0,184562
1007,6240;0,186231
1008,5883;0,188124
1009,5525;0,190223
1010,5167;0,192487
1011,4810;0,194856
1012,4452;0,197256
1013,4094;0,199617
1014,3737;0,201878
1015,3379;0,203989
1016,3021;0,205914
1017,2664;0,207627
1018,2306;0,209117
1019,1948;0,21039
1020,1591;0,211478
1021,1233;0,212428
1022,0875;0,213291
1023,0518;0,214112
1024,0160;0,214912
1024,9802;0,215692
1025,9445;0,216433
1026,9087;0,217109
1027,8729;0,217687
1028,8372;0,21813
1029,8014;0,218393
1030,7656;0,218421
1031,7299;0,218154
1032,6941;0,217539
1033,6583;0,216548
1034,6226;0,215196
1035,5868;0,21355
1036,5510;0,211718
1037,5153;0,209829
1038,4795;0,208011
1039,4437;0,206362
1040,4080;0,204936
1041,3722;0,203746
1042,3364;0,202768
1043,3007;0,201958
1044,2649;0,201255
1045,2291;0,200592
1046,1934;0,199901
1047,1576;0,19912
1048,1218;0,198194
1049,0861;0,197091
1050,0503;0,195797
1051,0145;0,194318
1051,9788;0,192675
1052,9430;0,190894
1053,9072;0,188999
1054,8715;0,187002
1055,8357;0,184898
1056,7999;0,182662
1057,7642;0,180256
1058,7284;0,177647
1059,6926;0,174821
1060,6569;0,171802
1061,6211;0,168652
1062,5853;0,165467
1063,5496;0,16235
1064,5138;0,159399
1065,4780;0,156685
1066,4423;0,154242
1067,4065;0,15207
1068,3707;0,150136
1069,3350;0,148392
1070,2992;0,146782
1071,2634;0,145252
1072,2277;0,143756
1073,1919;0,142258
1074,1561;0,140727
1075,1204;0,13914
1076,0846;0,137487
1077,0488;0,135772
1078,0131;0,134019
1078,9773;0,132265
1079,9415;0,130556
1080,9058;0,128937
1081,8700;0,127444
1082,8342;0,126102
1083,7985;0,124921
1084,7627;0,123892
1085,7269;0,122994
1086,6912;0,122195
1087,6554;0,121469
1088,6196;0,120804
1089,5839;0,120207
1090,5481;0,119707
1091,5123;0,119329
1092,4766;0,11909
1093,4408;0,118982
1094,4050;0,118981
1095,3693;0,119054
1096,3335;0,119178
1097,2977;0,119341
1098,2620;0,119542
1099,2262;0,119777
1100,1904;0,120033
1101,1547;0,120287
1102,1189;0,120505
1103,0831;0,120652
1104,0474;0,120697
1105,0116;0,120622
1105,9758;0,120422
1106,9401;0,120108
1107,9043;0,119699
1108,8685;0,119206
1109,8328;0,118625
1110,7970;0,117928
1111,7612;0,117082
1112,7255;0,116062
1113,6897;0,114878
1114,6539;0,113577
1115,6182;0,112237
1116,5824;0,110941
1117,5466;0,109752
1118,5109;0,108694
1119,4751;0,107753
1120,4393;0,106882
1121,4036;0,106015
1122,3678;0,10508
1123,3320;0,104015
1124,2963;0,102779
1125,2605;0,101356
1126,2247;0,0997637
1127,1890;0,0980412
1128,1532;0,0962406
1129,1174;0,094411
1130,0817;0,0925893
1131,0459;0,0907987
1132,0101;0,0890543
1132,9744;0,0873723
1133,9386;0,0857762
1134,9028;0,0842979
1135,8671;0,0829725
1136,8313;0,0818312
1137,7955;0,0808959
1138,7598;0,0801763
1139,7240;0,0796711
1140,6882;0,0793698
1141,6525;0,0792543
1142,6167;0,0793002
1143,5809;0,0794781
1144,5452;0,0797577
1145,5094;0,0801124
1146,4736;0,0805241
1147,4379;0,0809847
1148,4021;0,0814929
1149,3663;0,0820485
1150,3306;0,0826456
1151,2948;0,0832693
1152,2590;0,0838958
1153,2233;0,0844969
1154,1875;0,0850429
1155,1517;0,0855027
1156,1160;0,0858403
1157,0802;0,086011
1158,0444;0,0859606
1159,0087;0,0856311
1159,9729;0,0849704
1160,9371;0,0839444
1161,9014;0,0825451
1162,8656;0,0807932
1163,8298;0,0787358
1164,7941;0,0764404
1165,7583;0,0739887
1166,7225;0,0714693
1167,6868;0,06897
1168,6510;0,0665677
1169,6152;0,0643201
1170,5795;0,0622599
1171,5437;0,0603972
1172,5079;0,0587274
1173,4722;0,0572405
1174,4364;0,0559284
1175,4006;0,0547855
1176,3649;0,053805
1177,3291;0,052975
1178,2933;0,052276
1179,2576;0,0516845
1180,2218;0,051178
1181,1860;0,0507401
1182,1503;0,050363
1183,1145;0,0500472
1184,0787;0,0497984
1185,0430;0,0496235
1186,0072;0,0495274
1186,9714;0,0495117
1187,9357;0,0495746
1188,8999;0,0497136
1189,8641;0,0499278
1190,8284;0,0502201
1191,7926;0,0505959
1192,7568;0,0510603
1193,7211;0,0516137
1194,6853;0,0522491
1195,6495;0,052952
1196,6138;0,0537025
1197,5780;0,0544795
1198,5422;0,0552649
1199,5065;0,0560252
1200,4707;0,0567962
1201,4349;0,057552
1202,3992;0,0582915
1203,3634;0,0590142
1204,3276;0,0597186
1205,2919;0,060403
1206,2561;0,0610671
1207,2203;0,061716
1208,1846;0,0623622
1209,1488;0,0630271
1210,1130;0,0637375
1211,0773;0,0645191
1212,0415;0,0653882
1213,0057;0,0663461
1213,9700;0,0673784
1214,9342;0,0684598
1215,8984;0,0695618
1216,8627;0,0706594
1217,8269;0,0717348
1218,7911;0,0727781
1219,7554;0,0737849
1220,7196;0,0747536
1221,6838;0,0756837
1222,6481;0,0765748
1223,6123;0,077426
1224,5765;0,0782367
1225,5408;0,0790068
1226,5050;0,0797374
1227,4692;0,0804305
1228,4335;0,0810876
1229,3977;0,081708
1230,3619;0,0822874
1231,3262;0,082818
1232,2904;0,0832917
1233,2546;0,0837029
1234,2189;0,0840514
1235,1831;0,0843419
1236,1473;0,0845811
1237,1116;0,0847746
1238,0758;0,0849245
1239,0400;0,0850302
1240,0043;0,0850893
1240,9685;0,0850991
1241,9327;0,0850569
1242,8970;0,0849585
1243,8612;0,0847988
1244,8254;0,0845728
1245,7897;0,0842789
1246,7539;0,0839207
1247,7181;0,083507
1248,6824;0,083049
1249,6466;0,0825572
1250,6108;0,0820394
1251,5751;0,081502
1252,5393;0,0809524
1253,5035;0,0803991
1254,4678;0,0798493
1255,4320;0,079304
1256,3962;0,0787552
1257,3605;0,0781875
1258,3247;0,0775842
1259,2889;0,0769348
1260,2532;0,0762387
1261,2174;0,0755033
1262,1816;0,0747383
1263,1459;0,0739512
1264,1101;0,0731451
1265,0743;0,0723209
1266,0386;0,0714793
1267,0028;0,0706211
1267,9670;0,0697466
1268,9313;0,068856
1269,8955;0,0679508
1270,8597;0,0670354
1271,8240;0,0661171
1272,7882;0,0652041
1273,7524;0,0643033
1274,7167;0,0634197
1275,6809;0,0625578
1276,6451;0,0617234
1277,6094;0,060922
1278,5736;0,0601559
1279,5378;0,0594214
1280,5021;0,0587095
1281,4663;0,0580103
1282,4305;0,0573195
1283,3948;0,0566415
1284,3590;0,0559889
1285,3232;0,0553791
1286,2875;0,0548293
1287,2517;0,0543537
1288,2159;0,0539614
1289,1802;0,053656
1290,1444;0,0534354
1291,1086;0,0532935
1292,0729;0,0532229
1293,0371;0,0532173
1294,0013;0,0532736
1294,9656;0,0533911
1295,9298;0,0535707
1296,8940;0,0538126
1297,8583;0,0541157
1298,8225;0,0544774
1299,7867;0,0548927
1300,7510;0,0553549
1301,7152;0,0558562
1302,6794;0,0563896
1303,6437;0,0569504
1304,6079;0,057537
1305,5721;0,0581489
1306,5364;0,058783
1307,5006;0,0594334
1308,4648;0,0600919
1309,4291;0,060751
1310,3933;0,0614042
1311,3575;0,0620431
1312,3218;0,0626535
1313,2860;0,063214
1314,2502;0,0636991
1315,2145;0,0640859
1316,1787;0,0643592
1317,1429;0,0645142
1318,1072;0,0645575
1319,0714;0,0645069
1320,0356;0,0643879
1320,9999;0,0642281
1321,9641;0,0640504
1322,9283;0,0638701
1323,8926;0,0636957
1324,8568;0,0635317
1325,8210;0,0633815
1326,7853;0,0632483
1327,7495;0,0631333
1328,7137;0,0630332
1329,6780;0,0629376
1330,6422;0,0628305
1331,6064;0,0626942
1332,5707;0,0625141
1333,5349;0,0622808
1334,4991;0,0619867
1335,4634;0,0616226
1336,4276;0,0611783
1337,3918;0,0606533
1338,3561;0,0600727
1339,3203;0,0594934
1340,2845;0,0589821
1341,2488;0,0585797
1342,2130;0,0582848
1343,1772;0,0580684
1344,1415;0,057899
1345,1057;0,0577597
1346,0699;0,0576534
1347,0342;0,0575983
1347,9984;0,057618
1348,9626;0,0577301
1349,9269;0,0579373
1350,8911;0,0582268
1351,8553;0,0585771
1352,8196;0,0589687
1353,7838;0,0593939
1354,7480;0,0598582
1355,7123;0,0603711
1356,6765;0,0609346
1357,6407;0,0615368
1358,6050;0,0621578
1359,5692;0,0627796
1360,5334;0,0633922
1361,4977;0,0639933
1362,4619;0,0645822
1363,4261;0,0651532
1364,3904;0,0656941
1365,3546;0,0661903
1366,3188;0,0666293
1367,2831;0,067003
1368,2473;0,0673078
1369,2115;0,0675422
1370,1758;0,0677012
1371,1400;0,0677708
1372,1042;0,0677279
1373,0685;0,0675529
1374,0327;0,0672493
1374,9969;0,0668521
1375,9612;0,0664043
1376,9254;0,0659198
1377,8896;0,0653724
1378,8539;0,0647217
1379,8181;0,0639515
1380,7823;0,0630916
1381,7466;0,0622026
1382,7108;0,0613323
1383,6750;0,0604827
1384,6393;0,0596155
1385,6035;0,0586962
1386,5677;0,0577498
1387,5320;0,0568747
1388,4962;0,0561777
1389,4604;0,0556926
1390,4247;0,0553706
1391,3889;0,0551308
1392,3531;0,0549066
1393,3174;0,0546662
1394,2816;0,0544149
1395,2458;0,0541834
1396,2101;0,0540063
1397,1743;0,053906
1398,1385;0,0538913
1399,1028;0,0539614
1400,0670;0,0541069
1401,0313;0,0543073
1401,9955;0,0545362
1402,9597;0,0547721
1403,9240;0,0550089
1404,8882;0,0552597
1405,8524;0,0555474
1406,8167;0,055887
1407,7809;0,0562763
1408,7451;0,056704
1409,7094;0,057162
1410,6736;0,0576508
1411,6378;0,0581724
1412,6021;0,0587194
1413,5663;0,0592712
1414,5305;0,0598001
1415,4948;0,0602789
1416,4590;0,0606869
1417,4232;0,0610177
1418,3875;0,0612889
1419,3517;0,0615326
1420,3159;0,0617619
1421,2802;0,0619502
1422,2444;0,0620504
1423,2086;0,0620274
1424,1729;0,0618771
1425,1371;0,0616209
1426,1013;0,0612785
1427,0656;0,060844
1428,0298;0,0602927
1428,9940;0,0596215
1429,9583;0,0588876
1430,9225;0,0581895
1431,8867;0,0575932
1432,8510;0,0570768
1433,8152;0,0565396
1434,7794;0,0558645
1435,7437;0,0550155
1436,7079;0,0541197
1437,6721;0,0533997
1438,6364;0,0529813
1439,6006;0,0528257
1440,5648;0,0528256
1441,5291;0,0528972
1442,4933;0,053003
1443,4575;0,0531388
1444,4218;0,05331
1445,3860;0,0535161
1446,3502;0,0537475
1447,3145;0,0539933
1448,2787;0,0542506
1449,2429;0,0545249
1450,2072;0,0548203
1451,1714;0,0551302
1452,1356;0,0554335
1453,0999;0,0556919
1454,0641;0,0558408
1455,0283;0,0557822
1455,9926;0,0554297
1456,9568;0,0548674
1457,9210;0,0544075
1458,8853;0,0542654
1459,8495;0,0543685
1460,8137;0,054535
1461,7780;0,0546003
1462,7422;0,054424
1463,7064;0,0539053
1464,6707;0,053061
1465,6349;0,0520665
1466,5991;0,0511292
1467,5634;0,050318
1468,5276;0,0495431
1469,4918;0,0486278
1470,4561;0,0473705
1471,4203;0,0456283
1472,3845;0,0434807
1473,3488;0,0413174
1474,3130;0,0395633
1475,2772;0,0383266
1476,2415;0,0374551
1477,2057;0,036772
1478,1699;0,0361754
1479,1342;0,035628
1480,0984;0,0351285
1481,0626;0,0346949
1482,0269;0,034355
1482,9911;0,0341304
1483,9553;0,0340198
1484,9196;0,03399
1485,8838;0,0339832
1486,8480;0,0339405
1487,8123;0,033846
1488,7765;0,0337747
1489,7407;0,033864
1490,7050;0,03419
1491,6692;0,0347113
1492,6334;0,0353399
1493,5977;0,0360076
1494,5619;0,0366782
1495,5261;0,0373408
1496,4904;0,0380102
1497,4546;0,0387253
1498,4188;0,0395216
1499,3831;0,0403943
1500,3473;0,0413012
1501,3115;0,0421919
1502,2758;0,0430222
1503,2400;0,0437451
1504,2042;0,0442864
1505,1685;0,0445192
1506,1327;0,0443143
1507,0969;0,0437728
1508,0612;0,0432903
1509,0254;0,0430923
1509,9896;0,0430875
1510,9539;0,0431234
1511,9181;0,0430978
1512,8823;0,0429472
1513,8466;0,0426343
1514,8108;0,0421579
1515,7750;0,041564
1516,7393;0,0409257
1517,7035;0,0402928
1518,6677;0,0396601
1519,6320;0,0389949
1520,5962;0,0383032
1521,5604;0,0376652
1522,5247;0,0371834
1523,4889;0,0368998
1524,4531;0,0367861
1525,4174;0,0367959
1526,3816;0,036904
1527,3458;0,0371034
1528,3101;0,0373845
1529,2743;0,0377274
1530,2385;0,0381146
1531,2028;0,0385476
1532,1670;0,0390528
1533,1312;0,0396603
1534,0955;0,040365
1535,0597;0,0411177
1536,0239;0,041855
1536,9882;0,0425148
1537,9524;0,0430101
1538,9166;0,0431919
1539,8809;0,0429043
1540,8451;0,0422444
1541,8093;0,0416359
1542,7736;0,0413388
1543,7378;0,0412764
1544,7020;0,0413043
1545,6663;0,0413463
1546,6305;0,0413802
1547,5947;0,0414
1548,5590;0,0413964
1549,5232;0,0413599
1550,4874;0,0412991
1551,4517;0,0412514
1552,4159;0,0412679
1553,3801;0,0413769
1554,3444;0,041557
1555,3086;0,041727
1556,2728;0,0417392
1557,2371;0,0414099
1558,2013;0,0407366
1559,1655;0,0401488
1560,1298;0,0400479
1561,0940;0,0403505
1562,0582;0,0408256
1563,0225;0,0413384
1563,9867;0,0418305
1564,9509;0,042268
1565,9152;0,0426226
1566,8794;0,0428786
1567,8436;0,0430598
1568,8079;0,0432424
1569,7721;0,0435166
1570,7363;0,0439162
1571,7006;0,0444041
1572,6648;0,0449147
1573,6290;0,0453887
1574,5933;0,0457876
1575,5575;0,0461122
1576,5217;0,0464193
1577,4860;0,0467842
1578,4502;0,0472328
1579,4144;0,0477394
1580,3787;0,0482665
1581,3429;0,0487878
1582,3071;0,0492936
1583,2714;0,0497923
1584,2356;0,0503064
1585,1998;0,0508577
1586,1641;0,0514525
1587,1283;0,0520765
1588,0925;0,0526999
1589,0568;0,0532888
1590,0210;0,0538139
1590,9852;0,0542522
1591,9495;0,054584
1592,9137;0,0547926
1593,8779;0,0548716
1594,8422;0,0548346
1595,8064;0,0547151
1596,7706;0,0545534
1597,7349;0,0543798
1598,6991;0,054209
1599,6633;0,0540442
1600,6276;0,0538879
1601,5918;0,0537492
1602,5560;0,0536428
1603,5203;0,0535814
1604,4845;0,0535654
1605,4487;0,0535799
1606,4130;0,0536029
1607,3772;0,0536235
1608,3414;0,0536576
1609,3057;0,0537462
1610,2699;0,0539276
1611,2341;0,0542066
1612,1984;0,0545481
1613,1626;0,0548921
1614,1268;0,0551731
1615,0911;0,0553505
1616,0553;0,0554516
1617,0195;0,0555752
1617,9838;0,0558039
1618,9480;0,0561353
1619,9122;0,0565137
1620,8765;0,0568819
1621,8407;0,0572035
1622,8049;0,0574708
1623,7692;0,0577042
1624,7334;0,0579342
1625,6976;0,0581781
1626,6619;0,0584356
1627,6261;0,0587044
1628,5903;0,0589893
1629,5546;0,0592988
1630,5188;0,0596313
1631,4830;0,0599653
1632,4473;0,0602526
1633,4115;0,0604159
1634,3757;0,0603766
1635,3400;0,0601471
1636,3042;0,059896
1637,2684;0,0598
1638,2327;0,0598775
1639,1969;0,0600528
1640,1611;0,0602633
1641,1254;0,0604813
1642,0896;0,0606903
1643,0538;0,0608543
1644,0181;0,0608991
1644,9823;0,0607358
1645,9465;0,0603625
1646,9108;0,0599547
1647,8750;0,059734
1648,8392;0,0597511
1649,8035;0,0598737
1650,7677;0,0598597
1651,7319;0,059391
1652,6962;0,0582762
1653,6604;0,0568937
1654,6246;0,055918
1655,5889;0,0554769
1656,5531;0,0553038
1657,5173;0,0551694
1658,4816;0,0549443
1659,4458;0,0545453
1660,4100;0,0539189
1661,3743;0,0530858
1662,3385;0,0521831
1663,3027;0,0513963
1664,2670;0,0508198
1665,2312;0,0504075
1666,1954;0,0500227
1667,1597;0,0495005
1668,1239;0,0487175
1669,0881;0,0476954
1670,0524;0,0466377
1671,0166;0,0457646
1671,9808;0,0451136
1672,9451;0,044554
1673,9093;0,0439331
1674,8735;0,0431952
1675,8378;0,0424236
1676,8020;0,0417702
1677,7662;0,0413269
1678,7305;0,0410725
1679,6947;0,0409055
1680,6589;0,0406741
1681,6232;0,0401827
1682,5874;0,0392566
1683,5516;0,037955
1684,5159;0,0366817
1685,4801;0,0357948
1686,4443;0,0352796
1687,4086;0,0349441
1688,3728;0,0346515
1689,3370;0,0343648
1690,3013;0,034108
1691,2655;0,0339127
1692,2297;0,0337811
1693,1940;0,033676
1694,1582;0,0335372
1695,1224;0,0333114
1696,0867;0,0329807
1697,0509;0,0325696
1698,0151;0,0321306
1698,9794;0,0317272
1699,9436;0,0314271
1700,9078;0,0312822
1701,8721;0,031304
1702,8363;0,0314641
1703,8005;0,0317176
1704,7648;0,0320253
1705,7290;0,0323665
1706,6932;0,0327418
1707,6575;0,0331637
1708,6217;0,0336424
1709,5859;0,0341776
1710,5502;0,0347579
1711,5144;0,035362
1712,4786;0,0359595
1713,4429;0,0365152
1714,4071;0,0370008
1715,3713;0,0374183
1716,3356;0,037822
1717,2998;0,0382908
1718,2640;0,0388466
1719,2283;0,0394435
1720,1925;0,0400348
1721,1567;0,040603
1722,1210;0,0411454
1723,0852;0,041659
1724,0494;0,0421372
1725,0137;0,0425746
1725,9779;0,0429717
1726,9421;0,0433352
1727,9064;0,0436726
1728,8706;0,0439813
1729,8348;0,0442351
1730,7991;0,0443691
1731,7633;0,0442865
1732,7275;0,0439225
1733,6918;0,0433495
1734,6560;0,0427633
1735,6202;0,0423013
1736,5845;0,041943
1737,5487;0,0415778
1738,5129;0,0410924
1739,4772;0,0404254
1740,4414;0,0395977
1741,4056;0,0387001
1742,3699;0,0378269
1743,3341;0,0370154
1744,2983;0,0362466
1745,2626;0,0354774
1746,2268;0,034655
1747,1910;0,0337125
1748,1553;0,0325855
1749,1195;0,0312778
1750,0837;0,0299188
1751,0480;0,0286995
1752,0122;0,0277263
1752,9764;0,0269659
1753,9407;0,0263063
1754,9049;0,0256424
1755,8691;0,0249276
1756,8334;0,0241828
1757,7976;0,0234573
1758,7618;0,022774
1759,7261;0,022107
1760,6903;0,0214181
1761,6545;0,020712
1762,6188;0,0200484
1763,5830;0,0194936
1764,5472;0,0190672
1765,5115;0,0187361
1766,4757;0,0184452
1767,4399;0,0181475
1768,4042;0,0178135
1769,3684;0,0174231
1770,3326;0,0169622
1771,2969;0,016443
1772,2611;0,0159331
1773,2253;0,015534
1774,1896;0,0153067
1775,1538;0,015233
1776,1180;0,0152434
1777,0823;0,015261
1778,0465;0,0152295
1779,0107;0,0151288
1779,9750;0,0149769
1780,9392;0,0148107
1781,9034;0,014657
1782,8677;0,0145222
1783,8319;0,0144078
1784,7961;0,0143289
1785,7604;0,0143108
1786,7246;0,014368
1787,6888;0,0144845
1788,6531;0,0146093
1789,6173;0,0146688
1790,5815;0,0145969
1791,5458;0,0143864
1792,5100;0,0141204
1793,4742;0,0139176
1794,4385;0,0138358
1795,4027;0,0138502
1796,3669;0,0138976
1797,3312;0,0139167
1798,2954;0,0138696
1799,2596;0,0137548
1800,2239;0,0136095
1801,1881;0,0134879
1802,1523;0,0134276
1803,1166;0,0134335
1804,0808;0,0134862
1805,0450;0,0135589
1806,0093;0,0136262
1806,9735;0,0136658
1807,9377;0,0136609
1808,9020;0,0136052
1809,8662;0,0135092
1810,8304;0,0133987
1811,7947;0,013302
1812,7589;0,013235
1813,7231;0,0131955
1814,6874;0,0131714
1815,6516;0,0131528
1816,6158;0,0131407
1817,5801;0,0131468
1818,5443;0,0131823
1819,5085;0,0132441
1820,4728;0,0133113
1821,4370;0,0133564
1822,4012;0,0133615
1823,3655;0,0133314
1824,3297;0,0132918
1825,2939;0,0132682
1826,2582;0,0132608
1827,2224;0,0132399
1828,1866;0,0131694
1829,1509;0,0130428
1830,1151;0,0129025
1831,0793;0,0128135
1832,0436;0,012813
1833,0078;0,0128877
1833,9720;0,012992
1834,9363;0,0130784
1835,9005;0,0131208
1836,8647;0,0131267
1837,8290;0,0131273
1838,7932;0,0131505
1839,7574;0,0131972
1840,7217;0,0132389
1841,6859;0,0132324
1842,6501;0,013147
1843,6144;0,0129953
1844,5786;0,0128383
1845,5428;0,0127419
1846,5071;0,012727
1847,4713;0,0127698
1848,4355;0,012832
1849,3998;0,0128842
1850,3640;0,0129143
1851,3282;0,0129263
1852,2925;0,0129328
1853,2567;0,0129457
1854,2209;0,0129698
1855,1852;0,013002
1856,1494;0,013036
1857,1136;0,0130653
1858,0779;0,013086
1859,0421;0,0130963
1860,0063;0,0130961
1860,9706;0,0130882
1861,9348;0,013078
1862,8990;0,0130722
1863,8633;0,0130741
1864,8275;0,0130803
1865,7917;0,0130803
1866,7560;0,0130628
1867,7202;0,0130259
1868,6844;0,0129825
1869,6487;0,0129491
1870,6129;0,0129323
1871,5771;0,0129273
1872,5414;0,0129258
1873,5056;0,0129233
1874,4698;0,0129206
1875,4341;0,0129237
1876,3983;0,0129392
1877,3625;0,012969
1878,3268;0,0130068
1879,2910;0,0130424
1880,2552;0,0130674
1881,2195;0,0130798
1882,1837;0,013084
1883,1479;0,0130867
1884,1122;0,0130918
1885,0764;0,013098
1886,0406;0,0130996
1887,0049;0,01309
1887,9691;0,0130655
1888,9333;0,0130288
1889,8976;0,0129877
1890,8618;0,0129517
1891,8260;0,0129274
1892,7903;0,012917
1893,7545;0,0129186
1894,7188;0,0129277
1895,6830;0,0129399
1896,6472;0,012953
1897,6115;0,0129676
1898,5757;0,0129861
1899,5399;0,0130102
1900,5042;0,0130387
1901,4684;0,0130678
1902,4326;0,0130927
1903,3969;0,0131099
1904,3611;0,0131178
1905,3253;0,0131155
1906,2896;0,0131018
1907,2538;0,0130764
1908,2180;0,0130426
1909,1823;0,0130108
1910,1465;0,0129957
1911,1107;0,0130101
1912,0750;0,0130579
1913,0392;0,0131333
1914,0034;0,013224
1914,9677;0,0133148
1915,9319;0,0133908
1916,8961;0,0134392
1917,8604;0,013451
1918,8246;0,0134213
1919,7888;0,0133512
1920,7531;0,0132483
1921,7173;0,0131262
1922,6815;0,0130017
1923,6458;0,0128905
1924,6100;0,0128011
1925,5742;0,012734
1926,5385;0,0126853
1927,5027;0,0126511
1928,4669;0,0126293
1929,4312;0,0126178
1930,3954;0,0126144
1931,3596;0,0126204
1932,3239;0,0126442
1933,2881;0,0127002
1934,2523;0,0127988
1935,2166;0,0129333
1936,1808;0,0130752
1937,1450;0,0131847
1938,1093;0,0132308
1939,0735;0,0132067
1940,0377;0,0131332
1941,0020;0,0130482
1941,9662;0,0129873
1942,9304;0,0129642
1943,8947;0,0129647
1944,8589;0,0129598
1945,8231;0,0129264
1946,7874;0,01286
1947,7516;0,0127754
1948,7158;0,0127014
1949,6801;0,0126703
1950,6443;0,0127035
1951,6085;0,0127985
1952,5728;0,0129232
1953,5370;0,0130235
1954,5012;0,0130425
1955,4655;0,012946
1956,4297;0,0127427
1957,3939;0,0124905
1958,3582;0,0122819
1959,3224;0,0122113
1960,2866;0,0123324
1961,2509;0,0126236
1962,2151;0,0129873
1963,1793;0,0132875
1964,1436;0,0134092
1965,1078;0,0133098
1966,0720;0,0130407
1967,0363;0,0127209
1968,0005;0,0124669
1968,9647;0,0123257
1969,9290;0,0122609
1970,8932;0,0122019
1971,8574;0,0121097
1972,8217;0,0120135
1973,7859;0,0119965
1974,7501;0,0121426
1975,7144;0,0124741
1976,6786;0,0129248
1977,6428;0,0133694
1978,6071;0,0136897
1979,5713;0,0138282
1980,5355;0,0137973
1981,4998;0,0136553
1982,4640;0,0134755
1983,4282;0,0133249
1984,3925;0,013251
1985,3567;0,0132749
1986,3209;0,0133902
1987,2852;0,0135718
1988,2494;0,0137898
1989,2136;0,0140201
1990,1779;0,0142469
1991,1421;0,0144564
1992,1063;0,0146304
1993,0706;0,0147461
1994,0348;0,014783
1994,9990;0,0147299
1995,9633;0,01459
1996,9275;0,0143834
1997,8917;0,0141502
1998,8560;0,0139483
1999,8202;0,0138412
2000,7844;0,0138764
2001,7487;0,0140626
2002,7129;0,014362
2003,6771;0,0147019
2004,6414;0,0150019
2005,6056;0,0152063
2006,5698;0,0153013
2007,5341;0,0153075
2008,4983;0,0152521
2009,4625;0,0151453
2010,4268;0,0149838
2011,3910;0,0147744
2012,3552;0,014557
2013,3195;0,0144031
2014,2837;0,0143874
2015,2479;0,0145434
2016,2122;0,0148326
2017,1764;0,0151501
2018,1406;0,0153736
2019,1049;0,0154268
2020,0691;0,0153186
2021,0333;0,0151354
2021,9976;0,014997
2022,9618;0,0149973
2023,9260;0,0151544
2024,8903;0,0153936
2025,8545;0,0155763
2026,8187;0,0155691
2027,7830;0,015321
2028,7472;0,0149072
2029,7114;0,014507
2030,6757;0,0143212
2031,6399;0,0144656
2032,6041;0,0149015
2033,5684;0,0154517
2034,5326;0,0159004
2035,4968;0,0161148
2036,4611;0,016106
2037,4253;0,0159922
2038,3895;0,0159035
2039,3538;0,0158985
2040,3180;0,0159437
2041,2822;0,0159614
2042,2465;0,0159043
2043,2107;0,0158
2044,1749;0,0157326
2045,1392;0,015778
2046,1034;0,0159422
2047,0676;0,0161477
2048,0320;0,0162823
2048,9961;0,0162744
2049,9604;0,0161364
2050,9246;0,015947
2051,8889;0,0157974
2052,8530;0,0157448
2053,8174;0,0157936
2054,7815;0,0159061
2055,7458;0,0160281
2056,7100;0,0161164
2057,6743;0,0161535
2058,6384;0,016144
2059,6028;0,0161009
2060,5669;0,0160333
2061,5313;0,0159443
2062,4954;0,0158386
2063,4597;0,0157329
2064,4238;0,0156586
2065,3882;0,0156511
2066,3523;0,0157288
2067,3167;0,015876
2068,2808;0,0160429
2069,2451;0,0161663
2070,2092;0,0162005
2071,1736;0,0161428
2072,1377;0,016035
2073,1021;0,01594
2074,0662;0,0159062
2075,0305;0,0159418
2075,9946;0,0160156
2076,9590;0,0160813
2077,9231;0,0161066
2078,8875;0,0160877
2079,8516;0,0160434
2080,8159;0,015997
2081,7800;0,0159627
2082,7444;0,0159458
2083,7085;0,0159522
2084,6729;0,0159933
2085,6370;0,0160782
2086,6013;0,0161983
2087,5654;0,016318
2088,5298;0,0163848
2089,4939;0,0163566
2090,4583;0,0162304
2091,4224;0,0160502
2092,3867;0,0158877
2093,3508;0,0158058
2094,3152;0,0158274
2095,2793;0,0159282
2096,2437;0,016056
2097,2078;0,016162
2098,1721;0,0162227
2099,1362;0,0162404
2100,1006;0,0162303
2101,0647;0,0162097
2102,0291;0,0161891
2102,9932;0,0161742
2103,9575;0,0161659
2104,9216;0,0161595
2105,8860;0,0161473
2106,8501;0,016125
2107,8145;0,0160988
2108,7786;0,0160849
2109,7429;0,0160995
2110,7070;0,0161433
2111,6714;0,0161958
2112,6355;0,0162244
2113,5999;0,0162048
2114,5640;0,0161395
2115,5283;0,0160603
2116,4924;0,0160117
2117,4568;0,0160266
2118,4209;0,0161071
2119,3853;0,0162229
2120,3494;0,0163271
2121,3137;0,0163803
2122,2778;0,0163691
2123,2422;0,0163093
2124,2063;0,0162324
2125,1707;0,0161654
2126,1348;0,016117
2127,0991;0,0160783
2128,0632;0,0160379
2129,0276;0,0159988
2129,9917;0,015984
2130,9561;0,0160254
2131,9202;0,0161415
2132,8845;0,0163195
2133,8486;0,0165148
2134,8130;0,0166698
2135,7771;0,0167407
2136,7415;0,0167143
2137,7056;0,016608
2138,6699;0,0164581
2139,6340;0,0163108
2140,5984;0,0162158
2141,5625;0,0162158
2142,5269;0,0163297
2143,4910;0,0165359
2144,4553;0,0167731
2145,4194;0,0169654
2146,3838;0,0170608
2147,3479;0,0170563
2148,3123;0,0169916
2149,2764;0,0169161
2150,2407;0,0168557
2151,2048;0,0168043
2152,1692;0,0167439
2153,1333;0,0166719
2154,0977;0,0166142
2155,0618;0,0166144
2156,0261;0,0167071
2156,9902;0,0168948
2157,9546;0,0171432
2158,9187;0,0174032
2159,8831;0,0176417
2160,8472;0,0178528
2161,8115;0,0180416
2162,7756;0,0182015
2163,7400;0,0183067
2164,7041;0,0183241
2165,6685;0,0182342
2166,6326;0,0180478
2167,5969;0,0178068
2168,5610;0,0175686
2169,5254;0,017383
2170,4895;0,0172758
2171,4539;0,017245
2172,4180;0,0172667
2173,3823;0,0173047
2174,3464;0,0173194
2175,3108;0,0172764
2176,2749;0,0171578
2177,2393;0,0169742
2178,2034;0,0167677
2179,1677;0,016599
2180,1318;0,0165177
2181,0962;0,0165347
2182,0603;0,0166151
2183,0247;0,0167043
2183,9888;0,0167682
2184,9531;0,0168161
2185,9172;0,0168854
2186,8816;0,0170025
2187,8457;0,0171536
2188,8101;0,01729
2189,7742;0,0173623
2190,7385;0,0173545
2191,7026;0,0172886
2192,6670;0,0172
2193,6311;0,0171074
2194,5955;0,0170054
2195,5596;0,016885
2196,5239;0,0167604
2197,4880;0,0166724
2198,4524;0,0166619
2199,4165;0,0167335
2200,3809;0,016842
2201,3450;0,0169157
2202,3093;0,0168998
2203,2734;0,0167899
2204,2378;0,0166296
2205,2019;0,0164809
2206,1663;0,0163901
2207,1304;0,0163729
2208,0947;0,01642
2209,0588;0,0165119
2210,0232;0,0166258
2210,9873;0,0167355
2211,9517;0,0168128
2212,9158;0,0168366
2213,8801;0,0168058
2214,8442;0,0167424
2215,8086;0,0166789
2216,7727;0,0166374
2217,7371;0,0166184
2218,7012;0,0166069
2219,6655;0,0165927
2220,6296;0,0165852
2221,5940;0,0166108
2222,5581;0,0166934
2223,5225;0,0168331
2224,4866;0,0170005
2225,4509;0,0171483
2226,4150;0,0172323
2227,3794;0,0172282
2228,3435;0,0171353
2229,3079;0,0169714
2230,2720;0,0167658
2231,2363;0,0165546
2232,2004;0,0163763
2233,1648;0,016265
2234,1289;0,0162397
2235,0933;0,0162961
2236,0574;0,0164066
2237,0217;0,0165313
2237,9858;0,0166348
2238,9502;0,0166983
2239,9143;0,0167214
2240,8787;0,0167123
2241,8428;0,0166764
2242,8071;0,0166123
2243,7712;0,0165183
2244,7356;0,0164042
2245,6997;0,0162966
2246,6641;0,0162309
2247,6282;0,0162321
2248,5925;0,0162974
2249,5566;0,0163939
2250,5210;0,016476
2251,4851;0,0165108
2252,4495;0,0164975
2253,4136;0,0164644
2254,3779;0,016448
2255,3420;0,0164675
2256,3064;0,0165117
2257,2705;0,0165472
2258,2349;0,0165397
2259,1990;0,0164742
2260,1633;0,0163615
2261,1274;0,0162317
2262,0918;0,0161208
2263,0559;0,016058
2264,0203;0,0160578
2264,9844;0,0161173
2265,9487;0,016217
2266,9128;0,0163256
2267,8772;0,0164095
2268,8413;0,0164456
2269,8057;0,0164299
2270,7698;0,0163785
2271,7341;0,0163181
2272,6982;0,016272
2273,6626;0,016249
2274,6267;0,0162428
2275,5911;0,0162404
2276,5552;0,0162329
2277,5195;0,0162225
2278,4836;0,0162201
2279,4480;0,0162367
2280,4121;0,016276
2281,3765;0,0163317
2282,3406;0,0163914
2283,3049;0,0164439
2284,2690;0,0164836
2285,2334;0,0165116
2286,1975;0,0165333
2287,1619;0,0165538
2288,1260;0,0165759
2289,0903;0,0165976
2290,0544;0,0166142
2291,0188;0,0166195
2291,9829;0,0166098
2292,9473;0,0165868
2293,9114;0,0165598
2294,8757;0,0165433
2295,8398;0,0165511
2296,8042;0,0165892
2297,7683;0,0166511
2298,7327;0,0167203
2299,6968;0,0167787
2300,6611;0,0168159
2301,6252;0,0168344
2302,5896;0,0168466
2303,5537;0,0168663
2304,5181;0,0169001
2305,4822;0,0169448
2306,4465;0,0169911
2307,4106;0,0170306
2308,3750;0,0170616
2309,3391;0,0170901
2310,3035;0,0171255
2311,2676;0,0171751
2312,2319;0,0172409
2313,1960;0,0173185
2314,1604;0,0174003
2315,1245;0,0174784
2316,0889;0,0175473
2317,0530;0,0176054
2318,0173;0,0176545
2318,9814;0,017698
2319,9458;0,0177369
2320,9099;0,0177657
2321,8743;0,0177723
2322,8384;0,0177436
2323,8027;0,0176747
2324,7668;0,0175739
2325,7312;0,0174617
2326,6953;0,0173632
2327,6597;0,0172991
2328,6238;0,0172753
2329,5881;0,0172785
2330,5522;0,0172819
2331,5166;0,0172618
2332,4807;0,0172128
2333,4451;0,0171493
2334,4092;0,0170912
2335,3735;0,0170485
2336,3376;0,0170149
2337,3020;0,0169735
2338,2661;0,0169091
2339,2305;0,0168163
2340,1946;0,0166966
2341,1589;0,0165525
2342,1230;0,0163921
2343,0874;0,0162445
2344,0515;0,0161627
2345,0159;0,0161936
2345,9800;0,0163445
2346,9443;0,0165855
2347,9084;0,0168736
2348,8728;0,0171685
2349,8369;0,0174357
2350,8013;0,0176448
2351,7654;0,0177721
2352,7297;0,0178099
2353,6938;0,0177776
2354,6582;0,0177136
2355,6223;0,0176456
2356,5867;0,0175686
2357,5508;0,0174564
2358,5151;0,0172952
2359,4792;0,0171036
2360,4436;0,0169212
2361,4077;0,0167762
2362,3721;0,0166657
2363,3362;0,0165641
2364,3005;0,0164485
2365,2646;0,0163199
2366,2290;0,0162044
2367,1931;0,0161343
2368,1575;0,0161254
2369,1216;0,0161657
2370,0859;0,0162224
2371,0500;0,0162604
2372,0144;0,0162604
2372,9785;0,0162261
2373,9429;0,0161779
2374,9070;0,0161399
2375,8713;0,0161281
2376,8354;0,0161467
2377,7998;0,0161904
2378,7639;0,0162506
2379,7283;0,0163198
2380,6924;0,0163935
2381,6567;0,0164685
2382,6208;0,0165418
2383,5852;0,0166099
2384,5493;0,01667
2385,5137;0,0167208
2386,4778;0,0167635
2387,4421;0,0168004
2388,4063;0,0168337
2389,3706;0,0168649
2390,3347;0,0168947
2391,2991;0,0169241
2392,2632;0,0169541
2393,2275;0,0169854
2394,1917;0,0170162
2395,1560;0,0170419
2396,1201;0,0170575
2397,0845;0,0170598
2398,0486;0,0170512
2399,0129;0,0170387
2399,9771;0,0170313
2400,9414;0,0170354
2401,9055;0,0170522
2402,8699;0,0170781
2403,8340;0,0171081
2404,7983;0,0171388
2405,7625;0,0171694
2406,7268;0,0172003
2407,6909;0,0172307
2408,6553;0,0172584
2409,6194;0,0172812
2410,5837;0,0173004
2411,5479;0,0173213
2412,5122;0,0173512
2413,4763;0,0173938
2414,4407;0,0174458
2415,4048;0,017497
2416,3691;0,0175353
2417,3333;0,0175542
2418,2976;0,0175567
2419,2617;0,0175542
2420,2261;0,0175592
2421,1902;0,0175791
2422,1545;0,0176121
2423,1187;0,0176501
2424,0830;0,0176848
2425,0471;0,0177119
2426,0115;0,0177325
2426,9756;0,0177499
2427,9399;0,0177668
2428,9041;0,0177836
2429,8684;0,0177997
2430,8325;0,0178149
2431,7969;0,0178298
2432,7610;0,0178443
2433,7253;0,0178574
2434,6895;0,0178675
2435,6538;0,0178747
2436,6179;0,017882
2437,5823;0,0178946
2438,5464;0,0179167
2439,5107;0,0179486
2440,4749;0,0179865
2441,4392;0,0180254
2442,4033;0,0180631
2443,3677;0,0181018
2444,3318;0,0181461
2445,2961;0,0181984
2446,2603;0,0182542
2447,2246;0,0183033
2448,1887;0,0183341
2449,1531;0,0183406
2450,1172;0,0183267
2451,0815;0,0183051
2452,0457;0,0182915
2453,0100;0,0182974
2453,9741;0,0183251
2454,9385;0,0183679
2455,9026;0,0184137
2456,8669;0,0184506
2457,8311;0,0184708
2458,7954;0,0184737
2459,7595;0,0184652
2460,7239;0,0184559
2461,6880;0,0184568
2462,6523;0,0184753
2463,6165;0,0185118
2464,5808;0,0185601
2465,5449;0,0186107
2466,5093;0,0186552
2467,4734;0,0186901
2468,4377;0,0187171
2469,4019;0,0187401
2470,3662;0,0187622
2471,3303;0,0187836
2472,2947;0,0188026
2473,2588;0,018818
2474,2231;0,0188301
2475,1873;0,0188408
2476,1516;0,0188518
2477,1157;0,0188636
2478,0801;0,0188757
2479,0442;0,0188884
2480,0085;0,0189035
2480,9727;0,0189238
2481,9370;0,0189513
2482,9011;0,0189844
2483,8655;0,019018
2484,8296;0,0190447
2485,7939;0,0190585
2486,7581;0,0190577
2487,7224;0,0190462
2488,6865;0,0190317
2489,6509;0,019023
2490,6150;0,0190257
2491,5793;0,0190415
2492,5435;0,0190677
2493,5078;0,0190993
2494,4719;0,0191307
2495,4363;0,0191576
2496,4004;0,0191773
2497,3647;0,0191889
2498,3289;0,0191931
2499,2932;0,0191924
2500,2573;0,0191904
2501,2217;0,0191919
2502,1858;0,0192019
2503,1501;0,0192231
2504,1143;0,0192546
2505,0786;0,01929
2506,0427;0,0193189
2507,0071;0,0193309
2507,9712;0,0193207
2508,9355;0,0192927
2509,8997;0,0192609
2510,8640;0,0192435
2511,8281;0,0192548
2512,7925;0,0192982
2513,7566;0,0193637
2514,7209;0,0194317
2515,6851;0,01948
2516,6494;0,019492
2517,6135;0,0194623
2518,5779;0,0194
2519,5420;0,0193261
2520,5063;0,0192682
2521,4705;0,0192505
2522,4348;0,019284
2523,3989;0,0193609
2524,3633;0,0194564
2525,3274;0,0195389
2526,2917;0,0195829
2527,2559;0,0195796
2528,2202;0,0195386
2529,1843;0,019481
2530,1487;0,0194298
2531,1128;0,0194015
2532,0771;0,0194028
2533,0413;0,0194324
2534,0056;0,019484
2534,9697;0,0195479
2535,9341;0,0196115
2536,8982;0,019661
2537,8625;0,0196842
2538,8267;0,0196761
2539,7910;0,0196428
2540,7551;0,0196015
2541,7195;0,0195737
2542,6836;0,0195766
2543,6479;0,019614
2544,6121;0,0196742
2545,5764;0,0197356
2546,5405;0,0197778
2547,5049;0,0197913
2548,4690;0,0197812
2549,4333;0,0197621
2550,3975;0,0197489
2551,3618;0,0197485
2552,3259;0,0197578
2553,2903;0,0197686
2554,2544;0,0197749
2555,2188;0,0197774
2556,1829;0,0197817
2557,1472;0,0197938
2558,1113;0,0198144
2559,0757;0,0198388
2560,0398;0,0198599
2561,0042;0,0198738
2561,9683;0,0198813
2562,9326;0,019887
2563,8967;0,0198947
2564,8611;0,0199045
2565,8252;0,0199132
2566,7896;0,0199177
2567,7537;0,0199184
2568,7180;0,0199204
2569,6821;0,0199298
2570,6465;0,01995
2571,6106;0,019978
2572,5750;0,0200071
2573,5391;0,0200304
2574,5034;0,0200458
2575,4675;0,0200561
2576,4319;0,0200666
2577,3960;0,0200804
2578,3604;0,0200965
2579,3245;0,0201112
2580,2888;0,0201218
2581,2529;0,0201293
2582,2173;0,0201378
2583,1814;0,0201514
2584,1458;0,0201711
2585,1099;0,0201944
2586,0742;0,0202168
2587,0383;0,0202355
2588,0027;0,0202501
2588,9668;0,0202632
2589,9312;0,0202774
2590,8953;0,0202945
2591,8596;0,0203153
2592,8237;0,0203404
2593,7881;0,0203711
2594,7522;0,020408
2595,7166;0,0204502
2596,6807;0,0204934
2597,6450;0,0205318
2598,6091;0,0205601
2599,5735;0,0205766
2600,5376;0,0205844
2601,5020;0,0205899
2602,4661;0,0206001
2603,4304;0,0206195
2604,3945;0,0206486
2605,3589;0,0206852
2606,3230;0,0207256
2607,2874;0,0207663
2608,2515;0,0208048
2609,2158;0,0208385
2610,1799;0,0208647
2611,1443;0,0208805
2612,1084;0,0208843
2613,0728;0,0208768
2614,0369;0,0208623
2615,0012;0,0208486
2615,9653;0,0208452
2616,9297;0,0208598
2617,8938;0,0208956
2618,8582;0,0209483
2619,8223;0,0210074
2620,7866;0,0210598
2621,7507;0,0210956
2622,7151;0,021113
2623,6792;0,0211197
2624,6436;0,0211283
2625,6077;0,0211502
2626,5720;0,0211886
2627,5361;0,021238
2628,5005;0,021287
2629,4646;0,021326
2630,4290;0,0213518
2631,3931;0,0213689
2632,3574;0,0213857
2633,3215;0,0214084
2634,2859;0,0214382
2635,2500;0,0214712
2636,2144;0,0215026
2637,1785;0,0215305
2638,1428;0,0215571
2639,1069;0,0215863
2640,0713;0,0216212
2641,0354;0,0216609
2641,9998;0,021702
2642,9639;0,0217401
2643,9282;0,0217726
2644,8923;0,0217991
2645,8567;0,0218204
2646,8208;0,0218376
2647,7852;0,0218513
2648,7493;0,021863
2649,7136;0,0218755
2650,6777;0,0218929
2651,6421;0,0219181
2652,6062;0,0219515
2653,5706;0,0219899
2654,5347;0,0220281
2655,4990;0,0220612
2656,4631;0,0220868
2657,4275;0,022106
2658,3916;0,0221214
2659,3560;0,0221357
2660,3201;0,0221501
2661,2844;0,0221639
2662,2485;0,0221756
2663,2129;0,022184
2664,1770;0,02219
2665,1414;0,0221962
2666,1055;0,022206
2667,0698;0,0222218
2668,0339;0,0222441
2668,9983;0,0222708
2669,9624;0,0222988
2670,9268;0,0223256
2671,8909;0,0223502
2672,8552;0,0223736
2673,8193;0,0223977
2674,7837;0,0224234
2675,7478;0,0224505
2676,7122;0,022478
2677,6763;0,0225051
2678,6406;0,0225322
2679,6047;0,0225609
2680,5691;0,0225936
2681,5332;0,022632
2682,4976;0,0226764
2683,4617;0,0227249
2684,4260;0,0227742
2685,3901;0,0228206
2686,3545;0,0228611
2687,3186;0,0228949
2688,2830;0,022923
2689,2471;0,0229485
2690,2114;0,0229747
2691,1755;0,0230038
2692,1399;0,0230365
2693,1040;0,0230715
2694,0684;0,023107
2695,0325;0,0231408
2695,9968;0,0231721
2696,9609;0,0232013
2697,9253;0,02323
2698,8894;0,0232603
2699,8538;0,0232942
2700,8179;0,0233329
2701,7822;0,0233763
2702,7463;0,0234231
2703,7107;0,0234706
2704,6748;0,0235156
2705,6392;0,0235553
2706,6033;0,0235885
2707,5676;0,0236161
2708,5317;0,0236412
2709,4961;0,0236678
2710,4602;0,0236992
2711,4246;0,0237364
2712,3887;0,023778
2713,3530;0,0238204
2714,3171;0,0238599
2715,2815;0,0238942
2716,2456;0,0239234
2717,2100;0,0239499
2718,1741;0,023977
2719,1384;0,0240076
2720,1025;0,0240426
2721,0669;0,0240806
2722,0310;0,0241177
2722,9954;0,0241501
2723,9595;0,0241757
2724,9238;0,0241959
2725,8879;0,0242156
2726,8523;0,0242413
2727,8164;0,0242779
2728,7808;0,0243263
2729,7449;0,0243827
2730,7092;0,0244397
2731,6733;0,0244894
2732,6377;0,0245262
2733,6018;0,0245488
2734,5662;0,0245597
2735,5303;0,0245638
2736,4946;0,0245661
2737,4587;0,0245708
2738,4231;0,0245808
2739,3872;0,0245987
2740,3516;0,024627
2741,3157;0,0246663
2742,2800;0,0247143
2743,2441;0,024764
2744,2085;0,0248057
2745,1726;0,0248309
2746,1370;0,0248369
2747,1011;0,024829
2748,0654;0,0248191
2749,0295;0,0248202
2749,9939;0,0248416
2750,9580;0,024885
2751,9224;0,0249452
2752,8865;0,025013
2753,8508;0,025079
2754,8149;0,0251363
2755,7793;0,0251816
2756,7434;0,0252147
2757,7078;0,0252378
2758,6719;0,0252552
2759,6362;0,0252719
2760,6003;0,0252928
2761,5647;0,0253216
2762,5288;0,0253592
2763,4932;0,0254037
2764,4573;0,0254509
2765,4216;0,0254966
2766,3857;0,0255382
2767,3501;0,0255761
2768,3142;0,0256126
2769,2786;0,0256505
2770,2427;0,025691
2771,2070;0,0257329
2772,1711;0,0257739
2773,1355;0,0258134
2774,0996;0,025853
2775,0640;0,0258965
2776,0281;0,025947
2776,9924;0,0260051
2777,9565;0,0260683
2778,9209;0,026133
2779,8850;0,0261968
2780,8494;0,026259
2781,8135;0,0263204
2782,7778;0,0263809
2783,7419;0,0264382
2784,7063;0,0264893
2785,6704;0,026532
2786,6348;0,0265674
2787,5989;0,0266007
2788,5632;0,0266391
2789,5273;0,02669
2790,4917;0,0267577
2791,4558;0,0268418
2792,4202;0,0269376
2793,3843;0,0270375
2794,3486;0,0271335
2795,3127;0,0272201
2796,2771;0,0272965
2797,2412;0,0273658
2798,2056;0,0274334
2799,1697;0,0275041
2800,1340;0,0275805
2801,0981;0,0276627
2802,0625;0,0277498
2803,0266;0,027841
2803,9910;0,0279357
2804,9551;0,0280324
2805,9194;0,0281291
2806,8835;0,0282242
2807,8479;0,0283187
2808,8120;0,0284171
2809,7764;0,0285259
2810,7405;0,0286495
2811,7048;0,0287868
2812,6689;0,028931
2813,6333;0,0290723
2814,5974;0,0292039
2815,5618;0,0293251
2816,5259;0,0294419
2817,4902;0,0295628
2818,4543;0,0296945
2819,4187;0,0298392
2820,3828;0,0299946
2821,3472;0,0301565
2822,3113;0,0303208
2823,2756;0,0304856
2824,2397;0,0306508
2825,2041;0,0308184
2826,1682;0,030992
2827,1326;0,0311763
2828,0967;0,0313762
2829,0610;0,0315949
2830,0251;0,031833
2830,9895;0,0320882
2831,9536;0,0323564
2832,9180;0,032633
2833,8821;0,0329151
2834,8464;0,0332028
2835,8105;0,0334999
2836,7749;0,033814
2837,7390;0,0341556
2838,7034;0,0345359
2839,6675;0,0349653
2840,6318;0,0354523
2841,5959;0,0360039
2842,5603;0,0366248
2843,5244;0,0373143
2844,4888;0,0380608
2845,4529;0,0388349
2846,4172;0,0395876
2847,3813;0,0402557
2848,3457;0,0407766
2849,3098;0,0411068
2850,2742;0,0412355
2851,2383;0,0411879
2852,2026;0,0410155
2853,1667;0,0407781
2854,1311;0,0405272
2855,0952;0,0402959
2856,0596;0,0400984
2857,0237;0,0399362
2857,9880;0,0398069
2858,9521;0,0397094
2859,9165;0,0396463
2860,8806;0,0396221
2861,8450;0,0396405
2862,8091;0,0397025
2863,7734;0,039806
2864,7375;0,0399455
2865,7019;0,0401121
2866,6660;0,0402939
2867,6304;0,0404762
2868,5945;0,0406442
2869,5588;0,040786
2870,5229;0,0408969
2871,4873;0,0409807
2872,4514;0,0410484
2873,4158;0,0411135
2874,3799;0,0411861
2875,3442;0,0412691
2876,3083;0,0413583
2877,2727;0,0414459
2878,2368;0,0415257
2879,2012;0,0415968
2880,1653;0,0416637
2881,1296;0,0417335
2882,0938;0,041813
2883,0581;0,0419051
2884,0222;0,0420095
2884,9866;0,0421235
2885,9507;0,0422444
2886,9150;0,0423703
2887,8792;0,0425003
2888,8435;0,0426327
2889,8076;0,0427648
2890,7720;0,0428926
2891,7361;0,0430124
2892,7004;0,0431228
2893,6646;0,0432262
2894,6289;0,043329
2895,5930;0,0434389
2896,5574;0,0435623
2897,5215;0,0437006
2898,4858;0,0438496
2899,4500;0,0440009
2900,4143;0,0441463
2901,3784;0,0442818
2902,3428;0,0444102
2903,3069;0,0445406
2904,2712;0,0446853
2905,2354;0,0448561
2906,1997;0,0450623
2907,1638;0,0453116
2908,1282;0,0456122
2909,0923;0,0459737
2910,0566;0,0464046
2911,0208;0,0469052
2911,9851;0,0474607
2912,9492;0,0480368
2913,9136;0,0485833
2914,8777;0,0490451
2915,8420;0,049376
2916,8062;0,0495504
2917,7705;0,0495679
2918,7346;0,049449
2919,6990;0,0492265
2920,6631;0,0489343
2921,6274;0,0486005
2922,5916;0,0482427
2923,5559;0,0478695
2924,5200;0,0474836
2925,4844;0,0470866
2926,4485;0,0466832
2927,4128;0,0462824
2928,3770;0,0458956
2929,3413;0,0455322
2930,3054;0,0451951
2931,2698;0,0448803
2932,2339;0,0445791
2933,1982;0,0442833
2934,1624;0,0439889
2935,1267;0,0436956
2936,0908;0,043405
2937,0552;0,043117
2938,0193;0,0428285
2938,9836;0,0425346
2939,9478;0,0422313
2940,9121;0,0419172
2941,8762;0,041595
2942,8406;0,0412711
2943,8047;0,040955
2944,7690;0,0406573
2945,7332;0,0403872
2946,6975;0,0401487
2947,6616;0,0399393
2948,6260;0,0397511
2949,5901;0,0395743
2950,5544;0,039402
2951,5186;0,0392318
2952,4829;0,0390636
2953,4470;0,0388961
2954,4114;0,0387239
2955,3755;0,0385397
2956,3398;0,038338
2957,3040;0,0381203
2958,2683;0,0378943
2959,2324;0,0376702
2960,1968;0,0374549
2961,1609;0,037249
2962,1252;0,0370482
2963,0894;0,0368472
2964,0537;0,0366437
2965,0178;0,0364386
2965,9822;0,0362337
2966,9463;0,0360286
2967,9106;0,0358203
2968,8748;0,0356048
2969,8391;0,0353806
2970,8032;0,0351504
2971,7676;0,0349209
2972,7317;0,0347007
2973,6960;0,0344963
2974,6602;0,0343101
2975,6245;0,0341399
2976,5886;0,0339804
2977,5530;0,0338265
2978,5171;0,0336756
2979,4814;0,0335291
2980,4456;0,0333905
2981,4099;0,0332632
2982,3740;0,0331481
2983,3384;0,0330433
2984,3025;0,0329453
2985,2668;0,0328513
2986,2310;0,0327604
2987,1953;0,0326728
2988,1594;0,0325889
2989,1238;0,032509
2990,0879;0,0324339
2991,0522;0,0323661
2992,0164;0,0323099
2992,9807;0,0322703
2993,9448;0,0322502
2994,9092;0,0322497
2995,8733;0,032266
2996,8376;0,0322948
2997,8018;0,0323314
2998,7661;0,032371
2999,7302;0,0324087
3000,6946;0,0324401
3001,6587;0,0324632
3002,6230;0,0324796
3003,5872;0,0324954
3004,5515;0,0325183
3005,5156;0,0325534
3006,4800;0,0326
3007,4441;0,0326511
3008,4084;0,0326969
3009,3726;0,0327307
3010,3369;0,0327526
3011,3010;0,0327708
3012,2654;0,0327969
3013,2295;0,0328406
3014,1938;0,0329046
3015,1580;0,0329845
3016,1223;0,0330721
3017,0864;0,0331601
3018,0508;0,0332447
3019,0149;0,0333256
3019,9792;0,0334039
3020,9434;0,0334806
3021,9077;0,033557
3022,8718;0,0336352
3023,8362;0,0337187
3024,8003;0,0338105
3025,7646;0,0339107
3026,7288;0,0340155
3027,6931;0,0341186
3028,6572;0,0342141
3029,6216;0,0342996
3030,5857;0,0343774
3031,5500;0,0344529
3032,5142;0,0345327
3033,4785;0,0346218
3034,4426;0,0347238
3035,4070;0,0348395
3036,3711;0,0349668
3037,3354;0,0351004
3038,2996;0,0352332
3039,2639;0,0353594
3040,2280;0,0354777
3041,1924;0,0355925
3042,1565;0,0357108
3043,1208;0,0358375
3044,0850;0,0359712
3045,0493;0,0361042
3046,0134;0,0362276
3046,9778;0,036337
3047,9419;0,0364371
3048,9063;0,0365395
3049,8704;0,0366567
3050,8347;0,0367945
3051,7988;0,0369485
3052,7632;0,0371065
3053,7273;0,0372557
3054,6917;0,0373893
3055,6558;0,0375104
3056,6201;0,0376288
3057,5842;0,0377552
3058,5486;0,0378947
3059,5127;0,0380443
3060,4771;0,0381957
3061,4412;0,0383403
3062,4055;0,0384734
3063,3696;0,0385964
3064,3340;0,0387158
3065,2981;0,0388402
3066,2625;0,0389772
3067,2266;0,0391302
3068,1909;0,0392973
3069,1550;0,0394713
3070,1194;0,0396423
3071,0835;0,0398007
3072,0479;0,039941
3073,0120;0,0400639
3073,9763;0,0401751
3074,9404;0,0402822
3075,9048;0,0403913
3076,8689;0,0405042
3077,8333;0,0406192
3078,7974;0,0407337
3079,7617;0,0408463
3080,7258;0,0409581
3081,6902;0,0410726
3082,6543;0,0411936
3083,6187;0,0413236
3084,5828;0,0414628
3085,5471;0,0416089
3086,5112;0,0417579
3087,4756;0,0419057
3088,4397;0,0420492
3089,4041;0,0421871
3090,3682;0,0423193
3091,3325;0,0424463
3092,2966;0,0425686
3093,2610;0,042687
3094,2251;0,0428034
3095,1895;0,0429212
3096,1536;0,0430448
3097,1179;0,0431773
3098,0820;0,043319
3099,0464;0,0434666
3100,0105;0,0436152
3100,9749;0,0437605
3101,9390;0,0439011
3102,9033;0,0440392
3103,8674;0,0441788
3104,8318;0,0443229
3105,7959;0,0444719
3106,7603;0,0446232
3107,7244;0,0447734
3108,6887;0,0449205
3109,6528;0,0450656
3110,6172;0,0452124
3111,5813;0,0453642
3112,5457;0,045522
3113,5098;0,0456829
3114,4741;0,0458421
3115,4382;0,0459958
3116,4026;0,046144
3117,3667;0,0462902
3118,3311;0,0464401
3119,2952;0,0465981
3120,2595;0,0467658
3121,2236;0,0469415
3122,1880;0,0471217
3123,1521;0,0473022
3124,1165;0,0474789
3125,0806;0,0476486
3126,0449;0,0478102
3127,0090;0,0479661
3127,9734;0,0481218
3128,9375;0,0482843
3129,9019;0,0484584
3130,8660;0,048644
3131,8303;0,048836
3132,7944;0,0490277
3133,7588;0,0492149
3134,7229;0,0493995
3135,6873;0,0495871
3136,6514;0,049783
3137,6157;0,0499874
3138,5798;0,050194
3139,5442;0,050394
3140,5083;0,0505815
3141,4727;0,0507578
3142,4368;0,05093
3143,4011;0,0511072
3144,3652;0,0512937
3145,3296;0,0514872
3146,2937;0,0516806
3147,2581;0,0518671
3148,2222;0,0520452
3149,1865;0,0522194
3150,1506;0,0523975
3151,1150;0,0525856
3152,0791;0,0527853
3153,0435;0,0529935
3154,0076;0,0532051
3154,9719;0,0534164
3155,9360;0,0536259
3156,9004;0,0538341
3157,8645;0,0540409
3158,8289;0,0542451
3159,7930;0,0544452
3160,7573;0,0546418
3161,7214;0,0548384
3162,6858;0,0550406
3163,6499;0,0552526
3164,6143;0,0554737
3165,5784;0,0556971
3166,5427;0,0559118
3167,5068;0,0561085
3168,4712;0,0562856
3169,4353;0,0564599
3170,3997;0,0566302
3171,3638;0,0568202
3172,3281;0,0570366
3173,2922;0,0572732
3174,2566;0,0575136
3175,2207;0,057739
3176,1851;0,057938
3177,1492;0,0581124
3178,1135;0,0582753
3179,0776;0,0584438
3180,0420;0,0586297
3181,0061;0,0588347
3181,9705;0,0590524
3182,9346;0,0592738
3183,8989;0,0594928
3184,8630;0,059708
3185,8274;0,0599206
3186,7915;0,0601306
3187,7559;0,0603355
3188,7200;0,0605313
3189,6843;0,060716
3190,6484;0,0608916
3191,6128;0,0610628
3192,5769;0,0612353
3193,5413;0,0614125
3194,5054;0,0615951
3195,4697;0,0617811
3196,4338;0,0619677
3197,3982;0,0621524
3198,3623;0,0623334
3199,3267;0,0625114
3200,2908;0,0626888
3201,2551;0,0628692
3202,2192;0,063055
3203,1836;0,0632447
3204,1477;0,0634329
3205,1121;0,0636131
3206,0762;0,0637816
3207,0405;0,0639411
3208,0046;0,0640998
3208,9690;0,0642669
3209,9331;0,0644467
3210,8975;0,0646361
3211,8616;0,0648264
3212,8259;0,0650093
3213,7900;0,065181
3214,7544;0,0653434
3215,7185;0,0655012
3216,6829;0,0656574
3217,6470;0,0658119
3218,6113;0,0659632
3219,5754;0,0661117
3220,5398;0,066262
3221,5039;0,0664211
3222,4683;0,0665945
3223,4324;0,066782
3224,3967;0,0669772
3225,3608;0,0671711
3226,3252;0,0673565
3227,2893;0,0675321
3228,2537;0,0677019
3229,2178;0,0678719
3230,1821;0,0680456
3231,1462;0,0682218
3232,1106;0,0683961
3233,0747;0,0685641
3234,0391;0,0687239
3235,0032;0,068878
3235,9675;0,0690315
3236,9316;0,0691908
3237,8960;0,0693609
3238,8601;0,0695432
3239,8245;0,0697345
3240,7886;0,0699266
3241,7529;0,0701089
3242,7170;0,0702728
3243,6814;0,0704169
3244,6455;0,0705502
3245,6099;0,0706887
3246,5740;0,0708485
3247,5383;0,0710378
3248,5024;0,0712528
3249,4668;0,0714801
3250,4309;0,0717039
3251,3953;0,0719132
3252,3594;0,072106
3253,3237;0,0722876
3254,2878;0,0724666
3255,2522;0,0726498
3256,2163;0,0728396
3257,1807;0,0730341
3258,1448;0,0732299
3259,1091;0,0734234
3260,0732;0,0736121
3261,0376;0,0737953
3262,0017;0,0739737
3262,9661;0,0741489
3263,9302;0,0743229
3264,8945;0,0744965
3265,8586;0,0746688
3266,8230;0,0748369
3267,7871;0,0749978
3268,7515;0,0751497
3269,7156;0,075293
3270,6799;0,0754295
3271,6440;0,0755607
3272,6084;0,0756867
3273,5725;0,0758062
3274,5369;0,0759176
3275,5010;0,0760199
3276,4653;0,0761136
3277,4294;0,0761992
3278,3938;0,0762771
3279,3579;0,076347
3280,3223;0,0764095
3281,2864;0,0764667
3282,2507;0,0765224
3283,2148;0,0765806
3284,1792;0,0766428
3285,1433;0,0767064
3286,1077;0,0767656
3287,0718;0,0768139
3288,0361;0,0768476
3289,0002;0,076868
3289,9646;0,0768811
3290,9287;0,0768936
3291,8931;0,0769099
3292,8572;0,0769292
3293,8215;0,0769466
3294,7856;0,0769571
3295,7500;0,0769591
3296,7141;0,0769561
3297,6785;0,0769551
3298,6426;0,0769617
3299,6069;0,0769777
3300,5710;0,0769993
3301,5354;0,07702
3302,4995;0,0770335
3303,4639;0,0770363
3304,4280;0,0770279
3305,3923;0,0770096
3306,3564;0,0769836
3307,3208;0,0769532
3308,2849;0,0769226
3309,2493;0,0768971
3310,2134;0,0768812
3311,1777;0,0768775
3312,1418;0,0768856
3313,1062;0,0769041
3314,0703;0,0769321
3315,0347;0,0769707
3315,9988;0,0770224
3316,9631;0,0770891
3317,9272;0,0771704
3318,8916;0,0772619
3319,8557;0,0773566
3320,8201;0,0774453
3321,7842;0,0775201
3322,7485;0,0775758
3323,7126;0,0776132
3324,6770;0,0776393
3325,6411;0,0776664
3326,6055;0,0777078
3327,5696;0,0777715
3328,5339;0,0778559
3329,4980;0,0779487
3330,4624;0,0780314
3331,4265;0,0780867
3332,3909;0,0781052
3333,3550;0,0780889
3334,3193;0,078049
3335,2834;0,0780006
3336,2478;0,0779553
3337,2119;0,0779164
3338,1763;0,0778786
3339,1404;0,0778312
3340,1047;0,0777639
3341,0688;0,0776716
3342,0332;0,0775563
3342,9973;0,0774256
3343,9617;0,0772893
3344,9258;0,0771555
3345,8901;0,0770281
3346,8542;0,0769066
3347,8186;0,0767875
3348,7827;0,076666
3349,7471;0,0765375
3350,7112;0,0763987
3351,6755;0,076249
3352,6396;0,0760914
3353,6040;0,0759323
3354,5681;0,0757794
3355,5325;0,0756383
3356,4966;0,0755095
3357,4609;0,0753875
3358,4250;0,0752642
3359,3894;0,0751329
3360,3535;0,0749914
3361,3179;0,0748423
3362,2820;0,0746902
3363,2463;0,074538
3364,2104;0,0743863
3365,1748;0,0742343
3366,1389;0,074083
3367,1033;0,0739357
3368,0674;0,073796
3369,0317;0,0736643
3369,9958;0,0735353
3370,9602;0,0733994
3371,9243;0,0732474
3372,8887;0,0730762
3373,8528;0,0728908
3374,8171;0,0727028
3375,7813;0,0725252
3376,7456;0,0723662
3377,7097;0,0722266
3378,6741;0,0720998
3379,6382;0,071976
3380,6025;0,0718465
3381,5667;0,0717066
3382,5310;0,0715567
3383,4951;0,0714015
3384,4595;0,0712477
3385,4236;0,0711018
3386,3879;0,0709666
3387,3521;0,0708398
3388,3164;0,0707143
3389,2805;0,0705807
3390,2449;0,0704315
3391,2090;0,0702654
3392,1733;0,0700879
3393,1375;0,0699096
3394,1018;0,0697412
3395,0659;0,069589
3396,0303;0,0694522
3396,9944;0,069324
3397,9587;0,0691942
3398,9229;0,0690532
3399,8872;0,0688954
3400,8513;0,0687213
3401,8157;0,0685374
3402,7798;0,0683524
3403,7441;0,0681735
3404,7083;0,0680024
3405,6726;0,0678344
3406,6367;0,0676614
3407,6011;0,0674763
3408,5652;0,0672765
3409,5295;0,0670656
3410,4937;0,0668513
3411,4580;0,066643
3412,4221;0,0664482
3413,3865;0,0662702
3414,3506;0,0661064
3415,3149;0,0659475
3416,2791;0,0657795
3417,2434;0,0655878
3418,2075;0,065364
3419,1719;0,0651102
3420,1360;0,0648397
3421,1003;0,064571
3422,0645;0,0643191
3423,0288;0,0640889
3423,9929;0,0638765
3424,9573;0,063674
3425,9214;0,0634759
3426,8857;0,0632801
3427,8499;0,0630861
3428,8142;0,0628908
3429,7783;0,0626875
3430,7427;0,0624681
3431,7068;0,0622284
3432,6711;0,0619721
3433,6353;0,0617097
3434,5996;0,0614532
3435,5637;0,0612099
3436,5281;0,0609794
3437,4922;0,0607559
3438,4565;0,0605343
3439,4207;0,0603157
3440,3850;0,0601064
3441,3491;0,0599115
3442,3135;0,0597268
3443,2776;0,0595357
3444,2419;0,059315
3445,2061;0,0590474
3446,1704;0,0587338
3447,1345;0,0583963
3448,0989;0,0580692
3449,0630;0,0577818
3450,0273;0,0575457
3450,9915;0,0573542
3451,9558;0,0571881
3452,9199;0,0570256
3453,8843;0,0568489
3454,8484;0,0566471
3455,8127;0,0564173
3456,7769;0,0561615
3457,7412;0,0558853
3458,7053;0,0555963
3459,6697;0,0553041
3460,6338;0,0550194
3461,5981;0,0547512
3462,5623;0,0545035
3463,5266;0,0542729
3464,4907;0,0540497
3465,4551;0,0538228
3466,4192;0,0535869
3467,3835;0,0533456
3468,3477;0,0531096
3469,3120;0,0528887
3470,2761;0,0526835
3471,2405;0,0524832
3472,2046;0,0522727
3473,1689;0,0520425
3474,1331;0,0517962
3475,0974;0,0515475
3476,0615;0,0513086
3477,0259;0,05108
3477,9900;0,0508492
3478,9543;0,0505998
3479,9185;0,0503252
3480,8828;0,0500354
3481,8469;0,049752
3482,8113;0,049493
3483,7754;0,0492601
3484,7397;0,0490393
3485,7039;0,048812
3486,6682;0,0485682
3487,6323;0,0483137
3488,5967;0,048066
3489,5608;0,0478421
3490,5251;0,0476456
3491,4893;0,0474628
3492,4536;0,0472689
3493,4177;0,0470423
3494,3821;0,0467796
3495,3462;0,0465027
3496,3105;0,0462484
3497,2747;0,0460456
3498,2390;0,0458934
3499,2031;0,0457562
3500,1675;0,0455817
3501,1316;0,0453316
3502,0959;0,0450108
3503,0601;0,0446697
3504,0244;0,0443719
3504,9885;0,0441485
3505,9529;0,04398
3506,9170;0,0438134
3507,8813;0,0435982
3508,8455;0,0433183
3509,8098;0,0430001
3510,7739;0,0426927
3511,7383;0,0424331
3512,7024;0,0422268
3513,6667;0,0420539
3514,6309;0,0418911
3515,5952;0,0417284
3516,5593;0,0415702
3517,5237;0,0414234
3518,4878;0,0412841
3519,4521;0,041134
3520,4163;0,0409498
3521,3806;0,0407187
3522,3447;0,0404482
3523,3091;0,0401618
3524,2732;0,0398826
3525,2375;0,039618
3526,2017;0,0393587
3527,1660;0,0390931
3528,1301;0,0388233
3529,0945;0,0385691
3530,0586;0,0383541
3531,0229;0,0381863
3531,9871;0,0380492
3532,9514;0,0379076
3533,9155;0,0377267
3534,8799;0,0374918
3535,8440;0,037219
3536,8083;0,0369496
3537,7725;0,036727
3538,7368;0,0365731
3539,7009;0,0364773
3540,6653;0,0364015
3541,6294;0,0362926
3542,5938;0,0361005
3543,5579;0,0358003
3544,5222;0,0354131
3545,4863;0,0350048
3546,4507;0,0346516
3547,4148;0,0343937
3548,3792;0,034216
3549,3433;0,0340653
3550,3076;0,0338839
3551,2717;0,0336422
3552,2361;0,0333557
3553,2002;0,0330751
3554,1646;0,0328494
3555,1287;0,0326921
3556,0930;0,0325764
3557,0571;0,0324586
3558,0215;0,0323098
3558,9856;0,0321389
3559,9500;0,0319886
3560,9141;0,031902
3561,8784;0,0318812
3562,8425;0,031865
3563,8069;0,0317393
3564,7710;0,0313852
3565,7354;0,0307697
3566,6995;0,0300227
3567,6638;0,029378
3568,6279;0,0289917
3569,5923;0,028854
3570,5564;0,0288568
3571,5208;0,0288847
3572,4849;0,0288593
3573,4492;0,0287511
3574,4133;0,0285738
3575,3777;0,0283625
3576,3418;0,0281463
3577,3062;0,0279363
3578,2703;0,0277358
3579,2346;0,0275604
3580,1987;0,027441
3581,1631;0,0274037
3582,1272;0,0274391
3583,0916;0,0274849
3584,0557;0,0274319
3585,0200;0,0271642
3585,9841;0,0266411
3586,9485;0,0259776
3587,9126;0,0254027
3588,8770;0,0250815
3589,8411;0,0250083
3590,8054;0,0250614
3591,7695;0,0251006
3592,7339;0,0250289
3593,6980;0,024824
3594,6624;0,0245394
3595,6265;0,0242569
3596,5908;0,0240174
3597,5549;0,0237997
3598,5193;0,0235595
3599,4834;0,0232878
3600,4478;0,0230338
3601,4119;0,0228714
3602,3762;0,0228376
3603,3403;0,0229012
3604,3047;0,0229793
3605,2688;0,0229781
3606,2332;0,0228385
3607,1973;0,0225684
3608,1616;0,0222368
3609,1257;0,0219213
3610,0901;0,0216585
3611,0542;0,0214446
3612,0186;0,0212706
3612,9827;0,0211423
3613,9470;0,0210665
3614,9111;0,0210209
3615,8755;0,0209396
3616,8396;0,0207352
3617,8040;0,0203571
3618,7681;0,019858
3619,7324;0,0193971
3620,6965;0,0191411
3621,6609;0,0191559
3622,6250;0,0193975
3623,5894;0,0197617
3624,5535;0,0201128
3625,5178;0,0202826
3626,4819;0,0200902
3627,4463;0,0194489
3628,4104;0,0185285
3629,3748;0,0177011
3630,3389;0,0172104
3631,3032;0,0170259
3632,2673;0,016996
3633,2317;0,016996
3634,1958;0,0169668
3635,1602;0,0169031
3636,1243;0,0168248
3637,0886;0,0167484
3638,0527;0,0166747
3639,0171;0,0166008
3639,9812;0,0165415
3640,9456;0,0165373
3641,9097;0,0166379
3642,8740;0,0168694
3643,8381;0,0172045
3644,8025;0,0175417
3645,7666;0,0176935
3646,7310;0,017413
3647,6951;0,0165584
3648,6594;0,0153803
3649,6235;0,0144541
3650,5879;0,0141012
3651,5520;0,0141921
3652,5164;0,0144492
3653,4805;0,0146514
3654,4448;0,0146687
3655,4089;0,0144756
3656,3733;0,0141611
3657,3374;0,0138716
3658,3018;0,0137022
3659,2659;0,0136475
3660,2302;0,0136479
3661,1943;0,0136611
3662,1587;0,0136973
3663,1228;0,0138015
3664,0872;0,0140029
3665,0513;0,01427
3666,0156;0,0145061
3666,9797;0,0145869
3667,9441;0,014443
3668,9082;0,014153
3669,8726;0,0139257
3670,8367;0,0139125
3671,8010;0,0140623
3672,7651;0,014172
3673,7295;0,0140219
3674,6936;0,0135273
3675,6580;0,0128499
3676,6221;0,0122921
3677,5864;0,0120213
3678,5505;0,0119947
3679,5149;0,0120981
3680,4790;0,0122564
3681,4434;0,0124537
3682,4075;0,0127074
3683,3718;0,0130274
3684,3359;0,0133814
3685,3003;0,0136805
3686,2644;0,0137895
3687,2288;0,0135795
3688,1929;0,0130412
3689,1572;0,0123758
3690,1213;0,0118756
3691,0857;0,0116791
3692,0498;0,0117269
3693,0142;0,0118987
3693,9783;0,0121093
3694,9426;0,0123206
3695,9067;0,0125198
3696,8711;0,0126934
3697,8352;0,0128101
3698,7996;0,0128247
3699,7637;0,0127058
3700,7280;0,0124773
3701,6921;0,0122361
3702,6565;0,0121092
3703,6206;0,0121763
3704,5850;0,012432
3705,5491;0,0128029
3706,5134;0,0131754
3707,4775;0,0134099
3708,4419;0,013362
3709,4060;0,0129549
3710,3704;0,0122922
3711,3345;0,0116626
3712,2988;0,0113257
3713,2629;0,0113289
3714,2273;0,0115633
3715,1914;0,0118952
3716,1558;0,0122231
3717,1199;0,0124826
3718,0842;0,0126428
3719,0483;0,0127051
3720,0127;0,0126935
3720,9768;0,0126328
3721,9412;0,0125307
3722,9053;0,0123862
3723,8696;0,0122195
3724,8337;0,0120912
3725,7981;0,0120805
3726,7622;0,0122369
3727,7266;0,0125506
3728,6907;0,0129607
3729,6550;0,0133767
3730,6191;0,0136922
3731,5835;0,0137936
3732,5476;0,0135866
3733,5120;0,0130631
3734,4761;0,0123776
3735,4404;0,0118088
3736,4045;0,011571
3737,3689;0,0116939
3738,3330;0,012082
3739,2974;0,0126063
3740,2615;0,0131311
3741,2258;0,0135067
3742,1899;0,0135925
3743,1543;0,0133569
3744,1184;0,0129836
3745,0828;0,0127658
3746,0469;0,012829
3747,0112;0,0130449
3747,9753;0,0131635
3748,9397;0,0129597
3749,9038;0,0123924
3750,8682;0,0117207
3751,8323;0,0113169
3752,7966;0,0113103
3753,7607;0,0115634
3754,7251;0,0118748
3755,6892;0,0120923
3756,6536;0,0121367
3757,6177;0,0120196
3758,5820;0,0118426
3759,5461;0,011733
3760,5105;0,0117543
3761,4746;0,011883
3762,4390;0,0120529
3763,4031;0,0122019
3764,3674;0,0122917
3765,3315;0,0123078
3766,2959;0,0122491
3767,2600;0,0121195
3768,2244;0,0119319
3769,1885;0,0117238
3770,1528;0,0115603
3771,1169;0,0115087
3772,0813;0,011599
3773,0454;0,0118063
3774,0098;0,0120645
3774,9739;0,0122886
3775,9382;0,0123993
3776,9023;0,0123542
3777,8667;0,0121794
3778,8308;0,0119677
3779,7952;0,0118183
3780,7593;0,011769
3781,7236;0,0117887
3782,6877;0,0118197
3783,6521;0,0118201
3784,6162;0,0117823
3785,5806;0,0117281
3786,5447;0,0116908
3787,5090;0,0116976
3788,4731;0,0117619
3789,4375;0,0118824
3790,4016;0,0120429
3791,3660;0,0122141
3792,3301;0,0123621
3793,2944;0,012466
3794,2585;0,0125359
3795,2229;0,0126111
3796,1870;0,0127279
3797,1514;0,0128759
3798,1155;0,0129821
3799,0798;0,0129489
3800,0439;0,0127365
3801,0083;0,0124272
3801,9724;0,0121762
3802,9368;0,012071
3803,9009;0,0120636
3804,8652;0,0120332
3805,8293;0,011893
3806,7937;0,0116693
3807,7578;0,0114975
3808,7222;0,0115137
3809,6863;0,0117502
3810,6506;0,012135
3811,6147;0,0125495
3812,5791;0,0128761
3813,5432;0,013039
3814,5076;0,0130478
3815,4717;0,0129964
3816,4360;0,0129747
3817,4001;0,0129716
3818,3645;0,0128866
3819,3286;0,0126319
3820,2930;0,0122361
3821,2571;0,0118523
3822,2214;0,0116325
3823,1855;0,0116114
3824,1499;0,0117246
3825,1140;0,0118892
3826,0784;0,012051
3827,0425;0,0121908
3828,0068;0,012314
3828,9709;0,0124333
3829,9353;0,0125592
3830,8994;0,0126979
3831,8638;0,0128528
3832,8279;0,0130187
3833,7922;0,0131693
3834,7563;0,0132503
3835,7207;0,0131946
3836,6848;0,0129653
3837,6492;0,0126017
3838,6133;0,0122152
3839,5776;0,011915
3840,5417;0,0117399
3841,5061;0,0116651
3842,4702;0,011655
3843,4346;0,0117019
3844,3987;0,01183
3845,3630;0,0120746
3846,3271;0,0124554
3847,2915;0,0129608
3848,2556;0,0135383
3849,2200;0,0140787
3850,1841;0,0143939
3851,1484;0,0142348
3852,1125;0,0134691
3853,0769;0,0123832
3854,0410;0,011563
3855,0054;0,0112889
3855,9695;0,0114333
3856,9338;0,0117884
3857,8979;0,0122116
3858,8623;0,0126059
3859,8264;0,0128887
3860,7908;0,0129961
3861,7549;0,0129187
3862,7192;0,0127346
3863,6833;0,012578
3864,6477;0,0125485
3865,6118;0,0126497
3866,5762;0,0128057
3867,5403;0,0129144
3868,5046;0,0128931
3869,4688;0,0127146
3870,4331;0,0124245
3871,3972;0,0121225
3872,3616;0,0119111
3873,3257;0,0118513
3874,2900;0,0119487
3875,2542;0,0121638
3876,2185;0,0124286
3877,1826;0,0126659
3878,1470;0,0128136
3879,1111;0,0128501
3880,0754;0,0128047
3881,0396;0,0127288
3882,0039;0,0126514
3882,9680;0,0125665
3883,9324;0,0124671
3884,8965;0,0123805
3885,8608;0,0123576
3886,8250;0,0124217
3887,7893;0,0125317
3888,7534;0,0125982
3889,7178;0,0125383
3890,6819;0,0123453
3891,6462;0,0121237
3892,6104;0,0120273
3893,5747;0,0121402
3894,5388;0,0124311
3895,5032;0,0128011
3896,4673;0,0131419
3897,4316;0,0133687
3898,3958;0,0134397
3899,3601;0,0133595
3900,3242;0,0131578
3901,2886;0,0128612
3902,2527;0,012499
3903,2170;0,0121305
3904,1812;0,0118414
3905,1455;0,0116951
3906,1096;0,0116952
3907,0740;0,011796
3908,0381;0,0119397
3909,0024;0,0120842
3909,9666;0,0122149
3910,9309;0,0123386
3911,8950;0,0124665
3912,8594;0,012593
3913,8235;0,0126879
3914,7878;0,0127095
3915,7520;0,0126358
3916,7163;0,0124928
3917,6804;0,0123502
3918,6448;0,0122745
3919,6089;0,0122823
3920,5732;0,0123362
3921,5374;0,012378
3922,5017;0,0123695
3923,4658;0,0123194
3924,4302;0,0122782
3925,3943;0,0122992
3926,3586;0,0123945
3927,3228;0,0125241
3928,2871;0,0126201
3929,2512;0,0126237
3930,2156;0,0125188
3931,1797;0,0123459
3932,1440;0,0121803
3933,1082;0,012085
3934,0725;0,0120797
3935,0366;0,012147
3936,0010;0,0122561
3936,9651;0,0123771
3937,9294;0,0124832
3938,8936;0,0125496
3939,8579;0,0125588
3940,8220;0,0125121
3941,7864;0,0124372
3942,7505;0,0123775
3943,7148;0,0123651
3944,6790;0,0123993
3945,6433;0,012448
3946,6074;0,0124695
3947,5718;0,01244
3948,5359;0,0123693
3949,5002;0,0122944
3950,4644;0,0122536
3951,4287;0,0122609
3952,3928;0,0123029
3953,3572;0,0123546
3954,3213;0,0123969
3955,2856;0,0124239
3956,2498;0,0124396
3957,2141;0,0124475
3958,1782;0,0124453
3959,1426;0,0124276
3960,1067;0,0123945
3961,0710;0,0123569
3962,0352;0,0123328
3962,9995;0,0123356
3963,9636;0,0123656
3964,9280;0,0124091
3965,8921;0,0124475
3966,8564;0,0124674
3967,8206;0,012466
3968,7849;0,01245
3969,7490;0,0124283
3970,7134;0,0124065
3971,6775;0,0123856
3972,6418;0,0123649
3973,6060;0,0123463
3974,5703;0,0123346
3975,5344;0,0123352
3976,4988;0,0123498
3977,4629;0,0123753
3978,4272;0,0124048
3979,3914;0,0124307
3980,3557;0,0124478
3981,3198;0,0124544
3982,2842;0,0124529
3983,2483;0,0124487
3984,2126;0,0124474
3985,1768;0,0124521
3986,1411;0,0124621
3987,1052;0,0124733
3988,0696;0,0124819
3989,0337;0,0124865
3989,9980;0,0124888
3990,9622;0,0124918
3991,9265;0,0124957
3992,8906;0,0124975
3993,8550;0,0124933
3994,8191;0,0124818
3995,7834;0,0124661
3996,7476;0,012451
3997,7119;0,0124395
3998,6760;0,0124313
3999,6404;0,0124247
4000,6045;0,0123272

##### Extended Information
[Comments]
Sample name
Comment
Username
Division
Organization;UNIVERSIDAD INDUSTRIAL DE SANTANDER

[Detailed Information]
Creation date;18/03/2025 10:28 a.m.

Data array type;Linear data array
Horizontal axis;Wavenumber [cm-1]
Vertical axis;Abs
Start;399,193 cm-1
End;4000,6 cm-1
Data interval;0,964233 cm-1
Data points;3736    

[Measurement Information]
Model name;FT/IR-4X1typeA
Serial No.;A035162111

Accessory;ATR PRO 4X
Accessory S/N;A021162126
Incident angle;45 deg

Measurement date;18/03/2025 10:25 a.m.

Light source;Standard
Detector;TGS
Accumulation;40
Resolution;4 cm-1
Zero filling;On
Apodization;Cosine
Gain;Auto (8)
Aperture;Auto (7 mm)
Scan speed;Auto (2 mm/sec)
Filter;Auto (12800 Hz)

