TITLE;
DATA TYPE;INFRARED SPECTRUM
ORIGIN;JASCO
OWNER;
DATE;25/03/18
TIME;11:07:15
SPECTROMETER/DATA SYSTEM;
LOCALE;9226
RESOLUTION;
DELTAX;0,964233
XUNITS;1/CM
YUNITS;ABSORBANCE
FIRSTX;  399,1927
LASTX; 4000,6047
NPOINTS;    3736
FIRSTY;     0,16506
MAXY;     0,24398
MINY;     0,00812
XYDATA
399,1927;0,165062
400,1569;0,163997
401,1211;0,162881
402,0854;0,162049
403,0496;0,161508
404,0138;0,161147
404,9781;0,160884
405,9423;0,160715
406,9065;0,160684
407,8708;0,160827
408,8350;0,161133
409,7992;0,161563
410,7635;0,162087
411,7277;0,162682
412,6919;0,163299
413,6562;0,163845
414,6204;0,164207
415,5846;0,164319
416,5489;0,164252
417,5131;0,164298
418,4773;0,164908
419,4416;0,166268
420,4058;0,167967
421,3700;0,169377
422,3343;0,170153
423,2985;0,170296
424,2627;0,169999
425,2270;0,169527
426,1912;0,169125
427,1554;0,168946
428,1197;0,16904
429,0839;0,169399
430,0481;0,169992
431,0124;0,170762
431,9766;0,171602
432,9408;0,172361
433,9051;0,17289
434,8693;0,173112
435,8335;0,173054
436,7978;0,17282
437,7620;0,172522
438,7262;0,172227
439,6905;0,171959
440,6547;0,171731
441,6189;0,171563
442,5832;0,171471
443,5474;0,171426
444,5116;0,171358
445,4759;0,1712
446,4401;0,170952
447,4043;0,170696
448,3686;0,170549
449,3328;0,170591
450,2970;0,170812
451,2613;0,171101
452,2255;0,171304
453,1897;0,171293
454,1540;0,171017
455,1182;0,170495
456,0824;0,169795
457,0467;0,169011
458,0109;0,168254
458,9751;0,167645
459,9394;0,167277
460,9036;0,167207
461,8678;0,167438
462,8321;0,167916
463,7963;0,168515
464,7605;0,169044
465,7248;0,169293
466,6890;0,169118
467,6532;0,168498
468,6175;0,167527
469,5817;0,166378
470,5459;0,165264
471,5102;0,164415
472,4744;0,164015
473,4386;0,164111
474,4029;0,164576
475,3671;0,16517
476,3313;0,165646
477,2956;0,165837
478,2598;0,165695
479,2240;0,165287
480,1883;0,164766
481,1525;0,164316
482,1167;0,1641
483,0810;0,164225
484,0452;0,164719
485,0094;0,165524
485,9737;0,166515
486,9379;0,167539
487,9021;0,168459
488,8664;0,169173
489,8306;0,169611
490,7948;0,169744
491,7591;0,169602
492,7233;0,169282
493,6875;0,168936
494,6518;0,168711
495,6160;0,168693
496,5802;0,168867
497,5445;0,169136
498,5087;0,16937
499,4729;0,169481
500,4372;0,169469
501,4014;0,169433
502,3656;0,169511
503,3299;0,169797
504,2941;0,170281
505,2583;0,170873
506,2226;0,171467
507,1868;0,171998
508,1510;0,172466
509,1153;0,172906
510,0795;0,173358
511,0437;0,173836
512,0080;0,174335
512,9722;0,17485
513,9365;0,175398
514,9007;0,176009
515,8649;0,176715
516,8292;0,177507
517,7934;0,178322
518,7576;0,179053
519,7219;0,179593
520,6861;0,179887
521,6503;0,179946
522,6146;0,179838
523,5788;0,179672
524,5430;0,179579
525,5073;0,179667
526,4715;0,17996
527,4357;0,18037
528,4000;0,180741
529,3642;0,180935
530,3284;0,180898
531,2927;0,180673
532,2569;0,180356
533,2211;0,180036
534,1854;0,179747
535,1496;0,179467
536,1138;0,179166
537,0781;0,178857
538,0423;0,1786
539,0065;0,178464
539,9708;0,178471
540,9350;0,178574
541,8992;0,178687
542,8635;0,178742
543,8277;0,178734
544,7919;0,178724
545,7562;0,17879
546,7204;0,178983
547,6846;0,179294
548,6489;0,179674
549,6131;0,180072
550,5773;0,180468
551,5416;0,180876
552,5058;0,181322
553,4700;0,181818
554,4343;0,182351
555,3985;0,182878
556,3627;0,183345
557,3270;0,183694
558,2912;0,18387
559,2554;0,183822
560,2197;0,183512
561,1839;0,182932
562,1481;0,182119
563,1124;0,181156
564,0766;0,180141
565,0408;0,179153
566,0051;0,178224
566,9693;0,177349
567,9335;0,176518
568,8978;0,175751
569,8620;0,175106
570,8262;0,174653
571,7905;0,174433
572,7547;0,174433
573,7189;0,174587
574,6832;0,174802
575,6474;0,174983
576,6116;0,175062
577,5759;0,17501
578,5401;0,174833
579,5043;0,17456
580,4686;0,174235
581,4328;0,1739
582,3970;0,173591
583,3613;0,173326
584,3255;0,173107
585,2897;0,172932
586,2540;0,172807
587,2182;0,172743
588,1824;0,172751
589,1467;0,17282
590,1109;0,172912
591,0751;0,172977
592,0394;0,172973
593,0036;0,172893
593,9678;0,172759
594,9321;0,172591
595,8963;0,17239
596,8605;0,172126
597,8248;0,171765
598,7890;0,171297
599,7532;0,170756
600,7175;0,170211
601,6817;0,169729
602,6459;0,169345
603,6102;0,16905
604,5744;0,168803
605,5386;0,168553
606,5029;0,168254
607,4671;0,167869
608,4313;0,167379
609,3956;0,166788
610,3598;0,166129
611,3240;0,165463
612,2883;0,164854
613,2525;0,164336
614,2167;0,163895
615,1810;0,163462
616,1452;0,162943
617,1094;0,16226
618,0737;0,161386
619,0379;0,16035
620,0021;0,159205
620,9664;0,158004
621,9306;0,156784
622,8948;0,15558
623,8591;0,154442
624,8233;0,153418
625,7875;0,152549
626,7518;0,151827
627,7160;0,151206
628,6802;0,150623
629,6445;0,150031
630,6087;0,149411
631,5729;0,148771
632,5372;0,148124
633,5014;0,147481
634,4656;0,146841
635,4299;0,146206
636,3941;0,14558
637,3583;0,144981
638,3226;0,144427
639,2868;0,143931
640,2510;0,143496
641,2153;0,143112
642,1795;0,142757
643,1437;0,142406
644,1080;0,142038
645,0722;0,14164
646,0364;0,141212
647,0007;0,140763
647,9649;0,140306
648,9291;0,139856
649,8934;0,139427
650,8576;0,139032
651,8218;0,13869
652,7861;0,138419
653,7503;0,138239
654,7145;0,138161
655,6788;0,138182
656,6430;0,13828
657,6072;0,138419
658,5715;0,138551
659,5357;0,138623
660,4999;0,138598
661,4642;0,138475
662,4284;0,138292
663,3926;0,138112
664,3569;0,137987
665,3211;0,137945
666,2853;0,137942
667,2496;0,137766
668,2138;0,137048
669,1780;0,135658
670,1423;0,133972
671,1065;0,13237
672,0707;0,130923
673,0350;0,129547
673,9992;0,128164
674,9634;0,126741
675,9277;0,125286
676,8919;0,123814
677,8561;0,122338
678,8204;0,120874
679,7846;0,119466
680,7488;0,118181
681,7131;0,117082
682,6773;0,116192
683,6415;0,115489
684,6058;0,114928
685,5700;0,114467
686,5342;0,114074
687,4985;0,113719
688,4627;0,113372
689,4269;0,11301
690,3912;0,112629
691,3554;0,112245
692,3196;0,111874
693,2839;0,111523
694,2481;0,111182
695,2123;0,110837
696,1766;0,110485
697,1408;0,110136
698,1050;0,109806
699,0693;0,109493
700,0335;0,109178
700,9977;0,108826
701,9620;0,10841
702,9262;0,107924
703,8904;0,107387
704,8547;0,10683
705,8189;0,106282
706,7831;0,105758
707,7474;0,105254
708,7116;0,104757
709,6758;0,104253
710,6401;0,103733
711,6043;0,103194
712,5685;0,102644
713,5328;0,102103
714,4970;0,101593
715,4612;0,101072
716,4255;0,100659
717,3897;0,10025
718,3539;0,0997763
719,3182;0,0991711
720,2824;0,0983992
721,2466;0,0974821
722,2109;0,0964876
723,1751;0,0954942
724,1393;0,0945571
725,1036;0,0936968
726,0678;0,0929068
727,0320;0,0921706
727,9963;0,0914743
728,9605;0,0908127
729,9247;0,0901853
730,8890;0,0895896
731,8532;0,0890157
732,8174;0,0884472
733,7817;0,0878686
734,7459;0,0872741
735,7101;0,0866733
736,6744;0,0860879
737,6386;0,0855411
738,6028;0,0850468
739,5671;0,0846042
740,5313;0,0842003
741,4955;0,0838187
742,4598;0,0834454
743,4240;0,0830707
744,3882;0,0826875
745,3525;0,0822899
746,3167;0,0818759
747,2809;0,0814488
748,2452;0,0810173
749,2094;0,0805901
750,1736;0,0801718
751,1379;0,0797613
752,1021;0,0793549
753,0663;0,0789505
754,0306;0,078548
754,9948;0,0781475
755,9590;0,0777466
756,9233;0,0773426
757,8875;0,076937
758,8517;0,076539
759,8160;0,0761627
760,7802;0,075818
761,7444;0,0755034
762,7087;0,0752033
763,6729;0,0748959
764,6371;0,0745654
765,6014;0,0742111
766,5656;0,073847
767,5298;0,0734927
768,4941;0,0731611
769,4583;0,0728518
770,4225;0,0725539
771,3868;0,0722561
772,3510;0,0719573
773,3152;0,0716681
774,2795;0,0714042
775,2437;0,0711734
776,2079;0,070967
777,1722;0,0707606
778,1364;0,0705263
779,1006;0,0702463
780,0649;0,0699217
781,0291;0,0695707
781,9933;0,0692181
782,9576;0,0688841
783,9218;0,0685788
784,8860;0,0683031
785,8503;0,0680533
786,8145;0,0678254
787,7787;0,0676147
788,7430;0,0674152
789,7072;0,0672185
790,6714;0,0670172
791,6357;0,0668089
792,5999;0,0665987
793,5641;0,0663975
794,5284;0,066216
795,4926;0,06606
796,4568;0,065928
797,4211;0,0658138
798,3853;0,0657111
799,3495;0,0656159
800,3138;0,0655254
801,2780;0,0654353
802,2422;0,0653375
803,2065;0,0652224
804,1707;0,0650833
805,1349;0,0649205
806,0992;0,064741
807,0634;0,0645555
808,0276;0,0643727
808,9919;0,064197
809,9561;0,0640292
810,9203;0,0638688
811,8846;0,0637171
812,8488;0,0635768
813,8130;0,0634494
814,7773;0,0633331
815,7415;0,0632217
816,7057;0,0631072
817,6700;0,0629824
818,6342;0,0628429
819,5984;0,0626881
820,5627;0,0625196
821,5269;0,0623408
822,4911;0,0621575
823,4554;0,0619785
824,4196;0,0618154
825,3839;0,0616796
826,3481;0,0615763
827,3123;0,0615
828,2766;0,0614338
829,2408;0,0613546
830,2050;0,0612418
831,1693;0,061086
832,1335;0,0608908
833,0977;0,0606693
834,0620;0,0604363
835,0262;0,0602026
835,9904;0,0599731
836,9547;0,0597485
837,9189;0,0595281
838,8831;0,0593112
839,8474;0,0590969
840,8116;0,0588839
841,7758;0,0586713
842,7401;0,0584597
843,7043;0,0582524
844,6685;0,0580551
845,6328;0,0578746
846,5970;0,0577183
847,5612;0,0575921
848,5255;0,0574984
849,4897;0,0574342
850,4539;0,0573899
851,4182;0,0573526
852,3824;0,0573111
853,3466;0,0572614
854,3109;0,0572069
855,2751;0,0571531
856,2393;0,0571023
857,2036;0,0570511
858,1678;0,0569955
859,1320;0,0569385
860,0963;0,056894
861,0605;0,0568824
862,0247;0,0569204
862,9890;0,0570114
863,9532;0,0571428
864,9174;0,0572922
865,8817;0,0574378
866,8459;0,0575665
867,8101;0,057678
868,7744;0,057783
869,7386;0,0578982
870,7028;0,0580399
871,6671;0,0582155
872,6313;0,0584181
873,5955;0,0586259
874,5598;0,0588099
875,5240;0,058947
876,4882;0,0590327
877,4525;0,0590849
878,4167;0,0591356
879,3809;0,0592179
880,3452;0,0593538
881,3094;0,059552
882,2736;0,059814
883,2379;0,0601429
884,2021;0,0605484
885,1663;0,0610442
886,1306;0,0616413
887,0948;0,0623417
888,0590;0,0631368
889,0233;0,0640085
889,9875;0,0649323
890,9517;0,0658776
891,9160;0,0668079
892,8802;0,0676805
893,8444;0,0684496
894,8087;0,0690727
895,7729;0,0695167
896,7371;0,0697629
897,7014;0,0698076
898,6656;0,0696594
899,6298;0,069336
900,5941;0,0688607
901,5583;0,0682617
902,5225;0,0675725
903,4868;0,0668322
904,4510;0,066084
905,4152;0,0653712
906,3795;0,064731
907,3437;0,0641873
908,3079;0,0637471
909,2722;0,0634009
910,2364;0,0631306
911,2007;0,0629186
912,1649;0,0627554
913,1292;0,0626403
914,0934;0,062576
915,0576;0,0625617
916,0219;0,062591
916,9861;0,0626557
917,9503;0,0627523
918,9146;0,0628856
919,8788;0,0630641
920,8430;0,0632914
921,8073;0,0635585
922,7715;0,0638433
923,7357;0,0641187
924,7000;0,0643632
925,6642;0,0645671
926,6284;0,0647337
927,5927;0,0648751
928,5569;0,0650079
929,5211;0,0651497
930,4854;0,0653157
931,4496;0,0655144
932,4138;0,0657444
933,3781;0,0659941
934,3423;0,0662491
935,3065;0,0665034
936,2708;0,0667676
937,2350;0,0670679
938,1992;0,0674354
939,1635;0,0678905
940,1277;0,0684334
941,0919;0,0690462
942,0562;0,0697041
943,0204;0,0703903
943,9846;0,071105
944,9489;0,0718641
945,9131;0,0726898
946,8773;0,0735992
947,8416;0,0745976
948,8058;0,0756777
949,7700;0,0768251
950,7343;0,0780264
951,6985;0,0792755
952,6627;0,080575
953,6270;0,0819345
954,5912;0,0833653
955,5554;0,0848747
956,5197;0,0864623
957,4839;0,0881191
958,4481;0,0898291
959,4124;0,0915734
960,3766;0,0933347
961,3408;0,0951013
962,3051;0,0968687
963,2693;0,0986389
964,2335;0,100418
965,1978;0,102214
966,1620;0,104033
967,1262;0,105884
968,0905;0,107776
969,0547;0,10972
970,0189;0,111734
970,9832;0,113843
971,9474;0,116074
972,9116;0,118461
973,8759;0,12104
974,8401;0,12384
975,8043;0,126886
976,7686;0,130186
977,7328;0,133732
978,6970;0,137486
979,6613;0,141383
980,6255;0,145328
981,5897;0,149205
982,5540;0,15289
983,5182;0,156276
984,4824;0,159292
985,4467;0,161912
986,4109;0,164157
987,3751;0,166077
988,3394;0,167733
989,3036;0,169179
990,2678;0,170455
991,2321;0,17159
992,1963;0,172612
993,1605;0,17356
994,1248;0,174478
995,0890;0,175412
996,0532;0,176395
997,0175;0,177435
997,9817;0,178521
998,9459;0,179627
999,9102;0,180735
1000,8744;0,181841
1001,8386;0,18296
1002,8029;0,184119
1003,7671;0,185352
1004,7313;0,186696
1005,6956;0,188194
1006,6598;0,189896
1007,6240;0,191852
1008,5883;0,1941
1009,5525;0,196643
1010,5167;0,19945
1011,4810;0,20245
1012,4452;0,205555
1013,4094;0,20867
1014,3737;0,21171
1015,3379;0,214604
1016,3021;0,217299
1017,2664;0,219766
1018,2306;0,221997
1019,1948;0,224017
1020,1591;0,225876
1021,1233;0,227641
1022,0875;0,229378
1023,0518;0,231138
1024,0160;0,232945
1024,9802;0,234795
1025,9445;0,236652
1026,9087;0,238464
1027,8729;0,240161
1028,8372;0,241661
1029,8014;0,242869
1030,7656;0,243679
1031,7299;0,243983
1032,6941;0,243688
1033,6583;0,242744
1034,6226;0,241169
1035,5868;0,239065
1036,5510;0,236603
1037,5153;0,234001
1038,4795;0,231477
1039,4437;0,229215
1040,4080;0,227337
1041,3722;0,225897
1042,3364;0,224881
1043,3007;0,224223
1044,2649;0,223818
1045,2291;0,223548
1046,1934;0,223299
1047,1576;0,222979
1048,1218;0,222524
1049,0861;0,221897
1050,0503;0,221069
1051,0145;0,220018
1051,9788;0,218722
1052,9430;0,217171
1053,9072;0,21537
1054,8715;0,213339
1055,8357;0,211095
1056,7999;0,208632
1057,7642;0,205904
1058,7284;0,202843
1059,6926;0,199385
1060,6569;0,195519
1061,6211;0,19131
1062,5853;0,186897
1063,5496;0,182464
1064,5138;0,178187
1065,4780;0,174201
1066,4423;0,170574
1067,4065;0,167316
1068,3707;0,164395
1069,3350;0,161753
1070,2992;0,159329
1071,2634;0,157066
1072,2277;0,154915
1073,1919;0,152835
1074,1561;0,150791
1075,1204;0,148757
1076,0846;0,146712
1077,0488;0,144651
1078,0131;0,142589
1078,9773;0,140563
1079,9415;0,138624
1080,9058;0,13683
1081,8700;0,135227
1082,8342;0,133839
1083,7985;0,132666
1084,7627;0,131685
1085,7269;0,130856
1086,6912;0,130134
1087,6554;0,129484
1088,6196;0,128891
1089,5839;0,128365
1090,5481;0,127933
1091,5123;0,127625
1092,4766;0,127452
1093,4408;0,127401
1094,4050;0,127442
1095,3693;0,127538
1096,3335;0,127673
1097,2977;0,127848
1098,2620;0,128083
1099,2262;0,128393
1100,1904;0,128777
1101,1547;0,129203
1102,1189;0,129619
1103,0831;0,129965
1104,0474;0,130188
1105,0116;0,130256
1105,9758;0,13016
1106,9401;0,129913
1107,9043;0,129527
1108,8685;0,129009
1109,8328;0,128339
1110,7970;0,127479
1111,7612;0,126383
1112,7255;0,125027
1113,6897;0,123428
1114,6539;0,121656
1115,6182;0,119821
1116,5824;0,118043
1117,5466;0,116416
1118,5109;0,11498
1119,4751;0,113709
1120,4393;0,112527
1121,4036;0,11133
1122,3678;0,110024
1123,3320;0,108539
1124,2963;0,106847
1125,2605;0,104953
1126,2247;0,102888
1127,1890;0,100698
1128,1532;0,0984348
1129,1174;0,0961445
1130,0817;0,0938673
1131,0459;0,0916335
1132,0101;0,0894667
1132,9744;0,0873895
1133,9386;0,0854306
1134,9028;0,0836266
1135,8671;0,0820191
1136,8313;0,0806451
1137,7955;0,0795272
1138,7598;0,0786689
1139,7240;0,0780557
1140,6882;0,0776624
1141,6525;0,0774593
1142,6167;0,0774172
1143,5809;0,0775089
1144,5452;0,077711
1145,5094;0,0780051
1146,4736;0,07838
1147,4379;0,0788325
1148,4021;0,079364
1149,3663;0,0799768
1150,3306;0,0806686
1151,2948;0,0814302
1152,2590;0,0822442
1153,2233;0,083085
1154,1875;0,0839179
1155,1517;0,0846974
1156,1160;0,0853676
1157,0802;0,0858635
1158,0444;0,086115
1159,0087;0,0860512
1159,9729;0,0856063
1160,9371;0,0847267
1161,9014;0,0833795
1162,8656;0,0815628
1163,8298;0,0793129
1164,7941;0,0767059
1165,7583;0,0738508
1166,7225;0,0708743
1167,6868;0,067902
1168,6510;0,0650388
1169,6152;0,0623571
1170,5795;0,0598936
1171,5437;0,0576561
1172,5079;0,0556371
1173,4722;0,0538254
1174,4364;0,0522138
1175,4006;0,0507984
1176,3649;0,0495738
1177,3291;0,0485288
1178,2933;0,0476454
1179,2576;0,0469022
1180,2218;0,0462789
1181,1860;0,04576
1182,1503;0,0453356
1183,1145;0,0450004
1184,0787;0,0447513
1185,0430;0,0445853
1186,0072;0,0444984
1186,9714;0,0444862
1187,9357;0,0445445
1188,8999;0,0446723
1189,8641;0,0448723
1190,8284;0,0451509
1191,7926;0,0455144
1192,7568;0,0459654
1193,7211;0,0465
1194,6853;0,0471078
1195,6495;0,047774
1196,6138;0,0484825
1197,5780;0,0492174
1198,5422;0,0499646
1199,5065;0,0507177
1200,4707;0,0514527
1201,4349;0,0521691
1202,3992;0,0528622
1203,3634;0,0535283
1204,3276;0,0541639
1205,2919;0,0547659
1206,2561;0,055334
1207,2203;0,0558746
1208,1846;0,0564031
1209,1488;0,0569422
1210,1130;0,0575173
1211,0773;0,0581499
1212,0415;0,058852
1213,0057;0,0596234
1213,9700;0,0604535
1214,9342;0,0613241
1215,8984;0,0622146
1216,8627;0,063105
1217,8269;0,0639794
1218,7911;0,0648274
1219,7554;0,0656447
1220,7196;0,0664312
1221,6838;0,0671885
1222,6481;0,0679169
1223,6123;0,0686139
1224,5765;0,0692753
1225,5408;0,069897
1226,5050;0,0704773
1227,4692;0,0710181
1228,4335;0,0715237
1229,3977;0,0719985
1230,3619;0,0724441
1231,3262;0,0728575
1232,2904;0,0732314
1233,2546;0,0735578
1234,2189;0,0738319
1235,1831;0,0740555
1236,1473;0,0742377
1237,1116;0,0743906
1238,0758;0,0745243
1239,0400;0,0746418
1240,0043;0,0747377
1240,9685;0,0748013
1241,9327;0,0748215
1242,8970;0,0747899
1243,8612;0,0747017
1244,8254;0,0745554
1245,7897;0,0743507
1246,7539;0,0740904
1247,7181;0,0737814
1248,6824;0,073435
1249,6466;0,0730652
1250,6108;0,0726855
1251,5751;0,0723062
1252,5393;0,0719346
1253,5035;0,0715756
1254,4678;0,0712315
1255,4320;0,0709009
1256,3962;0,0705754
1257,3605;0,0702406
1258,3247;0,0698797
1259,2889;0,0694797
1260,2532;0,0690359
1261,2174;0,0685501
1262,1816;0,0680262
1263,1459;0,0674641
1264,1101;0,066859
1265,0743;0,0662052
1266,0386;0,0655006
1267,0028;0,0647494
1267,9670;0,0639602
1268,9313;0,0631427
1269,8955;0,0623045
1270,8597;0,061451
1271,8240;0,060587
1272,7882;0,0597191
1273,7524;0,0588566
1274,7167;0,0580119
1275,6809;0,0571985
1276,6451;0,0564272
1277,6094;0,0557017
1278,5736;0,0550162
1279,5378;0,054356
1280,5021;0,053704
1281,4663;0,053049
1282,4305;0,0523915
1283,3948;0,0517437
1284,3590;0,0511239
1285,3232;0,0505491
1286,2875;0,050031
1287,2517;0,0495756
1288,2159;0,0491859
1289,1802;0,048865
1290,1444;0,0486165
1291,1086;0,0484442
1292,0729;0,0483502
1293,0371;0,0483338
1294,0013;0,0483914
1294,9656;0,0485168
1295,9298;0,0487027
1296,8940;0,0489437
1297,8583;0,0492382
1298,8225;0,0495896
1299,7867;0,0500037
1300,7510;0,0504845
1301,7152;0,0510302
1302,6794;0,0516325
1303,6437;0,0522791
1304,6079;0,0529584
1305,5721;0,0536626
1306,5364;0,0543889
1307,5006;0,0551371
1308,4648;0,0559057
1309,4291;0,0566884
1310,3933;0,0574712
1311,3575;0,0582323
1312,3218;0,0589446
1313,2860;0,0595809
1314,2502;0,0601176
1315,2145;0,0605352
1316,1787;0,0608172
1317,1429;0,0609509
1318,1072;0,0609341
1319,0714;0,060783
1320,0356;0,0605332
1320,9999;0,0602297
1321,9641;0,0599129
1322,9283;0,059609
1323,8926;0,0593314
1324,8568;0,059087
1325,8210;0,0588812
1326,7853;0,0587169
1327,7495;0,0585904
1328,7137;0,0584883
1329,6780;0,0583903
1330,6422;0,0582764
1331,6064;0,058137
1332,5707;0,0579761
1333,5349;0,0578055
1334,4991;0,0576304
1335,4634;0,0574352
1336,4276;0,0571776
1337,3918;0,0568011
1338,3561;0,0562674
1339,3203;0,0555947
1340,2845;0,0548639
1341,2488;0,0541761
1342,2130;0,0535993
1343,1772;0,0531505
1344,1415;0,0528111
1345,1057;0,0525517
1346,0699;0,0523512
1347,0342;0,0522064
1347,9984;0,0521317
1348,9626;0,0521488
1349,9269;0,0522716
1350,8911;0,052495
1351,8553;0,0527943
1352,8196;0,0531356
1353,7838;0,0534932
1354,7480;0,0538633
1355,7123;0,0542648
1356,6765;0,0547251
1357,6407;0,0552595
1358,6050;0,0558584
1359,5692;0,056485
1360,5334;0,0570834
1361,4977;0,0575977
1362,4619;0,0580017
1363,4261;0,0583146
1364,3904;0,0585834
1365,3546;0,0588479
1366,3188;0,0591224
1367,2831;0,0593988
1368,2473;0,0596585
1369,2115;0,0598786
1370,1758;0,060031
1371,1400;0,060079
1372,1042;0,0599804
1373,0685;0,0597081
1374,0327;0,0592804
1374,9969;0,0587662
1375,9612;0,0582406
1376,9254;0,0577262
1377,8896;0,0571808
1378,8539;0,0565395
1379,8181;0,0557727
1380,7823;0,0549193
1381,7466;0,0540664
1382,7108;0,0532879
1383,6750;0,052591
1384,6393;0,0519123
1385,6035;0,0511674
1386,5677;0,05033
1387,5320;0,0494814
1388,4962;0,0487616
1389,4604;0,0482625
1390,4247;0,0479812
1391,3889;0,0478519
1392,3531;0,0477948
1393,3174;0,0477447
1394,2816;0,0476649
1395,2458;0,0475498
1396,2101;0,0474166
1397,1743;0,0472942
1398,1385;0,0472171
1399,1028;0,0472198
1400,0670;0,0473247
1401,0313;0,0475301
1401,9955;0,0478081
1402,9597;0,0481172
1403,9240;0,0484228
1404,8882;0,0487168
1405,8524;0,0490229
1406,8167;0,0493763
1407,7809;0,0497967
1408,7451;0,0502787
1409,7094;0,0508041
1410,6736;0,0513608
1411,6378;0,0519535
1412,6021;0,0525974
1413,5663;0,053302
1414,5305;0,0540534
1415,4948;0,0548057
1416,4590;0,0554795
1417,4232;0,0559844
1418,3875;0,0562769
1419,3517;0,0564088
1420,3159;0,056479
1421,2802;0,0565356
1422,2444;0,0565548
1423,2086;0,0564876
1424,1729;0,0563077
1425,1371;0,0560222
1426,1013;0,0556441
1427,0656;0,0551593
1428,0298;0,0545289
1428,9940;0,0537398
1429,9583;0,05286
1430,9225;0,0520225
1431,8867;0,0513301
1432,8510;0,0507735
1433,8152;0,0502296
1434,7794;0,0495305
1435,7437;0,0485901
1436,7079;0,0475279
1437,6721;0,0466161
1438,6364;0,0460437
1439,6006;0,0458063
1440,5648;0,0458012
1441,5291;0,0459335
1442,4933;0,0461511
1443,4575;0,0464332
1444,4218;0,0467681
1445,3860;0,0471356
1446,3502;0,0475041
1447,3145;0,0478446
1448,2787;0,0481498
1449,2429;0,048443
1450,2072;0,0487627
1451,1714;0,0491371
1452,1356;0,0495655
1453,0999;0,0500045
1454,0641;0,0503476
1455,0283;0,0504063
1455,9926;0,0499788
1456,9568;0,0491232
1457,9210;0,0483048
1458,8853;0,0479124
1459,8495;0,0479124
1460,8137;0,0480834
1461,7780;0,0482094
1462,7422;0,0480996
1463,7064;0,047612
1464,6707;0,0467531
1465,6349;0,04573
1466,5991;0,0447986
1467,5634;0,04406
1468,5276;0,0434339
1469,4918;0,0427374
1470,4561;0,0417493
1471,4203;0,0402936
1472,3845;0,0384069
1473,3488;0,0364418
1474,3130;0,034814
1475,2772;0,033654
1476,2415;0,0328422
1477,2057;0,032225
1478,1699;0,031708
1479,1342;0,0312484
1480,0984;0,0308328
1481,0626;0,0304684
1482,0269;0,0301816
1482,9911;0,0300067
1483,9553;0,0299643
1484,9196;0,0300411
1485,8838;0,0301827
1486,8480;0,0303035
1487,8123;0,0303275
1488,7765;0,0302632
1489,7407;0,0302347
1490,7050;0,030379
1491,6692;0,030735
1492,6334;0,031259
1493,5977;0,0318849
1494,5619;0,0325501
1495,5261;0,0332046
1496,4904;0,0338325
1497,4546;0,034473
1498,4188;0,0351886
1499,3831;0,0359981
1500,3473;0,0368665
1501,3115;0,0377447
1502,2758;0,03859
1503,2400;0,0393548
1504,2042;0,0399603
1505,1685;0,040273
1506,1327;0,0401588
1507,0969;0,0396892
1508,0612;0,0391822
1509,0254;0,0388302
1509,9896;0,0385975
1510,9539;0,0384008
1511,9181;0,0381729
1512,8823;0,0378508
1513,8466;0,037375
1514,8108;0,0367177
1515,7750;0,0359125
1516,7393;0,0350419
1517,7035;0,0341749
1518,6677;0,0333153
1519,6320;0,0324259
1520,5962;0,0315126
1521,5604;0,0306769
1522,5247;0,0300504
1523,4889;0,0296817
1524,4531;0,0295156
1525,4174;0,0294653
1526,3816;0,0294806
1527,3458;0,0295602
1528,3101;0,0297185
1529,2743;0,029948
1530,2385;0,0302063
1531,2028;0,0304336
1532,1670;0,0305926
1533,1312;0,0307117
1534,0955;0,0308737
1535,0597;0,0311383
1536,0239;0,0314865
1536,9882;0,0318225
1537,9524;0,0319891
1538,9166;0,0318061
1539,8809;0,0312469
1540,8451;0,0306838
1541,8093;0,030579
1542,7736;0,0308962
1543,7378;0,031335
1544,7020;0,0317225
1545,6663;0,0320328
1546,6305;0,0322962
1547,5947;0,0325362
1548,5590;0,0327451
1549,5232;0,0328925
1550,4874;0,0329584
1551,4517;0,032967
1552,4159;0,0329845
1553,3801;0,0330752
1554,3444;0,0332468
1555,3086;0,0334182
1556,2728;0,0334049
1557,2371;0,0329778
1558,2013;0,0321635
1559,1655;0,031506
1560,1298;0,0314261
1561,0940;0,0317683
1562,0582;0,0322737
1563,0225;0,0328204
1563,9867;0,0333617
1564,9509;0,0338619
1565,9152;0,0342776
1566,8794;0,0345738
1567,8436;0,0347648
1568,8079;0,0349399
1569,7721;0,0352156
1570,7363;0,0356412
1571,7006;0,0361746
1572,6648;0,0367327
1573,6290;0,0372371
1574,5933;0,0376419
1575,5575;0,0379731
1576,5217;0,0383427
1577,4860;0,0388573
1578,4502;0,0395195
1579,4144;0,0402654
1580,3787;0,0410359
1581,3429;0,0417939
1582,3071;0,0425192
1583,2714;0,0432099
1584,2356;0,0438827
1585,1998;0,0445615
1586,1641;0,045258
1587,1283;0,0459613
1588,0925;0,0466413
1589,0568;0,0472622
1590,0210;0,0477936
1590,9852;0,0482132
1591,9495;0,0485033
1592,9137;0,048651
1593,8779;0,0486566
1594,8422;0,0485424
1595,8064;0,0483489
1596,7706;0,0481164
1597,7349;0,0478691
1598,6991;0,0476117
1599,6633;0,0473402
1600,6276;0,0470553
1601,5918;0,0467702
1602,5560;0,0465085
1603,5203;0,0462904
1604,4845;0,0461186
1605,4487;0,045972
1606,4130;0,0458161
1607,3772;0,0456274
1608,3414;0,0454206
1609,3057;0,045254
1610,2699;0,0451928
1611,2341;0,0452577
1612,1984;0,0454043
1613,1626;0,0455356
1614,1268;0,0455375
1615,0911;0,0453458
1616,0553;0,0450438
1617,0195;0,0448503
1617,9838;0,0449205
1618,9480;0,0452157
1619,9122;0,0455947
1620,8765;0,0459258
1621,8407;0,0461327
1622,8049;0,0462142
1623,7692;0,0462409
1624,7334;0,0462971
1625,6976;0,0464158
1626,6619;0,04658
1627,6261;0,0467721
1628,5903;0,0470044
1629,5546;0,0473041
1630,5188;0,0476761
1631,4830;0,0480766
1632,4473;0,0484027
1633,4115;0,0484969
1634,3757;0,0482162
1635,3400;0,0476172
1636,3042;0,0470491
1637,2684;0,0468299
1638,2327;0,046956
1639,1969;0,0472649
1640,1611;0,0476337
1641,1254;0,0480044
1642,0896;0,0483373
1643,0538;0,0485609
1644,0181;0,0485487
1644,9823;0,0481737
1645,9465;0,0474834
1646,9108;0,0468127
1647,8750;0,0465201
1648,8392;0,0466576
1649,8035;0,0470098
1650,7677;0,0472315
1651,7319;0,0469023
1652,6962;0,0457899
1653,6604;0,0443827
1654,6246;0,0434915
1655,5889;0,0432435
1656,5531;0,0433216
1657,5173;0,0434639
1658,4816;0,0435138
1659,4458;0,043353
1660,4100;0,0428974
1661,3743;0,0421679
1662,3385;0,0413478
1663,3027;0,0406809
1664,2670;0,0402832
1665,2312;0,0400885
1666,1954;0,0399205
1667,1597;0,039574
1668,1239;0,0389039
1669,0881;0,0379524
1670,0524;0,0369838
1671,0166;0,0362678
1671,9808;0,035841
1672,9451;0,0355372
1673,9093;0,0351666
1674,8735;0,034655
1675,8378;0,0340934
1676,8020;0,033657
1677,7662;0,0334558
1678,7305;0,0334698
1679,6947;0,0335798
1680,6589;0,0335972
1681,6232;0,0332745
1682,5874;0,0324035
1683,5516;0,0310913
1684,5159;0,0298611
1685,4801;0,0291285
1686,4443;0,0288364
1687,4086;0,0287357
1688,3728;0,0286605
1689,3370;0,0285669
1690,3013;0,0284831
1691,2655;0,028449
1692,2297;0,0284706
1693,1940;0,0285049
1694,1582;0,0284754
1695,1224;0,0283109
1696,0867;0,0279893
1697,0509;0,0275591
1698,0151;0,0271168
1698,9794;0,0267589
1699,9436;0,0265439
1700,9078;0,0264807
1701,8721;0,0265425
1702,8363;0,0266895
1703,8005;0,0268858
1704,7648;0,0271077
1705,7290;0,0273518
1706,6932;0,0276363
1707,6575;0,0279867
1708,6217;0,0284167
1709,5859;0,0289235
1710,5502;0,0294925
1711,5144;0,0300994
1712,4786;0,030705
1713,4429;0,0312482
1714,4071;0,0316476
1715,3713;0,0318376
1716,3356;0,0318542
1717,2998;0,0318747
1718,2640;0,0320732
1719,2283;0,0324676
1720,1925;0,0329747
1721,1567;0,0335124
1722,1210;0,0340266
1723,0852;0,0344863
1724,0494;0,0348821
1725,0137;0,035228
1725,9779;0,0355548
1726,9421;0,0358939
1727,9064;0,0362605
1728,8706;0,0366393
1729,8348;0,0369708
1730,7991;0,0371399
1731,7633;0,0369962
1732,7275;0,0364577
1733,6918;0,0356591
1734,6560;0,0349027
1735,6202;0,0343842
1736,5845;0,0340757
1737,5487;0,0338374
1738,5129;0,0335346
1739,4772;0,0330945
1740,4414;0,032529
1741,4056;0,0319131
1742,3699;0,0313191
1743,3341;0,0307661
1744,2983;0,0302299
1745,2626;0,0296769
1746,2268;0,029074
1747,1910;0,0283758
1748,1553;0,0275287
1749,1195;0,0265206
1750,0837;0,0254403
1751,0480;0,024445
1752,0122;0,0236465
1752,9764;0,0230503
1753,9407;0,0225877
1754,9049;0,0221759
1755,8691;0,0217608
1756,8334;0,0213285
1757,7976;0,0208856
1758,7618;0,0204248
1759,7261;0,0199164
1760,6903;0,0193426
1761,6545;0,0187416
1762,6188;0,0182065
1763,5830;0,0178243
1764,5472;0,017617
1765,5115;0,0175353
1766,4757;0,0174927
1767,4399;0,0174006
1768,4042;0,0171899
1769,3684;0,0168225
1770,3326;0,0163076
1771,2969;0,0157236
1772,2611;0,0152119
1773,2253;0,0149015
1774,1896;0,0148252
1775,1538;0,0149202
1776,1180;0,0150892
1777,0823;0,0152448
1778,0465;0,0153284
1779,0107;0,0153214
1779,9750;0,015248
1780,9392;0,0151533
1781,9034;0,0150686
1782,8677;0,014996
1783,8319;0,0149285
1784,7961;0,014878
1785,7604;0,0148796
1786,7246;0,0149649
1787,6888;0,0151303
1788,6531;0,0153213
1789,6173;0,0154423
1790,5815;0,0153962
1791,5458;0,0151592
1792,5100;0,0148325
1793,4742;0,0145759
1794,4385;0,0144774
1795,4027;0,0145178
1796,3669;0,0146256
1797,3312;0,0147289
1798,2954;0,0147794
1799,2596;0,014763
1800,2239;0,0146984
1801,1881;0,0146201
1802,1523;0,0145574
1803,1166;0,0145257
1804,0808;0,0145316
1805,0450;0,0145754
1806,0093;0,0146471
1806,9735;0,0147212
1807,9377;0,0147609
1808,9020;0,0147339
1809,8662;0,014636
1810,8304;0,0145018
1811,7947;0,0143879
1812,7589;0,0143372
1813,7231;0,0143556
1814,6874;0,0144156
1815,6516;0,0144763
1816,6158;0,0145082
1817,5801;0,0145105
1818,5443;0,0145092
1819,5085;0,0145351
1820,4728;0,0145985
1821,4370;0,014681
1822,4012;0,0147482
1823,3655;0,0147727
1824,3297;0,0147509
1825,2939;0,0147002
1826,2582;0,0146361
1827,2224;0,0145545
1828,1866;0,0144409
1829,1509;0,0143004
1830,1151;0,0141773
1831,0793;0,014132
1832,0436;0,014192
1833,0078;0,0143304
1833,9720;0,0144842
1834,9363;0,0145873
1835,9005;0,0146057
1836,8647;0,014561
1837,8290;0,0145222
1838,7932;0,0145569
1839,7574;0,0146835
1840,7217;0,0148574
1841,6859;0,0149909
1842,6501;0,0149966
1843,6144;0,0148467
1844,5786;0,0146076
1845,5428;0,0143919
1846,5071;0,014268
1847,4713;0,0142319
1848,4355;0,0142432
1849,3998;0,0142666
1850,3640;0,0142901
1851,3282;0,0143214
1852,2925;0,0143722
1853,2567;0,0144428
1854,2209;0,0145194
1855,1852;0,0145837
1856,1494;0,0146255
1857,1136;0,014647
1858,0779;0,0146575
1859,0421;0,0146639
1860,0063;0,0146683
1860,9706;0,014672
1861,9348;0,0146811
1862,8990;0,0147056
1863,8633;0,0147503
1864,8275;0,0148046
1865,7917;0,0148402
1866,7560;0,0148216
1867,7202;0,0147321
1868,6844;0,0145952
1869,6487;0,014463
1870,6129;0,014378
1871,5771;0,0143516
1872,5414;0,0143706
1873,5056;0,0144125
1874,4698;0,0144567
1875,4341;0,0144926
1876,3983;0,0145221
1877,3625;0,0145553
1878,3268;0,0146004
1879,2910;0,0146567
1880,2552;0,0147141
1881,2195;0,0147601
1882,1837;0,014789
1883,1479;0,0148055
1884,1122;0,0148205
1885,0764;0,0148412
1886,0406;0,0148621
1887,0049;0,0148653
1887,9691;0,0148306
1888,9333;0,014752
1889,8976;0,014647
1890,8618;0,0145488
1891,8260;0,0144874
1892,7903;0,0144744
1893,7545;0,0145008
1894,7188;0,014544
1895,6830;0,0145801
1896,6472;0,0145937
1897,6115;0,014582
1898,5757;0,0145517
1899,5399;0,0145118
1900,5042;0,0144701
1901,4684;0,0144339
1902,4326;0,0144124
1903,3969;0,0144174
1904,3611;0,0144588
1905,3253;0,0145389
1906,2896;0,0146463
1907,2538;0,0147567
1908,2180;0,0148402
1909,1823;0,0148758
1910,1465;0,0148644
1911,1107;0,0148298
1912,0750;0,0148043
1913,0392;0,0148117
1914,0034;0,0148572
1914,9677;0,0149291
1915,9319;0,015008
1916,8961;0,015077
1917,8604;0,0151263
1918,8246;0,0151506
1919,7888;0,0151427
1920,7531;0,0150944
1921,7173;0,0150036
1922,6815;0,0148825
1923,6458;0,0147591
1924,6100;0,0146647
1925,5742;0,0146161
1926,5385;0,0146073
1927,5027;0,0146164
1928,4669;0,0146216
1929,4312;0,0146144
1930,3954;0,0146042
1931,3596;0,0146102
1932,3239;0,0146476
1933,2881;0,0147155
1934,2523;0,0147955
1935,2166;0,0148601
1936,1808;0,0148876
1937,1450;0,0148739
1938,1093;0,0148371
1939,0735;0,0148097
1940,0377;0,0148253
1941,0020;0,0149009
1941,9662;0,015023
1942,9304;0,0151459
1943,8947;0,0152131
1944,8589;0,0151893
1945,8231;0,0150792
1946,7874;0,0149232
1947,7516;0,0147777
1948,7158;0,0146924
1949,6801;0,0146926
1950,6443;0,0147707
1951,6085;0,0148917
1952,5728;0,0150103
1953,5370;0,0150886
1954,5012;0,0151079
1955,4655;0,0150716
1956,4297;0,0150007
1957,3939;0,0149268
1958,3582;0,014884
1959,3224;0,0148969
1960,2866;0,0149672
1961,2509;0,0150627
1962,2151;0,0151209
1963,1793;0,015071
1964,1436;0,0148678
1965,1078;0,0145222
1966,0720;0,0141144
1967,0363;0,01377
1968,0005;0,0136011
1968,9647;0,013645
1969,9290;0,013847
1970,8932;0,014098
1971,8574;0,0142969
1972,8217;0,014402
1973,7859;0,0144475
1974,7501;0,0145173
1975,7144;0,0146841
1976,6786;0,0149486
1977,6428;0,0152271
1978,6071;0,0154034
1979,5713;0,0154069
1980,5355;0,015256
1981,4998;0,0150409
1982,4640;0,0148692
1983,4282;0,0148129
1984,3925;0,0148793
1985,3567;0,0150187
1986,3209;0,0151599
1987,2852;0,0152545
1988,2494;0,0153008
1989,2136;0,0153375
1990,1779;0,0154131
1991,1421;0,0155499
1992,1063;0,0157268
1993,0706;0,0158901
1994,0348;0,0159868
1994,9990;0,015992
1995,9633;0,0159173
1996,9275;0,0158006
1997,8917;0,01569
1998,8560;0,0156288
1999,8202;0,0156435
2000,7844;0,0157372
2001,7487;0,0158893
2002,7129;0,0160605
2003,6771;0,0162031
2004,6414;0,0162746
2005,6056;0,0162518
2006,5698;0,0161392
2007,5341;0,0159654
2008,4983;0,0157717
2009,4625;0,0156011
2010,4268;0,0154963
2011,3910;0,0155005
2012,3552;0,0156501
2013,3195;0,0159529
2014,2837;0,0163641
2015,2479;0,016782
2016,2122;0,0170816
2017,1764;0,0171776
2018,1406;0,0170776
2019,1049;0,0168796
2020,0691;0,0167135
2021,0333;0,0166681
2021,9976;0,0167525
2022,9618;0,0169065
2023,9260;0,0170451
2024,8903;0,0171041
2025,8545;0,0170615
2026,8187;0,0169317
2027,7830;0,0167507
2028,7472;0,0165686
2029,7114;0,0164476
2030,6757;0,0164483
2031,6399;0,0165991
2032,6041;0,0168659
2033,5684;0,0171555
2034,5326;0,0173651
2035,4968;0,0174469
2036,4611;0,0174374
2037,4253;0,0174271
2038,3895;0,017493
2039,3538;0,0176444
2040,3180;0,0178158
2041,2822;0,0179081
2042,2465;0,0178489
2043,2107;0,0176301
2044,1749;0,0173061
2045,1392;0,0169642
2046,1034;0,0166903
2047,0676;0,0165447
2048,0320;0,0165451
2048,9961;0,0166607
2049,9604;0,0168206
2050,9246;0,0169415
2051,8889;0,0169603
2052,8530;0,0168619
2053,8174;0,0166884
2054,7815;0,0165232
2055,7458;0,0164532
2056,7100;0,0165257
2057,6743;0,0167247
2058,6384;0,0169815
2059,6028;0,0172095
2060,5669;0,0173417
2061,5313;0,0173526
2062,4954;0,0172606
2063,4597;0,0171154
2064,4238;0,0169775
2065,3882;0,0168972
2066,3523;0,0168976
2067,3167;0,0169674
2068,2808;0,0170666
2069,2451;0,0171455
2070,2092;0,0171678
2071,1736;0,0171289
2072,1377;0,0170575
2073,1021;0,0169992
2074,0662;0,0169893
2075,0305;0,0170332
2075,9946;0,0171051
2076,9590;0,0171656
2077,9231;0,0171857
2078,8875;0,0171604
2079,8516;0,017107
2080,8159;0,0170505
2081,7800;0,0170105
2082,7444;0,0169975
2083,7085;0,0170177
2084,6729;0,0170778
2085,6370;0,0171802
2086,6013;0,0173123
2087,5654;0,0174398
2088,5298;0,0175147
2089,4939;0,0174998
2090,4583;0,0173957
2091,4224;0,0172502
2092,3867;0,0171406
2093,3508;0,0171359
2094,3152;0,0172572
2095,2793;0,0174627
2096,2437;0,0176666
2097,2078;0,0177828
2098,1721;0,0177656
2099,1362;0,017625
2100,1006;0,0174131
2101,0647;0,0171971
2102,0291;0,017031
2102,9932;0,0169431
2103,9575;0,0169336
2104,9216;0,016982
2105,8860;0,0170586
2106,8501;0,0171372
2107,8145;0,0172047
2108,7786;0,0172638
2109,7429;0,0173246
2110,7070;0,0173921
2111,6714;0,017456
2112,6355;0,0174929
2113,5999;0,0174807
2114,5640;0,0174165
2115,5283;0,0173253
2116,4924;0,0172512
2117,4568;0,017236
2118,4209;0,0172951
2119,3853;0,0174092
2120,3494;0,0175347
2121,3137;0,017628
2122,2778;0,0176692
2123,2422;0,0176697
2124,2063;0,0176603
2125,1707;0,0176687
2126,1348;0,0177013
2127,0991;0,01774
2128,0632;0,0177554
2129,0276;0,0177273
2129,9917;0,0176587
2130,9561;0,0175775
2131,9202;0,0175255
2132,8845;0,0175408
2133,8486;0,0176409
2134,8130;0,0178128
2135,7771;0,0180134
2136,7415;0,0181837
2137,7056;0,0182713
2138,6699;0,0182533
2139,6340;0,0181493
2140,5984;0,0180165
2141,5625;0,0179254
2142,5269;0,0179276
2143,4910;0,01803
2144,4553;0,0181943
2145,4194;0,0183612
2146,3838;0,0184859
2147,3479;0,0185623
2148,3123;0,01862
2149,2764;0,0187002
2150,2407;0,0188278
2151,2048;0,0189992
2152,1692;0,0191889
2153,1333;0,0193658
2154,0977;0,0195045
2155,0618;0,0195883
2156,0261;0,01961
2156,9902;0,019579
2157,9546;0,0195321
2158,9187;0,0195266
2159,8831;0,0196047
2160,8472;0,0197513
2161,8115;0,0198887
2162,7756;0,0199163
2163,7400;0,0197677
2164,7041;0,0194527
2165,6685;0,0190632
2166,6326;0,0187347
2167,5969;0,0185828
2168,5610;0,0186516
2169,5254;0,0189014
2170,4895;0,0192375
2171,4539;0,0195565
2172,4180;0,0197827
2173,3823;0,0198808
2174,3464;0,0198465
2175,3108;0,019692
2176,2749;0,0194411
2177,2393;0,0191363
2178,2034;0,0188447
2179,1677;0,0186465
2180,1318;0,0186031
2181,0962;0,0187204
2182,0603;0,018934
2183,0247;0,0191354
2183,9888;0,0192289
2184,9531;0,0191823
2185,9172;0,0190381
2186,8816;0,0188798
2187,8457;0,0187803
2188,8101;0,0187657
2189,7742;0,018812
2190,7385;0,0188718
2191,7026;0,018907
2192,6670;0,0189067
2193,6311;0,018885
2194,5955;0,0188647
2195,5596;0,0188635
2196,5239;0,0188883
2197,4880;0,0189366
2198,4524;0,018998
2199,4165;0,0190529
2200,3809;0,0190728
2201,3450;0,0190282
2202,3093;0,0189038
2203,2734;0,0187122
2204,2378;0,0184959
2205,2019;0,0183132
2206,1663;0,0182135
2207,1304;0,0182167
2208,0947;0,0183071
2209,0588;0,0184431
2210,0232;0,0185762
2210,9873;0,018668
2211,9517;0,0186992
2212,9158;0,0186698
2213,8801;0,0185947
2214,8442;0,0184967
2215,8086;0,0184002
2216,7727;0,0183246
2217,7371;0,0182803
2218,7012;0,0182686
2219,6655;0,0182872
2220,6296;0,0183365
2221,5940;0,018421
2222,5581;0,0185438
2223,5225;0,0186935
2224,4866;0,0188377
2225,4509;0,018928
2226,4150;0,0189201
2227,3794;0,0187985
2228,3435;0,0185884
2229,3079;0,0183477
2230,2720;0,018139
2231,2363;0,0180019
2232,2004;0,0179406
2233,1648;0,0179326
2234,1289;0,0179515
2235,0933;0,0179843
2236,0574;0,0180322
2237,0217;0,0180993
2237,9858;0,0181793
2238,9502;0,0182539
2239,9143;0,0183026
2240,8787;0,0183145
2241,8428;0,0182926
2242,8071;0,0182476
2243,7712;0,018189
2244,7356;0,0181211
2245,6997;0,0180483
2246,6641;0,0179813
2247,6282;0,0179382
2248,5925;0,017937
2249,5566;0,0179848
2250,5210;0,0180729
2251,4851;0,0181815
2252,4495;0,018289
2253,4136;0,018379
2254,3779;0,0184412
2255,3420;0,018467
2256,3064;0,0184485
2257,2705;0,0183821
2258,2349;0,0182755
2259,1990;0,018151
2260,1633;0,0180393
2261,1274;0,0179682
2262,0918;0,0179499
2263,0559;0,0179764
2264,0203;0,018024
2264,9844;0,0180656
2265,9487;0,0180817
2266,9128;0,0180673
2267,8772;0,0180299
2268,8413;0,0179831
2269,8057;0,0179392
2270,7698;0,0179041
2271,7341;0,017877
2272,6982;0,0178533
2273,6626;0,0178288
2274,6267;0,0178039
2275,5911;0,0177845
2276,5552;0,01778
2277,5195;0,0178002
2278,4836;0,0178503
2279,4480;0,0179297
2280,4121;0,018032
2281,3765;0,0181488
2282,3406;0,0182722
2283,3049;0,0183963
2284,2690;0,0185171
2285,2334;0,0186305
2286,1975;0,0187328
2287,1619;0,0188222
2288,1260;0,018902
2289,0903;0,0189819
2290,0544;0,0190753
2291,0188;0,0191943
2291,9829;0,0193441
2292,9473;0,0195217
2293,9114;0,0197179
2294,8757;0,0199231
2295,8398;0,0201304
2296,8042;0,0203366
2297,7683;0,0205401
2298,7327;0,0207396
2299,6968;0,0209352
2300,6611;0,021131
2301,6252;0,0213361
2302,5896;0,0215611
2303,5537;0,0218132
2304,5181;0,0220915
2305,4822;0,0223857
2306,4465;0,0226791
2307,4106;0,0229527
2308,3750;0,0231887
2309,3391;0,0233722
2310,3035;0,0234928
2311,2676;0,023549
2312,2319;0,0235516
2313,1960;0,0235246
2314,1604;0,0234992
2315,1245;0,0235032
2316,0889;0,0235519
2317,0530;0,0236438
2318,0173;0,0237597
2318,9814;0,023866
2319,9458;0,0239206
2320,9099;0,0238861
2321,8743;0,0237468
2322,8384;0,0235195
2323,8027;0,0232496
2324,7668;0,0229922
2325,7312;0,0227907
2326,6953;0,0226613
2327,6597;0,0225847
2328,6238;0,0225067
2329,5881;0,0223562
2330,5522;0,0220812
2331,5166;0,0216818
2332,4807;0,021214
2333,4451;0,0207571
2334,4092;0,0203715
2335,3735;0,0200782
2336,3376;0,0198664
2337,3020;0,01972
2338,2661;0,0196403
2339,2305;0,0196445
2340,1946;0,0197412
2341,1589;0,0199052
2342,1230;0,0200825
2343,0874;0,020234
2344,0515;0,0203854
2345,0159;0,0206149
2345,9800;0,0209783
2346,9443;0,021463
2347,9084;0,0220048
2348,8728;0,0225243
2349,8369;0,022946
2350,8013;0,0232068
2351,7654;0,0232662
2352,7297;0,0231285
2353,6938;0,0228609
2354,6582;0,0225696
2355,6223;0,0223293
2356,5867;0,0221353
2357,5508;0,0219351
2358,5151;0,0217004
2359,4792;0,0214656
2360,4436;0,0212982
2361,4077;0,021238
2362,3721;0,0212649
2363,3362;0,0213201
2364,3005;0,0213504
2365,2646;0,0213411
2366,2290;0,0213163
2367,1931;0,021316
2368,1575;0,0213679
2369,1216;0,0214711
2370,0859;0,0215978
2371,0500;0,0217077
2372,0144;0,0217682
2372,9785;0,0217682
2373,9429;0,0217193
2374,9070;0,0216455
2375,8713;0,021568
2376,8354;0,0214945
2377,7998;0,0214163
2378,7639;0,0213145
2379,7283;0,0211694
2380,6924;0,0209688
2381,6567;0,0207128
2382,6208;0,0204135
2383,5852;0,0200933
2384,5493;0,0197792
2385,5137;0,0194979
2386,4778;0,0192684
2387,4421;0,0190986
2388,4063;0,0189835
2389,3706;0,0189094
2390,3347;0,0188603
2391,2991;0,0188244
2392,2632;0,0187971
2393,2275;0,0187797
2394,1917;0,0187759
2395,1560;0,0187882
2396,1201;0,0188156
2397,0845;0,0188541
2398,0486;0,0188966
2399,0129;0,0189353
2399,9771;0,0189633
2400,9414;0,0189775
2401,9055;0,0189795
2402,8699;0,0189757
2403,8340;0,0189736
2404,7983;0,0189786
2405,7625;0,018992
2406,7268;0,0190112
2407,6909;0,0190327
2408,6553;0,0190536
2409,6194;0,019073
2410,5837;0,0190905
2411,5479;0,0191064
2412,5122;0,0191213
2413,4763;0,0191374
2414,4407;0,0191574
2415,4048;0,0191828
2416,3691;0,0192125
2417,3333;0,019243
2418,2976;0,0192707
2419,2617;0,0192945
2420,2261;0,019316
2421,1902;0,0193376
2422,1545;0,0193595
2423,1187;0,0193789
2424,0830;0,0193918
2425,0471;0,0193976
2426,0115;0,0194004
2426,9756;0,019408
2427,9399;0,0194276
2428,9041;0,0194614
2429,8684;0,0195052
2430,8325;0,0195504
2431,7969;0,0195883
2432,7610;0,019613
2433,7253;0,0196237
2434,6895;0,0196242
2435,6538;0,0196209
2436,6179;0,0196207
2437,5823;0,0196287
2438,5464;0,0196462
2439,5107;0,0196701
2440,4749;0,0196943
2441,4392;0,0197124
2442,4033;0,0197208
2443,3677;0,0197213
2444,3318;0,0197197
2445,2961;0,0197235
2446,2603;0,0197375
2447,2246;0,0197618
2448,1887;0,0197911
2449,1531;0,0198173
2450,1172;0,0198327
2451,0815;0,0198338
2452,0457;0,0198233
2453,0100;0,0198098
2453,9741;0,0198042
2454,9385;0,0198153
2455,9026;0,019844
2456,8669;0,0198815
2457,8311;0,019913
2458,7954;0,0199246
2459,7595;0,0199116
2460,7239;0,0198821
2461,6880;0,0198533
2462,6523;0,0198433
2463,6165;0,0198628
2464,5808;0,0199113
2465,5449;0,0199797
2466,5093;0,0200558
2467,4734;0,0201287
2468,4377;0,0201898
2469,4019;0,020233
2470,3662;0,0202541
2471,3303;0,0202539
2472,2947;0,0202388
2473,2588;0,0202205
2474,2231;0,0202107
2475,1873;0,0202148
2476,1516;0,0202295
2477,1157;0,0202452
2478,0801;0,0202537
2479,0442;0,0202536
2480,0085;0,0202518
2480,9727;0,0202585
2481,9370;0,0202797
2482,9011;0,020313
2483,8655;0,0203487
2484,8296;0,020375
2485,7939;0,0203849
2486,7581;0,0203789
2487,7224;0,0203638
2488,6865;0,0203483
2489,6509;0,020339
2490,6150;0,02034
2491,5793;0,0203526
2492,5435;0,0203768
2493,5078;0,0204099
2494,4719;0,0204457
2495,4363;0,0204753
2496,4004;0,0204904
2497,3647;0,0204881
2498,3289;0,0204735
2499,2932;0,0204578
2500,2573;0,0204528
2501,2217;0,0204649
2502,1858;0,0204927
2503,1501;0,0205291
2504,1143;0,0205658
2505,0786;0,0205961
2506,0427;0,0206158
2507,0071;0,0206226
2507,9712;0,020616
2508,9355;0,0205981
2509,8997;0,0205755
2510,8640;0,0205572
2511,8281;0,0205527
2512,7925;0,0205675
2513,7566;0,0206016
2514,7209;0,0206489
2515,6851;0,0206985
2516,6494;0,0207365
2517,6135;0,0207491
2518,5779;0,0207274
2519,5420;0,0206732
2520,5063;0,020602
2521,4705;0,0205396
2522,4348;0,0205112
2523,3989;0,0205296
2524,3633;0,020587
2525,3274;0,0206583
2526,2917;0,0207133
2527,2559;0,0207312
2528,2202;0,0207092
2529,1843;0,0206617
2530,1487;0,0206117
2531,1128;0,0205791
2532,0771;0,0205743
2533,0413;0,0205965
2534,0056;0,0206369
2534,9697;0,0206846
2535,9341;0,0207298
2536,8982;0,0207662
2537,8625;0,0207905
2538,8267;0,020802
2539,7910;0,020802
2540,7551;0,0207943
2541,7195;0,020785
2542,6836;0,0207807
2543,6479;0,0207852
2544,6121;0,0207972
2545,5764;0,0208105
2546,5405;0,0208178
2547,5049;0,0208169
2548,4690;0,0208129
2549,4333;0,0208158
2550,3975;0,0208336
2551,3618;0,0208657
2552,3259;0,0209024
2553,2903;0,0209307
2554,2544;0,0209427
2555,2188;0,0209404
2556,1829;0,0209329
2557,1472;0,0209291
2558,1113;0,0209309
2559,0757;0,0209325
2560,0398;0,0209261
2561,0042;0,0209094
2561,9683;0,0208881
2562,9326;0,0208723
2563,8967;0,0208685
2564,8611;0,0208752
2565,8252;0,0208832
2566,7896;0,0208835
2567,7537;0,0208737
2568,7180;0,0208606
2569,6821;0,0208558
2570,6465;0,0208677
2571,6106;0,0208965
2572,5750;0,0209344
2573,5391;0,0209705
2574,5034;0,0209972
2575,4675;0,0210121
2576,4319;0,0210169
2577,3960;0,021014
2578,3604;0,021005
2579,3245;0,0209915
2580,2888;0,0209769
2581,2529;0,0209669
2582,2173;0,0209677
2583,1814;0,0209833
2584,1458;0,0210137
2585,1099;0,0210547
2586,0742;0,0210987
2587,0383;0,0211368
2588,0027;0,0211606
2588,9668;0,0211651
2589,9312;0,021152
2590,8953;0,0211303
2591,8596;0,0211139
2592,8237;0,0211158
2593,7881;0,0211416
2594,7522;0,0211868
2595,7166;0,0212395
2596,6807;0,0212862
2597,6450;0,0213181
2598,6091;0,0213325
2599,5735;0,0213321
2600,5376;0,0213216
2601,5020;0,0213058
2602,4661;0,0212898
2603,4304;0,0212794
2604,3945;0,0212795
2605,3589;0,0212922
2606,3230;0,0213152
2607,2874;0,021343
2608,2515;0,0213704
2609,2158;0,021395
2610,1799;0,0214183
2611,1443;0,0214425
2612,1084;0,0214673
2613,0728;0,0214884
2614,0369;0,0215
2615,0012;0,0214998
2615,9653;0,0214913
2616,9297;0,0214831
2617,8938;0,0214836
2618,8582;0,0214959
2619,8223;0,0215163
2620,7866;0,0215368
2621,7507;0,0215521
2622,7151;0,0215628
2623,6792;0,0215752
2624,6436;0,0215969
2625,6077;0,0216306
2626,5720;0,0216719
2627,5361;0,0217115
2628,5005;0,0217405
2629,4646;0,0217555
2630,4290;0,0217596
2631,3931;0,0217606
2632,3574;0,0217663
2633,3215;0,02178
2634,2859;0,0218003
2635,2500;0,0218226
2636,2144;0,0218426
2637,1785;0,0218598
2638,1428;0,0218776
2639,1069;0,0219006
2640,0713;0,0219313
2641,0354;0,0219675
2641,9998;0,0220026
2642,9639;0,0220298
2643,9282;0,0220459
2644,8923;0,022053
2645,8567;0,0220571
2646,8208;0,0220641
2647,7852;0,0220762
2648,7493;0,0220923
2649,7136;0,0221098
2650,6777;0,0221281
2651,6421;0,0221495
2652,6062;0,0221769
2653,5706;0,0222115
2654,5347;0,0222505
2655,4990;0,0222882
2656,4631;0,0223194
2657,4275;0,0223418
2658,3916;0,0223579
2659,3560;0,0223729
2660,3201;0,0223923
2661,2844;0,0224182
2662,2485;0,0224491
2663,2129;0,0224804
2664,1770;0,0225073
2665,1414;0,0225282
2666,1055;0,0225455
2667,0698;0,0225643
2668,0339;0,0225891
2668,9983;0,0226206
2669,9624;0,0226549
2670,9268;0,0226852
2671,8909;0,0227061
2672,8552;0,0227164
2673,8193;0,0227199
2674,7837;0,0227227
2675,7478;0,0227303
2676,7122;0,0227452
2677,6763;0,0227666
2678,6406;0,0227921
2679,6047;0,0228196
2680,5691;0,022848
2681,5332;0,022877
2682,4976;0,0229069
2683,4617;0,0229381
2684,4260;0,0229713
2685,3901;0,0230072
2686,3545;0,0230461
2687,3186;0,0230865
2688,2830;0,0231256
2689,2471;0,0231599
2690,2114;0,023187
2691,1755;0,0232079
2692,1399;0,0232262
2693,1040;0,0232471
2694,0684;0,0232746
2695,0325;0,0233092
2695,9968;0,0233478
2696,9609;0,0233857
2697,9253;0,023419
2698,8894;0,0234467
2699,8538;0,0234709
2700,8179;0,0234956
2701,7822;0,0235236
2702,7463;0,0235558
2703,7107;0,0235897
2704,6748;0,0236214
2705,6392;0,0236477
2706,6033;0,023668
2707,5676;0,0236852
2708,5317;0,0237045
2709,4961;0,023731
2710,4602;0,0237666
2711,4246;0,0238088
2712,3887;0,023852
2713,3530;0,0238902
2714,3171;0,0239209
2715,2815;0,0239454
2716,2456;0,0239679
2717,2100;0,0239922
2718,1741;0,0240189
2719,1384;0,0240458
2720,1025;0,0240694
2721,0669;0,0240879
2722,0310;0,0241022
2722,9954;0,0241146
2723,9595;0,0241277
2724,9238;0,0241432
2725,8879;0,0241616
2726,8523;0,0241836
2727,8164;0,0242106
2728,7808;0,0242437
2729,7449;0,0242825
2730,7092;0,0243242
2731,6733;0,0243639
2732,6377;0,0243969
2733,6018;0,0244206
2734,5662;0,0244354
2735,5303;0,0244443
2736,4946;0,0244514
2737,4587;0,0244601
2738,4231;0,0244721
2739,3872;0,0244884
2740,3516;0,0245098
2741,3157;0,0245371
2742,2800;0,0245705
2743,2441;0,0246082
2744,2085;0,0246452
2745,1726;0,0246749
2746,1370;0,0246919
2747,1011;0,0246951
2748,0654;0,0246893
2749,0295;0,0246832
2749,9939;0,0246856
2750,9580;0,0247016
2751,9224;0,0247308
2752,8865;0,0247685
2753,8508;0,0248099
2754,8149;0,0248515
2755,7793;0,0248928
2756,7434;0,0249339
2757,7078;0,0249747
2758,6719;0,0250137
2759,6362;0,0250493
2760,6003;0,0250812
2761,5647;0,0251104
2762,5288;0,0251387
2763,4932;0,0251666
2764,4573;0,0251932
2765,4216;0,025217
2766,3857;0,0252381
2767,3501;0,0252589
2768,3142;0,0252831
2769,2786;0,0253133
2770,2427;0,0253491
2771,2070;0,0253874
2772,1711;0,0254244
2773,1355;0,0254588
2774,0996;0,0254926
2775,0640;0,0255301
2776,0281;0,0255751
2776,9924;0,025628
2777,9565;0,0256856
2778,9209;0,0257433
2779,8850;0,0257969
2780,8494;0,0258452
2781,8135;0,0258896
2782,7778;0,0259326
2783,7419;0,0259759
2784,7063;0,026019
2785,6704;0,0260594
2786,6348;0,0260947
2787,5989;0,0261251
2788,5632;0,0261547
2789,5273;0,0261913
2790,4917;0,0262428
2791,4558;0,0263133
2792,4202;0,0263991
2793,3843;0,0264902
2794,3486;0,0265745
2795,3127;0,0266435
2796,2771;0,0266964
2797,2412;0,0267393
2798,2056;0,0267816
2799,1697;0,0268301
2800,1340;0,0268874
2801,0981;0,0269519
2802,0625;0,0270215
2803,0266;0,0270958
2803,9910;0,0271761
2804,9551;0,0272637
2805,9194;0,0273579
2806,8835;0,0274557
2807,8479;0,0275529
2808,8120;0,0276471
2809,7764;0,0277382
2810,7405;0,0278288
2811,7048;0,0279229
2812,6689;0,0280234
2813,6333;0,0281319
2814,5974;0,0282478
2815,5618;0,0283692
2816,5259;0,0284939
2817,4902;0,0286207
2818,4543;0,028749
2819,4187;0,0288794
2820,3828;0,0290121
2821,3472;0,0291468
2822,3113;0,0292816
2823,2756;0,0294151
2824,2397;0,0295465
2825,2041;0,0296781
2826,1682;0,0298141
2827,1326;0,0299597
2828,0967;0,0301192
2829,0610;0,030294
2830,0251;0,0304832
2830,9895;0,0306847
2831,9536;0,0308967
2832,9180;0,0311181
2833,8821;0,0313481
2834,8464;0,0315856
2835,8105;0,0318293
2836,7749;0,0320794
2837,7390;0,0323394
2838,7034;0,0326167
2839,6675;0,0329222
2840,6318;0,0332665
2841,5959;0,0336579
2842,5603;0,0340993
2843,5244;0,0345864
2844,4888;0,0351067
2845,4529;0,0356365
2846,4172;0,0361415
2847,3813;0,0365787
2848,3457;0,0369055
2849,3098;0,0370903
2850,2742;0,0371245
2851,2383;0,0370267
2852,2026;0,0368392
2853,1667;0,036615
2854,1311;0,0364032
2855,0952;0,0362357
2856,0596;0,0361235
2857,0237;0,0360595
2857,9880;0,0360294
2858,9521;0,0360207
2859,9165;0,0360298
2860,8806;0,0360609
2861,8450;0,0361215
2862,8091;0,036216
2863,7734;0,0363417
2864,7375;0,0364897
2865,7019;0,0366481
2866,6660;0,0368053
2867,6304;0,0369522
2868,5945;0,0370817
2869,5588;0,0371887
2870,5229;0,0372708
2871,4873;0,0373297
2872,4514;0,0373728
2873,4158;0,0374117
2874,3799;0,037458
2875,3442;0,037519
2876,3083;0,0375951
2877,2727;0,0376807
2878,2368;0,0377681
2879,2012;0,0378517
2880,1653;0,0379296
2881,1296;0,0380035
2882,0938;0,0380764
2883,0581;0,0381502
2884,0222;0,0382248
2884,9866;0,038299
2885,9507;0,0383712
2886,9150;0,0384414
2887,8792;0,038511
2888,8435;0,0385827
2889,8076;0,0386592
2890,7720;0,0387415
2891,7361;0,0388293
2892,7004;0,0389204
2893,6646;0,0390128
2894,6289;0,0391058
2895,5930;0,0391994
2896,5574;0,0392943
2897,5215;0,0393897
2898,4858;0,0394828
2899,4500;0,039569
2900,4143;0,039644
2901,3784;0,0397062
2902,3428;0,0397582
2903,3069;0,0398069
2904,2712;0,0398618
2905,2354;0,0399326
2906,1997;0,040027
2907,1638;0,0401511
2908,1282;0,0403103
2909,0923;0,0405109
2910,0566;0,0407586
2911,0208;0,0410542
2911,9851;0,0413866
2912,9492;0,0417294
2913,9136;0,0420423
2914,8777;0,04228
2915,8420;0,0424049
2916,8062;0,0423978
2917,7705;0,0422634
2918,7346;0,0420257
2919,6990;0,0417194
2920,6631;0,0413793
2921,6274;0,0410322
2922,5916;0,0406937
2923,5559;0,0403693
2924,5200;0,0400575
2925,4844;0,0397544
2926,4485;0,0394579
2927,4128;0,0391696
2928,3770;0,0388948
2929,3413;0,0386393
2930,3054;0,0384065
2931,2698;0,0381949
2932,2339;0,0379992
2933,1982;0,0378124
2934,1624;0,0376289
2935,1267;0,0374463
2936,0908;0,0372641
2937,0552;0,0370828
2938,0193;0,0369012
2938,9836;0,0367166
2939,9478;0,0365242
2940,9121;0,0363196
2941,8762;0,0361003
2942,8406;0,0358675
2943,8047;0,0356268
2944,7690;0,0353869
2945,7332;0,0351569
2946,6975;0,0349429
2947,6616;0,0347464
2948,6260;0,0345652
2949,5901;0,0343956
2950,5544;0,0342342
2951,5186;0,0340784
2952,4829;0,0339254
2953,4470;0,0337712
2954,4114;0,0336118
2955,3755;0,0334457
2956,3398;0,0332763
2957,3040;0,0331108
2958,2683;0,0329564
2959,2324;0,0328162
2960,1968;0,0326862
2961,1609;0,0325582
2962,1252;0,0324241
2963,0894;0,032281
2964,0537;0,032132
2965,0178;0,0319833
2965,9822;0,0318398
2966,9463;0,0317024
2967,9106;0,0315681
2968,8748;0,0314326
2969,8391;0,0312929
2970,8032;0,0311484
2971,7676;0,0310007
2972,7317;0,0308527
2973,6960;0,0307077
2974,6602;0,0305683
2975,6245;0,0304362
2976,5886;0,0303106
2977,5530;0,0301895
2978,5171;0,0300709
2979,4814;0,0299556
2980,4456;0,0298482
2981,4099;0,0297548
2982,3740;0,0296798
2983,3384;0,0296221
2984,3025;0,0295752
2985,2668;0,0295306
2986,2310;0,0294823
2987,1953;0,0294299
2988,1594;0,0293773
2989,1238;0,0293289
2990,0879;0,0292868
2991,0522;0,0292508
2992,0164;0,0292202
2992,9807;0,029196
2993,9448;0,0291816
2994,9092;0,0291802
2995,8733;0,0291925
2996,8376;0,0292157
2997,8018;0,0292454
2998,7661;0,0292776
2999,7302;0,0293096
3000,6946;0,0293401
3001,6587;0,0293681
3002,6230;0,0293935
3003,5872;0,0294176
3004,5515;0,0294435
3005,5156;0,029474
3006,4800;0,0295094
3007,4441;0,0295457
3008,4084;0,0295767
3009,3726;0,0295982
3010,3369;0,0296116
3011,3010;0,0296243
3012,2654;0,0296448
3013,2295;0,0296778
3014,1938;0,0297208
3015,1580;0,029767
3016,1223;0,0298107
3017,0864;0,0298522
3018,0508;0,0298971
3019,0149;0,0299528
3019,9792;0,0300226
3020,9434;0,0301035
3021,9077;0,0301884
3022,8718;0,0302705
3023,8362;0,0303467
3024,8003;0,0304186
3025,7646;0,0304897
3026,7288;0,0305624
3027,6931;0,0306358
3028,6572;0,0307065
3029,6216;0,0307701
3030,5857;0,0308241
3031,5500;0,0308692
3032,5142;0,0309102
3033,4785;0,0309548
3034,4426;0,0310115
3035,4070;0,0310864
3036,3711;0,03118
3037,3354;0,0312869
3038,2996;0,031398
3039,2639;0,031504
3040,2280;0,0316001
3041,1924;0,0316872
3042,1565;0,0317708
3043,1208;0,0318563
3044,0850;0,0319465
3045,0493;0,0320398
3046,0134;0,0321324
3046,9778;0,0322223
3047,9419;0,032311
3048,9063;0,0324035
3049,8704;0,0325053
3050,8347;0,0326171
3051,7988;0,0327337
3052,7632;0,032845
3053,7273;0,0329412
3054,6917;0,0330192
3055,6558;0,0330854
3056,6201;0,0331543
3057,5842;0,0332409
3058,5486;0,0333537
3059,5127;0,0334898
3060,4771;0,0336366
3061,4412;0,033778
3062,4055;0,0339012
3063,3696;0,0340018
3064,3340;0,0340842
3065,2981;0,0341584
3066,2625;0,0342348
3067,2266;0,0343199
3068,1909;0,0344153
3069,1550;0,0345185
3070,1194;0,0346265
3071,0835;0,0347368
3072,0479;0,0348483
3073,0120;0,0349598
3073,9763;0,0350691
3074,9404;0,0351729
3075,9048;0,0352686
3076,8689;0,0353553
3077,8333;0,0354354
3078,7974;0,0355129
3079,7617;0,0355917
3080,7258;0,0356748
3081,6902;0,0357636
3082,6543;0,0358587
3083,6187;0,0359601
3084,5828;0,0360667
3085,5471;0,0361766
3086,5112;0,0362872
3087,4756;0,0363968
3088,4397;0,0365053
3089,4041;0,0366135
3090,3682;0,036721
3091,3325;0,0368254
3092,2966;0,0369238
3093,2610;0,0370152
3094,2251;0,0371029
3095,1895;0,037193
3096,1536;0,0372908
3097,1179;0,0373971
3098,0820;0,0375067
3099,0464;0,0376124
3100,0105;0,0377095
3100,9749;0,0377993
3101,9390;0,0378882
3102,9033;0,0379839
3103,8674;0,0380907
3104,8318;0,0382079
3105,7959;0,0383309
3106,7603;0,0384536
3107,7244;0,0385719
3108,6887;0,0386854
3109,6528;0,0387971
3110,6172;0,0389125
3111,5813;0,0390366
3112,5457;0,0391713
3113,5098;0,0393139
3114,4741;0,0394579
3115,4382;0,039596
3116,4026;0,0397237
3117,3667;0,0398415
3118,3311;0,0399539
3119,2952;0,040067
3120,2595;0,0401853
3121,2236;0,0403098
3122,1880;0,0404386
3123,1521;0,0405687
3124,1165;0,0406977
3125,0806;0,0408257
3126,0449;0,0409539
3127,0090;0,0410845
3127,9734;0,0412182
3128,9375;0,0413538
3129,9019;0,0414882
3130,8660;0,0416185
3131,8303;0,0417442
3132,7944;0,0418682
3133,7588;0,0419965
3134,7229;0,0421353
3135,6873;0,042288
3136,6514;0,0424533
3137,6157;0,0426247
3138,5798;0,0427936
3139,5442;0,0429523
3140,5083;0,0430969
3141,4727;0,0432291
3142,4368;0,0433546
3143,4011;0,0434801
3144,3652;0,043611
3145,3296;0,0437492
3146,2937;0,0438935
3147,2581;0,0440412
3148,2222;0,04419
3149,1865;0,0443386
3150,1506;0,0444876
3151,1150;0,0446385
3152,0791;0,0447936
3153,0435;0,0449544
3154,0076;0,0451214
3154,9719;0,0452932
3155,9360;0,0454666
3156,9004;0,045638
3157,8645;0,0458049
3158,8289;0,0459665
3159,7930;0,0461237
3160,7573;0,0462781
3161,7214;0,0464313
3162,6858;0,0465855
3163,6499;0,0467434
3164,6143;0,0469074
3165,5784;0,0470779
3166,5427;0,0472512
3167,5068;0,0474205
3168,4712;0,0475802
3169,4353;0,0476986
3170,3997;0,0478486
3171,3638;0,048009
3172,3281;0,0481862
3173,2922;0,0483754
3174,2566;0,0485621
3175,2207;0,0487304
3176,1851;0,0488734
3177,1492;0,0489983
3178,1135;0,0491227
3179,0776;0,0492636
3180,0420;0,0494283
3181,0061;0,0496122
3181,9705;0,0498049
3182,9346;0,0499976
3183,8989;0,0501879
3184,8630;0,0503768
3185,8274;0,0505642
3186,7915;0,050745
3187,7559;0,050912
3188,7200;0,0510611
3189,6843;0,0511957
3190,6484;0,0513263
3191,6128;0,0514646
3192,5769;0,0516176
3193,5413;0,0517847
3194,5054;0,0519594
3195,4697;0,0521334
3196,4338;0,0523006
3197,3982;0,0524584
3198,3623;0,0526071
3199,3267;0,0527491
3200,2908;0,0528883
3201,2551;0,0530302
3202,2192;0,0531798
3203,1836;0,0533393
3204,1477;0,0535067
3205,1121;0,0536756
3206,0762;0,053838
3207,0405;0,0539889
3208,0046;0,0541282
3208,9690;0,0542608
3209,9331;0,0543938
3210,8975;0,0545331
3211,8616;0,0546808
3212,8259;0,0548354
3213,7900;0,054993
3214,7544;0,0551494
3215,7185;0,0553023
3216,6829;0,0554518
3217,6470;0,0556009
3218,6113;0,0557542
3219,5754;0,0559155
3220,5398;0,0560862
3221,5039;0,0562638
3222,4683;0,0564431
3223,4324;0,0566182
3224,3967;0,0567852
3225,3608;0,0569431
3226,3252;0,0570948
3227,2893;0,0572447
3228,2537;0,0573976
3229,2178;0,0575562
3230,1821;0,0577201
3231,1462;0,0578854
3232,1106;0,0580467
3233,0747;0,0581992
3234,0391;0,0583417
3235,0032;0,0584782
3235,9675;0,0586163
3236,9316;0,0587648
3237,8960;0,0589286
3238,8601;0,059106
3239,8245;0,0592881
3240,7886;0,0594623
3241,7529;0,0596174
3242,7170;0,0597489
3243,6814;0,0598619
3244,6455;0,0599704
3245,6099;0,0600922
3246,5740;0,0602425
3247,5383;0,0604272
3248,5024;0,0606414
3249,4668;0,0608718
3250,4309;0,0611027
3251,3953;0,0613216
3252,3594;0,0615237
3253,3237;0,0617114
3254,2878;0,0618909
3255,2522;0,0620684
3256,2163;0,0622468
3257,1807;0,0624266
3258,1448;0,0626077
3259,1091;0,0627915
3260,0732;0,0629811
3261,0376;0,063179
3262,0017;0,0633848
3262,9661;0,063594
3263,9302;0,0637989
3264,8945;0,0639924
3265,8586;0,0641705
3266,8230;0,0643346
3267,7871;0,0644896
3268,7515;0,0646405
3269,7156;0,0647884
3270,6799;0,064929
3271,6440;0,0650551
3272,6084;0,065162
3273,5725;0,065252
3274,5369;0,0653349
3275,5010;0,0654233
3276,4653;0,0655252
3277,4294;0,0656392
3278,3938;0,0657549
3279,3579;0,0658587
3280,3223;0,0659413
3281,2864;0,0660017
3282,2507;0,0660479
3283,2148;0,0660918
3284,1792;0,0661435
3285,1433;0,0662066
3286,1077;0,0662771
3287,0718;0,0663453
3288,0361;0,0663998
3289,0002;0,0664331
3289,9646;0,0664448
3290,9287;0,0664421
3291,8931;0,0664357
3292,8572;0,0664344
3293,8215;0,0664403
3294,7856;0,0664495
3295,7500;0,0664559
3296,7141;0,0664563
3297,6785;0,066453
3298,6426;0,0664523
3299,6069;0,0664594
3300,5710;0,0664753
3301,5354;0,066496
3302,4995;0,0665145
3303,4639;0,0665252
3304,4280;0,0665255
3305,3923;0,0665167
3306,3564;0,0665029
3307,3208;0,0664896
3308,2849;0,0664824
3309,2493;0,0664856
3310,2134;0,0665009
3311,1777;0,0665271
3312,1418;0,0665616
3313,1062;0,0666022
3314,0703;0,0666491
3315,0347;0,066705
3315,9988;0,0667741
3316,9631;0,0668596
3317,9272;0,0669617
3318,8916;0,067077
3319,8557;0,0671997
3320,8201;0,0673238
3321,7842;0,0674441
3322,7485;0,0675575
3323,7126;0,0676624
3324,6770;0,0677588
3325,6411;0,0678469
3326,6055;0,0679277
3327,5696;0,0680029
3328,5339;0,0680745
3329,4980;0,0681443
3330,4624;0,0682116
3331,4265;0,0682724
3332,3909;0,0683196
3333,3550;0,0683449
3334,3193;0,0683435
3335,2834;0,0683163
3336,2478;0,068271
3337,2119;0,0682179
3338,1763;0,0681647
3339,1404;0,0681115
3340,1047;0,0680515
3341,0688;0,0679742
3342,0332;0,0678728
3342,9973;0,0677477
3343,9617;0,0676078
3344,9258;0,0674655
3345,8901;0,0673302
3346,8542;0,0672034
3347,8186;0,0670787
3348,7827;0,066945
3349,7471;0,0667933
3350,7112;0,0666218
3351,6755;0,066437
3352,6396;0,0662506
3353,6040;0,0660745
3354,5681;0,0659152
3355,5325;0,0657725
3356,4966;0,0656403
3357,4609;0,0655105
3358,4250;0,065377
3359,3894;0,0652363
3360,3535;0,0650878
3361,3179;0,0649312
3362,2820;0,0647665
3363,2463;0,0645949
3364,2104;0,0644197
3365,1748;0,0642472
3366,1389;0,0640844
3367,1033;0,0639355
3368,0674;0,0637995
3369,0317;0,0636694
3369,9958;0,0635354
3370,9602;0,0633887
3371,9243;0,0632253
3372,8887;0,0630467
3373,8528;0,0628598
3374,8171;0,0626744
3375,7813;0,0625009
3376,7456;0,0623476
3377,7097;0,0622175
3378,6741;0,0621065
3379,6382;0,0620027
3380,6025;0,0618893
3381,5667;0,0617506
3382,5310;0,0615795
3383,4951;0,0613827
3384,4595;0,0611793
3385,4236;0,0609929
3386,3879;0,0608402
3387,3521;0,0607216
3388,3164;0,0606221
3389,2805;0,0605189
3390,2449;0,0603935
3391,2090;0,0602402
3392,1733;0,0600672
3393,1375;0,0598897
3394,1018;0,0597206
3395,0659;0,059565
3396,0303;0,0594205
3396,9944;0,0592811
3397,9587;0,0591401
3398,9229;0,0589918
3399,8872;0,0588316
3400,8513;0,0586575
3401,8157;0,0584726
3402,7798;0,058286
3403,7441;0,0581096
3404,7083;0,0579518
3405,6726;0,0578117
3406,6367;0,057678
3407,6011;0,0575349
3408,5652;0,0573692
3409,5295;0,0571773
3410,4937;0,0569664
3411,4580;0,0567516
3412,4221;0,0565497
3413,3865;0,056373
3414,3506;0,0562232
3415,3149;0,0560894
3416,2791;0,0559506
3417,2434;0,0557835
3418,2075;0,0555728
3419,1719;0,0553195
3420,1360;0,0550421
3421,1003;0,0547678
3422,0645;0,0545187
3423,0288;0,0543023
3423,9929;0,054111
3424,9573;0,0539302
3425,9214;0,0537473
3426,8857;0,053556
3427,8499;0,0533556
3428,8142;0,0531472
3429,7783;0,0529308
3430,7427;0,0527054
3431,7068;0,0524707
3432,6711;0,0522297
3433,6353;0,0519881
3434,5996;0,0517513
3435,5637;0,0515213
3436,5281;0,0512962
3437,4922;0,0510734
3438,4565;0,050854
3439,4207;0,0506456
3440,3850;0,0504586
3441,3491;0,0502968
3442,3135;0,0501491
3443,2776;0,0499881
3444,2419;0,0497814
3445,2061;0,0495101
3446,1704;0,0491845
3447,1345;0,0488443
3448,0989;0,048539
3449,0630;0,0483016
3450,0273;0,048132
3450,9915;0,0480025
3451,9558;0,0478753
3452,9199;0,0477211
3453,8843;0,0475298
3454,8484;0,047309
3455,8127;0,0470744
3456,7769;0,0468375
3457,7412;0,0466009
3458,7053;0,0463602
3459,6697;0,0461113
3460,6338;0,0458558
3461,5981;0,0456019
3462,5623;0,0453591
3463,5266;0,0451313
3464,4907;0,0449139
3465,4551;0,0446977
3466,4192;0,0444758
3467,3835;0,0442499
3468,3477;0,0440291
3469,3120;0,0438219
3470,2761;0,0436278
3471,2405;0,0434359
3472,2046;0,043233
3473,1689;0,0430158
3474,1331;0,0427962
3475,0974;0,0425944
3476,0615;0,0424221
3477,0259;0,0422696
3477,9900;0,0421079
3478,9543;0,041906
3479,9185;0,0416526
3480,8828;0,0413671
3481,8469;0,0410894
3482,8113;0,0408539
3483,7754;0,0406661
3484,7397;0,0405017
3485,7039;0,0403256
3486,6682;0,0401161
3487,6323;0,0398801
3488,5967;0,0396476
3489,5608;0,0394495
3490,5251;0,0392939
3491,4893;0,0391577
3492,4536;0,0390001
3493,4177;0,0387891
3494,3821;0,0385271
3495,3462;0,0382582
3496,3105;0,0380466
3497,2747;0,0379349
3498,2390;0,0379111
3499,2031;0,037907
3500,1675;0,0378298
3501,1316;0,0376125
3502,0959;0,0372596
3503,0601;0,0368524
3504,0244;0,0364992
3504,9885;0,0362638
3505,9529;0,0361303
3506,9170;0,0360246
3507,8813;0,0358657
3508,8455;0,0356152
3509,8098;0,0352977
3510,7739;0,0349802
3511,7383;0,0347239
3512,7024;0,0345481
3513,6667;0,0344294
3514,6309;0,0343276
3515,5952;0,0342142
3516,5593;0,0340863
3517,5237;0,03396
3518,4878;0,0338522
3519,4521;0,0337655
3520,4163;0,0336853
3521,3806;0,033588
3522,3447;0,0334529
3523,3091;0,033268
3524,2732;0,0330294
3525,2375;0,0327364
3526,2017;0,0323941
3527,1660;0,0320212
3528,1301;0,031657
3529,0945;0,0313527
3530,0586;0,0311484
3531,0229;0,0310502
3531,9871;0,031023
3532,9514;0,031004
3533,9155;0,0309275
3534,8799;0,0307537
3535,8440;0,030489
3536,8083;0,0301877
3537,7725;0,0299266
3538,7368;0,0297682
3539,7009;0,0297314
3540,6653;0,029785
3541,6294;0,0298559
3542,5938;0,0298511
3543,5579;0,0296927
3544,5222;0,0293605
3545,4863;0,028916
3546,4507;0,0284719
3547,4148;0,0281214
3548,3792;0,0278874
3549,3433;0,0277252
3550,3076;0,0275625
3551,2717;0,0273483
3552,2361;0,0270852
3553,2002;0,0268268
3554,1646;0,026636
3555,1287;0,0265375
3556,0930;0,0265034
3557,0571;0,026477
3558,0215;0,0264145
3558,9856;0,0263204
3559,9500;0,0262502
3560,9141;0,0262713
3561,8784;0,0264035
3562,8425;0,0265796
3563,8069;0,0266444
3564,7710;0,0264074
3565,7354;0,0257652
3566,6995;0,0248413
3567,6638;0,0239577
3568,6279;0,0233896
3569,5923;0,0231871
3570,5564;0,0232269
3571,5208;0,0233428
3572,4849;0,0234073
3573,4492;0,0233637
3574,4133;0,0232257
3575,3777;0,0230466
3576,3418;0,0228724
3577,3062;0,0227165
3578,2703;0,0225731
3579,2346;0,0224523
3580,1987;0,0223961
3581,1631;0,0224531
3582,1272;0,0226311
3583,0916;0,0228599
3584,0557;0,0229895
3585,0200;0,0228362
3585,9841;0,0222967
3586,9485;0,0214851
3587,9126;0,0207166
3588,8770;0,0202688
3589,8411;0,0201883
3590,8054;0,0203312
3591,7695;0,0204988
3592,7339;0,0205366
3593,6980;0,0203895
3594,6624;0,0201123
3595,6265;0,0198106
3596,5908;0,019546
3597,5549;0,019297
3598,5193;0,0190095
3599,4834;0,0186774
3600,4478;0,0183786
3601,4119;0,0182264
3602,3762;0,0182793
3603,3403;0,018494
3604,3047;0,0187478
3605,2688;0,0188989
3606,2332;0,01885
3607,1973;0,0185973
3608,1616;0,0182284
3609,1257;0,0178547
3610,0901;0,017539
3611,0542;0,0172887
3612,0186;0,0171
3612,9827;0,0169869
3613,9470;0,0169637
3614,9111;0,0170018
3615,8755;0,0170064
3616,8396;0,0168432
3617,8040;0,0164201
3618,7681;0,0157904
3619,7324;0,0151766
3620,6965;0,0148392
3621,6609;0,0149059
3622,6250;0,0153355
3623,5894;0,0159833
3624,5535;0,0166501
3625,5178;0,017086
3626,4819;0,0170135
3627,4463;0,0162753
3628,4104;0,0150823
3629,3748;0,0139753
3630,3389;0,013349
3631,3032;0,0131894
3632,2673;0,0132734
3633,2317;0,0133988
3634,1958;0,013462
3635,1602;0,0134521
3636,1243;0,0134109
3637,0886;0,0133823
3638,0527;0,013381
3639,0171;0,0133994
3639,9812;0,0134398
3640,9456;0,0135371
3641,9097;0,0137473
3642,8740;0,0141069
3643,8381;0,0145865
3644,8025;0,0150524
3645,7666;0,01524
3646,7310;0,0147891
3647,6951;0,0134867
3648,6594;0,0117098
3649,6235;0,010343
3650,5879;0,00989558
3651,5520;0,0101726
3652,5164;0,0107345
3653,4805;0,0112263
3654,4448;0,0114393
3655,4089;0,0113289
3656,3733;0,0110251
3657,3374;0,010747
3658,3018;0,0106372
3659,2659;0,0106845
3660,2302;0,0107925
3661,1943;0,0108907
3662,1587;0,0109917
3663,1228;0,011169
3664,0872;0,0114758
3665,0513;0,0118715
3666,0156;0,0122084
3666,9797;0,0122879
3667,9441;0,0119918
3668,9082;0,0114399
3669,8726;0,0109789
3670,8367;0,0108855
3671,8010;0,0111146
3672,7651;0,0113625
3673,7295;0,0112812
3674,6936;0,0107112
3675,6580;0,00985857
3676,6221;0,0091582
3677,5864;0,00886858
3678,5505;0,00893664
3679,5149;0,0091899
3680,4790;0,00950665
3681,4434;0,00985639
3682,4075;0,0102659
3683,3718;0,0107577
3684,3359;0,0112929
3685,3003;0,0117427
3686,2644;0,0118994
3687,2288;0,0115559
3688,1929;0,0106867
3689,1572;0,00960653
3690,1213;0,00879782
3691,0857;0,00850715
3692,0498;0,00865
3693,0142;0,00902408
3693,9783;0,00947519
3694,9426;0,00992774
3695,9067;0,0103529
3696,8711;0,0107255
3697,8352;0,0109951
3698,7996;0,0110871
3699,7637;0,0109448
3700,7280;0,0105963
3701,6921;0,0101885
3702,6565;0,00992524
3703,6206;0,00994386
3704,5850;0,010248
3705,5491;0,0107313
3706,5134;0,0112255
3707,4775;0,0115296
3708,4419;0,0114441
3709,4060;0,0108716
3710,3704;0,00996945
3711,3345;0,00914421
3712,2988;0,008749
3713,2629;0,00883515
3714,2273;0,00923889
3715,1914;0,00976606
3716,1558;0,010272
3717,1199;0,0106688
3718,0842;0,0109222
3719,0483;0,0110501
3720,0127;0,0111047
3720,9768;0,0111309
3721,9412;0,0111309
3722,9053;0,0110706
3723,8696;0,0109305
3724,8337;0,0107536
3725,7981;0,0106381
3726,7622;0,0106776
3727,7266;0,010907
3728,6907;0,0112957
3729,6550;0,0117689
3730,6191;0,0122233
3731,5835;0,0125272
3732,5476;0,0125254
3733,5120;0,0120974
3734,4761;0,0112907
3735,4404;0,0103951
3736,4045;0,00978042
3737,3689;0,00965266
3738,3330;0,0100014
3739,2974;0,0106849
3740,2615;0,0114915
3741,2258;0,0121538
3742,1899;0,0123899
3743,1543;0,0120622
3744,1184;0,011385
3745,0828;0,0108302
3746,0469;0,0106844
3747,0112;0,0108322
3747,9753;0,010916
3748,9397;0,0105764
3749,9038;0,00971771
3750,8682;0,00870869
3751,8323;0,00811878
3752,7966;0,00816697
3753,7607;0,00865491
3754,7251;0,00926613
3755,6892;0,00974316
3756,6536;0,00993238
3757,6177;0,00982127
3758,5820;0,00955617
3759,5461;0,00935592
3760,5105;0,009359
3761,4746;0,0095581
3762,4390;0,0098544
3763,4031;0,0101361
3764,3674;0,0103223
3765,3315;0,0103738
3766,2959;0,0102832
3767,2600;0,0100608
3768,2244;0,00973461
3769,1885;0,00936918
3770,1528;0,00907249
3771,1169;0,00895827
3772,0813;0,00908314
3773,0454;0,0094149
3774,0098;0,0098485
3774,9739;0,0102425
3775,9382;0,0104596
3776,9023;0,0104194
3777,8667;0,0101549
3778,8308;0,00981492
3779,7952;0,00956829
3780,7593;0,00948822
3781,7236;0,00953163
3782,6877;0,00960542
3783,6521;0,00963771
3784,6162;0,00961108
3785,5806;0,00955637
3786,5447;0,00952394
3787,5090;0,00955544
3788,4731;0,00967118
3789,4375;0,00986854
3790,4016;0,0101212
3791,3660;0,0103798
3792,3301;0,0105848
3793,2944;0,0106941
3794,2585;0,0107162
3795,2229;0,0107122
3796,1870;0,0107473
3797,1514;0,0108166
3798,1155;0,0108156
3799,0798;0,0106008
3800,0439;0,0101282
3801,0083;0,00955794
3801,9724;0,00916355
3802,9368;0,00908838
3803,9009;0,00923566
3804,8652;0,00937962
3805,8293;0,00934363
3806,7937;0,00913446
3807,7578;0,00894977
3808,7222;0,00901566
3809,6863;0,00940706
3810,6506;0,010024
3811,6147;0,0106716
3812,5791;0,0111388
3813,5432;0,011277
3814,5076;0,0110943
3815,4717;0,0107777
3816,4360;0,0105407
3817,4001;0,0104253
3818,3645;0,0102891
3819,3286;0,00997354
3820,2930;0,00948781
3821,2571;0,00903885
3822,2214;0,00884658
3823,1855;0,008959
3824,1499;0,00927018
3825,1140;0,00963881
3826,0784;0,00996292
3827,0425;0,0101973
3828,0068;0,0103428
3828,9709;0,0104248
3829,9353;0,0104755
3830,8994;0,0105285
3831,8638;0,0106162
3832,8279;0,0107572
3833,7922;0,0109306
3834,7563;0,0110601
3835,7207;0,0110357
3836,6848;0,0107826
3837,6492;0,0103415
3838,6133;0,00986929
3839,5776;0,00952666
3840,5417;0,00936525
3841,5061;0,0093326
3842,4702;0,00935519
3843,4346;0,00940827
3844,3987;0,00953387
3845,3630;0,00981142
3846,3271;0,0103087
3847,2915;0,0110428
3848,2556;0,0119561
3849,2200;0,012887
3850,1841;0,0135301
3851,1484;0,013451
3852,1125;0,0123552
3853,0769;0,0106105
3854,0410;0,00915851
3855,0054;0,00855013
3855,9695;0,00866741
3856,9338;0,00920294
3857,8979;0,0099201
3858,8623;0,0106447
3859,8264;0,0112202
3860,7908;0,0115127
3861,7549;0,0114723
3862,7192;0,0111994
3863,6833;0,0109136
3864,6477;0,010807
3865,6118;0,0109227
3866,5762;0,0111607
3867,5403;0,0113585
3868,5046;0,0113708
3869,4688;0,0111343
3870,4331;0,010703
3871,3972;0,0102241
3872,3616;0,00986242
3873,3257;0,00972925
3874,2900;0,00985459
3875,2542;0,0101936
3876,2185;0,0106452
3877,1826;0,0110791
3878,1470;0,0113761
3879,1111;0,0114804
3880,0754;0,0114275
3881,0396;0,0113058
3882,0039;0,0111729
3882,9680;0,0110186
3883,9324;0,0108171
3884,8965;0,0106041
3885,8608;0,010481
3886,8250;0,0105294
3887,7893;0,0107246
3888,7534;0,0109307
3889,7178;0,0109786
3890,6819;0,0107885
3891,6462;0,0104646
3892,6104;0,0102438
3893,5747;0,0103119
3894,5388;0,0106869
3895,5032;0,0112534
3896,4673;0,0118463
3897,4316;0,0123128
3898,3958;0,0125568
3899,3601;0,0125568
3900,3242;0,0123392
3901,2886;0,0119315
3902,2527;0,011363
3903,2170;0,0107138
3904,1812;0,0101242
3905,1455;0,0097246
3906,1096;0,00956144
3907,0740;0,00959474
3908,0381;0,00974695
3909,0024;0,00995139
3909,9666;0,0101775
3910,9309;0,0104292
3911,8950;0,0107191
3912,8594;0,0110343
3913,8235;0,011316
3914,7878;0,0114748
3915,7520;0,0114412
3916,7163;0,0112255
3917,6804;0,0109346
3918,6448;0,0107082
3919,6089;0,0106256
3920,5732;0,0106672
3921,5374;0,0107445
3922,5017;0,0107655
3923,4658;0,0106955
3924,4302;0,0105829
3925,3943;0,0105234
3926,3586;0,0105869
3927,3228;0,0107682
3928,2871;0,0109897
3929,2512;0,011141
3930,2156;0,0111354
3931,1797;0,0109588
3932,1440;0,0106808
3933,1082;0,0104103
3934,0725;0,0102346
3935,0366;0,0101911
3936,0010;0,0102749
3936,9651;0,0104542
3937,9294;0,0106798
3938,8936;0,0108917
3939,8579;0,0110326
3940,8220;0,0110722
3941,7864;0,0110283
3942,7505;0,0109623
3943,7148;0,0109404
3944,6790;0,0109877
3945,6433;0,0110721
3946,6074;0,011124
3947,5718;0,0110797
3948,5359;0,0109234
3949,5002;0,0107012
3950,4644;0,0104922
3951,4287;0,0103592
3952,3928;0,0103195
3953,3572;0,0103517
3954,3213;0,0104204
3955,2856;0,0104988
3956,2498;0,010575
3957,2141;0,0106447
3958,1782;0,0106996
3959,1426;0,0107243
3960,1067;0,0107049
3961,0710;0,0106424
3962,0352;0,0105573
3962,9995;0,0104815
3963,9636;0,0104411
3964,9280;0,0104437
3965,8921;0,010478
3966,8564;0,0105227
3967,8206;0,0105598
3968,7849;0,0105817
3969,7490;0,0105918
3970,7134;0,0105973
3971,6775;0,0106023
3972,6418;0,0106053
3973,6060;0,0106018
3974,5703;0,0105885
3975,5344;0,0105668
3976,4988;0,0105421
3977,4629;0,0105201
3978,4272;0,0105045
3979,3914;0,0104948
3980,3557;0,0104883
3981,3198;0,0104818
3982,2842;0,010475
3983,2483;0,0104712
3984,2126;0,0104764
3985,1768;0,0104951
3986,1411;0,010527
3987,1052;0,0105656
3988,0696;0,0106001
3989,0337;0,0106205
3989,9980;0,0106223
3990,9622;0,0106081
3991,9265;0,0105852
3992,8906;0,010561
3993,8550;0,0105406
3994,8191;0,0105257
3995,7834;0,0105157
3996,7476;0,0105083
3997,7119;0,0105007
3998,6760;0,0104908
3999,6404;0,0104804
4000,6045;0,010301

##### Extended Information
[Comments]
Sample name
Comment
Username
Division
Organization;UNIVERSIDAD INDUSTRIAL DE SANTANDER

[Detailed Information]
Creation date;18/03/2025 11:07 a.m.

Data array type;Linear data array
Horizontal axis;Wavenumber [cm-1]
Vertical axis;Abs
Start;399,193 cm-1
End;4000,6 cm-1
Data interval;0,964233 cm-1
Data points;3736    

[Measurement Information]
Model name;FT/IR-4X1typeA
Serial No.;A035162111

Accessory;ATR PRO 4X
Accessory S/N;A021162126
Incident angle;45 deg

Measurement date;18/03/2025 11:06 a.m.

Light source;Standard
Detector;TGS
Accumulation;40
Resolution;4 cm-1
Zero filling;On
Apodization;Cosine
Gain;Auto (8)
Aperture;Auto (7 mm)
Scan speed;Auto (2 mm/sec)
Filter;Auto (12800 Hz)

