TITLE;
DATA TYPE;INFRARED SPECTRUM
ORIGIN;JASCO
OWNER;
DATE;25/03/18
TIME;10:29:09
SPECTROMETER/DATA SYSTEM;
LOCALE;9226
RESOLUTION;
DELTAX;0,964233
XUNITS;1/CM
YUNITS;ABSORBANCE
FIRSTX;  399,1927
LASTX; 4000,6047
NPOINTS;    3736
FIRSTY;     0,17977
MAXY;     0,20306
MINY;     0,00489
XYDATA
399,1927;0,17977
400,1569;0,178456
401,1211;0,177779
402,0854;0,177751
403,0496;0,178116
404,0138;0,17853
404,9781;0,178698
405,9423;0,178465
406,9065;0,177842
407,8708;0,176941
408,8350;0,175895
409,7992;0,174843
410,7635;0,173973
411,7277;0,173518
412,6919;0,173645
413,6562;0,174347
414,6204;0,175449
415,5846;0,176707
416,5489;0,177902
417,5131;0,178882
418,4773;0,179579
419,4416;0,179988
420,4058;0,180099
421,3700;0,17989
422,3343;0,179384
423,2985;0,178692
424,2627;0,17801
425,2270;0,177529
426,1912;0,177313
427,1554;0,177244
428,1197;0,177094
429,0839;0,176687
430,0481;0,176005
431,0124;0,175187
431,9766;0,174415
432,9408;0,173794
433,9051;0,173289
434,8693;0,17277
435,8335;0,172124
436,7978;0,171344
437,7620;0,170551
438,7262;0,169931
439,6905;0,169661
440,6547;0,169838
441,6189;0,17042
442,5832;0,171186
443,5474;0,171792
444,5116;0,171921
445,4759;0,171452
446,4401;0,170497
447,4043;0,169302
448,3686;0,168115
449,3328;0,167119
450,2970;0,166407
451,2613;0,166003
452,2255;0,165878
453,1897;0,165957
454,1540;0,166129
455,1182;0,166257
456,0824;0,166202
457,0467;0,165865
458,0109;0,165248
458,9751;0,16448
459,9394;0,163746
460,9036;0,163194
461,8678;0,162881
462,8321;0,162779
463,7963;0,162783
464,7605;0,162747
465,7248;0,162532
466,6890;0,162083
467,6532;0,161465
468,6175;0,160822
469,5817;0,160299
470,5459;0,159968
471,5102;0,159797
472,4744;0,159685
473,4386;0,159551
474,4029;0,159392
475,3671;0,159277
476,3313;0,159285
477,2956;0,159451
478,2598;0,159749
479,2240;0,160099
480,1883;0,160394
481,1525;0,160543
482,1167;0,160515
483,0810;0,160365
484,0452;0,160239
485,0094;0,160309
485,9737;0,160678
486,9379;0,161322
487,9021;0,162092
488,8664;0,162781
489,8306;0,163204
490,7948;0,163273
491,7591;0,163041
492,7233;0,162689
493,6875;0,162444
494,6518;0,162479
495,6160;0,162847
496,5802;0,163476
497,5445;0,164213
498,5087;0,164883
499,4729;0,165347
500,4372;0,165536
501,4014;0,165479
502,3656;0,165285
503,3299;0,165092
504,2941;0,165006
505,2583;0,165075
506,2226;0,165303
507,1868;0,165673
508,1510;0,166166
509,1153;0,166753
510,0795;0,167385
511,0437;0,168001
512,0080;0,168545
512,9722;0,168982
513,9365;0,169311
514,9007;0,169559
515,8649;0,169765
516,8292;0,169965
517,7934;0,17017
518,7576;0,170373
519,7219;0,170556
520,6861;0,170706
521,6503;0,170824
522,6146;0,170916
523,5788;0,170991
524,5430;0,171048
525,5073;0,171073
526,4715;0,171044
527,4357;0,170947
528,4000;0,170786
529,3642;0,170594
530,3284;0,170423
531,2927;0,170324
532,2569;0,170319
533,2211;0,17038
534,1854;0,170436
535,1496;0,170404
536,1138;0,170242
537,0781;0,169974
538,0423;0,169692
539,0065;0,169498
539,9708;0,169453
540,9350;0,169535
541,8992;0,169653
542,8635;0,169695
543,8277;0,169587
544,7919;0,16933
545,7562;0,169001
546,7204;0,168712
547,6846;0,16856
548,6489;0,168588
549,6131;0,168778
550,5773;0,169071
551,5416;0,169394
552,5058;0,169686
553,4700;0,169911
554,4343;0,170065
555,3985;0,170169
556,3627;0,170253
557,3270;0,170336
558,2912;0,170396
559,2554;0,170375
560,2197;0,170197
561,1839;0,169807
562,1481;0,16921
563,1124;0,168483
564,0766;0,167751
565,0408;0,167135
566,0051;0,166707
566,9693;0,166467
567,9335;0,166352
568,8978;0,166283
569,8620;0,166202
570,8262;0,166105
571,7905;0,166021
572,7547;0,165982
573,7189;0,165991
574,6832;0,166013
575,6474;0,165992
576,6116;0,165885
577,5759;0,165681
578,5401;0,165414
579,5043;0,165134
580,4686;0,16488
581,4328;0,164664
582,3970;0,164463
583,3613;0,164243
584,3255;0,163977
585,2897;0,163673
586,2540;0,16337
587,2182;0,163128
588,1824;0,162997
589,1467;0,162991
590,1109;0,163078
591,0751;0,163185
592,0394;0,163231
593,0036;0,163161
593,9678;0,162966
594,9321;0,162678
595,8963;0,162342
596,8605;0,161994
597,8248;0,161657
598,7890;0,161342
599,7532;0,161056
600,7175;0,160805
601,6817;0,160584
602,6459;0,160367
603,6102;0,160116
604,5744;0,159783
605,5386;0,159337
606,5029;0,158773
607,4671;0,158116
608,4313;0,157414
609,3956;0,156718
610,3598;0,15607
611,3240;0,155487
612,2883;0,154958
613,2525;0,154452
614,2167;0,153926
615,1810;0,153336
616,1452;0,152655
617,1094;0,151881
618,0737;0,151045
619,0379;0,150191
620,0021;0,149354
620,9664;0,148547
621,9306;0,147764
622,8948;0,146997
623,8591;0,14625
624,8233;0,145542
625,7875;0,144892
626,7518;0,144311
627,7160;0,143788
628,6802;0,143296
629,6445;0,142811
630,6087;0,142319
631,5729;0,141817
632,5372;0,141305
633,5014;0,14078
634,4656;0,140241
635,4299;0,139695
636,3941;0,139159
637,3583;0,138663
638,3226;0,138232
639,2868;0,137874
640,2510;0,137575
641,2153;0,137306
642,1795;0,137034
643,1437;0,136737
644,1080;0,136412
645,0722;0,13607
646,0364;0,135722
647,0007;0,135373
647,9649;0,135011
648,9291;0,134622
649,8934;0,134211
650,8576;0,133812
651,8218;0,133487
652,7861;0,133295
653,7503;0,133267
654,7145;0,13339
655,6788;0,133616
656,6430;0,133882
657,6072;0,134135
658,5715;0,134339
659,5357;0,134463
660,4999;0,134486
661,4642;0,134412
662,4284;0,134283
663,3926;0,134163
664,3569;0,134102
665,3211;0,134102
666,2853;0,134063
667,2496;0,133744
668,2138;0,132876
669,1780;0,131518
670,1423;0,130073
671,1065;0,128805
672,0707;0,127694
673,0350;0,126617
673,9992;0,125477
674,9634;0,124242
675,9277;0,122953
676,8919;0,121679
677,8561;0,120472
678,8204;0,119343
679,7846;0,118293
680,7488;0,117338
681,7131;0,116507
682,6773;0,115814
683,6415;0,11524
684,6058;0,114745
685,5700;0,11429
686,5342;0,113853
687,4985;0,113437
688,4627;0,11305
689,4269;0,112699
690,3912;0,112382
691,3554;0,112089
692,3196;0,111811
693,2839;0,111539
694,2481;0,111268
695,2123;0,110991
696,1766;0,110705
697,1408;0,110401
698,1050;0,110079
699,0693;0,109741
700,0335;0,109392
700,9977;0,109037
701,9620;0,108672
702,9262;0,108289
703,8904;0,107874
704,8547;0,10742
705,8189;0,10693
706,7831;0,106421
707,7474;0,105916
708,7116;0,105436
709,6758;0,104992
710,6401;0,104581
711,6043;0,104185
712,5685;0,103778
713,5328;0,103336
714,4970;0,102847
715,4612;0,102329
716,4255;0,101764
717,3897;0,10119
718,3539;0,100617
719,3182;0,100036
720,2824;0,0994257
721,2466;0,0987672
722,2109;0,0980613
723,1751;0,0973312
724,1393;0,0966124
725,1036;0,0959364
726,0678;0,0953179
727,0320;0,0947515
727,9963;0,0942169
728,9605;0,0936903
729,9247;0,093155
730,8890;0,0926062
731,8532;0,0920491
732,8174;0,0914945
733,7817;0,0909555
734,7459;0,0904466
735,7101;0,0899815
736,6744;0,0895709
737,6386;0,0892177
738,6028;0,0889136
739,5671;0,0886406
740,5313;0,0883744
741,4955;0,088091
742,4598;0,0877714
743,4240;0,0874048
744,3882;0,0869915
745,3525;0,0865443
746,3167;0,086087
747,2809;0,0856479
748,2452;0,0852492
749,2094;0,0848964
750,1736;0,0845762
751,1379;0,0842626
752,1021;0,0839297
753,0663;0,0835633
754,0306;0,0831638
754,9948;0,0827414
755,9590;0,0823087
756,9233;0,0818747
757,8875;0,0814453
758,8517;0,0810266
759,8160;0,0806276
760,7802;0,0802591
761,7444;0,0799289
762,7087;0,079637
763,6729;0,0793731
764,6371;0,0791187
765,6014;0,0788533
766,5656;0,0785613
767,5298;0,0782373
768,4941;0,0778879
769,4583;0,0775279
770,4225;0,0771753
771,3868;0,0768452
772,3510;0,0765457
773,3152;0,0762767
774,2795;0,0760293
775,2437;0,075788
776,2079;0,075534
777,1722;0,0752496
778,1364;0,0749236
779,1006;0,0745547
780,0649;0,0741525
781,0291;0,0737346
781,9933;0,0733224
782,9576;0,0729363
783,9218;0,0725907
784,8860;0,0722905
785,8503;0,0720298
786,8145;0,0717939
787,7787;0,0715641
788,7430;0,0713246
789,7072;0,0710674
790,6714;0,0707944
791,6357;0,0705144
792,5999;0,0702392
793,5641;0,0699789
794,5284;0,0697407
795,4926;0,0695278
796,4568;0,0693412
797,4211;0,0691793
798,3853;0,0690387
799,3495;0,0689133
800,3138;0,0687953
801,2780;0,0686748
802,2422;0,0685416
803,2065;0,0683863
804,1707;0,0682031
805,1349;0,067992
806,0992;0,0677606
807,0634;0,0675225
808,0276;0,067294
808,9919;0,0670893
809,9561;0,0669154
810,9203;0,0667708
811,8846;0,0666471
812,8488;0,0665342
813,8130;0,066425
814,7773;0,0663186
815,7415;0,0662182
816,7057;0,0661263
817,6700;0,0660392
818,6342;0,0659463
819,5984;0,0658349
820,5627;0,0656979
821,5269;0,0655394
822,4911;0,0653745
823,4554;0,0652214
824,4196;0,0650923
825,3839;0,064988
826,3481;0,0648988
827,3123;0,0648114
828,2766;0,0647153
829,2408;0,0646058
830,2050;0,0644819
831,1693;0,0643434
832,1335;0,064188
833,0977;0,0640123
834,0620;0,0638149
835,0262;0,0635986
835,9904;0,063371
836,9547;0,0631415
837,9189;0,0629176
838,8831;0,0627017
839,8474;0,06249
840,8116;0,0622753
841,7758;0,0620517
842,7401;0,0618186
843,7043;0,0615814
844,6685;0,0613487
845,6328;0,061128
846,5970;0,0609226
847,5612;0,0607317
848,5255;0,0605538
849,4897;0,0603894
850,4539;0,0602422
851,4182;0,060117
852,3824;0,0600178
853,3466;0,0599452
854,3109;0,0598961
855,2751;0,0598639
856,2393;0,0598401
857,2036;0,0598168
858,1678;0,0597909
859,1320;0,0597655
860,0963;0,0597493
861,0605;0,0597517
862,0247;0,0597773
862,9890;0,0598243
863,9532;0,0598888
864,9174;0,059972
865,8817;0,0600848
866,8459;0,0602447
867,8101;0,0604651
868,7744;0,0607449
869,7386;0,0610643
870,7028;0,0613904
871,6671;0,0616882
872,6313;0,0619312
873,5955;0,062106
874,5598;0,0622124
875,5240;0,0622606
876,4882;0,0622696
877,4525;0,0622651
878,4167;0,0622765
879,3809;0,0623307
880,3452;0,0624465
881,3094;0,0626318
882,2736;0,0628872
883,2379;0,063212
884,2021;0,0636102
885,1663;0,0640912
886,1306;0,0646653
887,0948;0,0653361
888,0590;0,0660945
889,0233;0,0669174
889,9875;0,0677702
890,9517;0,0686131
891,9160;0,0694076
892,8802;0,0701221
893,8444;0,0707328
894,8087;0,0712237
895,7729;0,0715837
896,7371;0,0718041
897,7014;0,0718789
898,6656;0,0718058
899,6298;0,0715888
900,5941;0,0712401
901,5583;0,0707805
902,5225;0,070239
903,4868;0,0696507
904,4510;0,0690533
905,4152;0,0684832
906,3795;0,0679689
907,3437;0,067527
908,3079;0,0671618
909,2722;0,0668695
910,2364;0,0666459
911,2007;0,0664904
912,1649;0,0664061
913,1292;0,0663936
914,0934;0,0664454
915,0576;0,0665457
916,0219;0,0666772
916,9861;0,0668295
917,9503;0,0670042
918,9146;0,0672111
919,8788;0,0674579
920,8430;0,0677406
921,8073;0,0680416
922,7715;0,0683353
923,7357;0,068599
924,7000;0,0688208
925,6642;0,0690018
926,6284;0,0691521
927,5927;0,0692854
928,5569;0,0694142
929,5211;0,0695484
930,4854;0,069694
931,4496;0,069853
932,4138;0,0700234
933,3781;0,0702016
934,3423;0,0703868
935,3065;0,0705841
936,2708;0,0708057
937,2350;0,0710677
938,1992;0,0713843
939,1635;0,0717636
940,1277;0,0722065
941,0919;0,0727094
942,0562;0,0732692
943,0204;0,0738857
943,9846;0,0745613
944,9489;0,0752988
945,9131;0,0760984
946,8773;0,0769579
947,8416;0,0778738
948,8058;0,0788446
949,7700;0,0798728
950,7343;0,0809647
951,6985;0,0821284
952,6627;0,0833703
953,6270;0,0846926
954,5912;0,0860915
955,5554;0,0875575
956,5197;0,0890773
957,4839;0,0906362
958,4481;0,0922194
959,4124;0,0938132
960,3766;0,0954067
961,3408;0,0969927
962,3051;0,0985698
963,2693;0,100143
964,2335;0,10172
965,1978;0,103312
966,1620;0,104926
967,1262;0,106568
968,0905;0,108244
969,0547;0,109967
970,0189;0,111756
970,9832;0,113639
971,9474;0,115644
972,9116;0,11779
973,8759;0,120088
974,8401;0,122539
975,8043;0,125145
976,7686;0,127906
977,7328;0,13082
978,6970;0,133867
979,6613;0,137007
980,6255;0,140173
981,5897;0,143285
982,5540;0,146265
983,5182;0,149049
984,4824;0,151602
985,4467;0,153912
986,4109;0,155989
987,3751;0,15785
988,3394;0,159518
989,3036;0,161008
990,2678;0,162331
991,2321;0,163487
992,1963;0,164476
993,1605;0,165303
994,1248;0,165987
995,0890;0,166564
996,0532;0,167075
997,0175;0,167563
997,9817;0,16806
998,9459;0,168586
999,9102;0,169158
1000,8744;0,169788
1001,8386;0,170498
1002,8029;0,17131
1003,7671;0,172251
1004,7313;0,173349
1005,6956;0,17463
1006,6598;0,176118
1007,6240;0,177828
1008,5883;0,179755
1009,5525;0,181868
1010,5167;0,184108
1011,4810;0,186399
1012,4452;0,188668
1013,4094;0,190851
1014,3737;0,192901
1015,3379;0,194782
1016,3021;0,196459
1017,2664;0,197902
1018,2306;0,199086
1019,1948;0,20001
1020,1591;0,200703
1021,1233;0,201215
1022,0875;0,201608
1023,0518;0,201938
1024,0160;0,202238
1024,9802;0,202518
1025,9445;0,202766
1026,9087;0,202957
1027,8729;0,203063
1028,8372;0,203056
1029,8014;0,202903
1030,7656;0,202572
1031,7299;0,202027
1032,6941;0,201239
1033,6583;0,200198
1034,6226;0,198921
1035,5868;0,197464
1036,5510;0,195912
1037,5153;0,194364
1038,4795;0,19291
1039,4437;0,191613
1040,4080;0,190501
1041,3722;0,189571
1042,3364;0,188793
1043,3007;0,188123
1044,2649;0,187504
1045,2291;0,186874
1046,1934;0,186175
1047,1576;0,185363
1048,1218;0,184414
1049,0861;0,183324
1050,0503;0,182098
1051,0145;0,180744
1051,9788;0,179259
1052,9430;0,177644
1053,9072;0,175903
1054,8715;0,174049
1055,8357;0,172101
1056,7999;0,170069
1057,7642;0,167949
1058,7284;0,165722
1059,6926;0,163371
1060,6569;0,160899
1061,6211;0,158336
1062,5853;0,155745
1063,5496;0,153206
1064,5138;0,150794
1065,4780;0,148564
1066,4423;0,14654
1067,4065;0,144713
1068,3707;0,14305
1069,3350;0,141507
1070,2992;0,140037
1071,2634;0,138598
1072,2277;0,137158
1073,1919;0,135689
1074,1561;0,134171
1075,1204;0,132594
1076,0846;0,130958
1077,0488;0,129276
1078,0131;0,127576
1078,9773;0,125892
1079,9415;0,124263
1080,9058;0,122722
1081,8700;0,121299
1082,8342;0,120015
1083,7985;0,118877
1084,7627;0,117881
1085,7269;0,117006
1086,6912;0,116228
1087,6554;0,115526
1088,6196;0,114889
1089,5839;0,114326
1090,5481;0,113853
1091,5123;0,113487
1092,4766;0,113232
1093,4408;0,113078
1094,4050;0,113002
1095,3693;0,11298
1096,3335;0,112991
1097,2977;0,113021
1098,2620;0,113061
1099,2262;0,113106
1100,1904;0,11315
1101,1547;0,113187
1102,1189;0,113205
1103,0831;0,113189
1104,0474;0,113122
1105,0116;0,11299
1105,9758;0,112786
1106,9401;0,11251
1107,9043;0,112168
1108,8685;0,11176
1109,8328;0,111281
1110,7970;0,110708
1111,7612;0,110019
1112,7255;0,109196
1113,6897;0,108246
1114,6539;0,107202
1115,6182;0,106116
1116,5824;0,105047
1117,5466;0,10404
1118,5109;0,103113
1119,4751;0,102251
1120,4393;0,101416
1121,4036;0,100551
1122,3678;0,0996043
1123,3320;0,0985352
1124,2963;0,0973227
1125,2605;0,0959667
1126,2247;0,0944842
1127,1890;0,0929028
1128,1532;0,0912553
1129,1174;0,0895735
1130,0817;0,0878852
1131,0459;0,0862133
1132,0101;0,0845788
1132,9744;0,0830044
1133,9386;0,0815179
1134,9028;0,0801523
1135,8671;0,0789421
1136,8313;0,077917
1137,7955;0,0770961
1138,7598;0,0764851
1139,7240;0,0760772
1140,6882;0,0758565
1141,6525;0,0758012
1142,6167;0,0758869
1143,5809;0,0760882
1144,5452;0,076382
1145,5094;0,0767499
1146,4736;0,0771803
1147,4379;0,0776679
1148,4021;0,0782088
1149,3663;0,0787946
1150,3306;0,0794072
1151,2948;0,0800173
1152,2590;0,0805884
1153,2233;0,0810833
1154,1875;0,0814679
1155,1517;0,0817123
1156,1160;0,0817868
1157,0802;0,0816581
1158,0444;0,0812889
1159,0087;0,0806429
1159,9729;0,0796922
1160,9371;0,0784257
1161,9014;0,0768529
1162,8656;0,0750034
1163,8298;0,0729231
1164,7941;0,07067
1165,7583;0,0683104
1166,7225;0,0659149
1167,6868;0,063554
1168,6510;0,0612907
1169,6152;0,0591735
1170,5795;0,0572308
1171,5437;0,0554722
1172,5079;0,0538924
1173,4722;0,0524798
1174,4364;0,0512221
1175,4006;0,0501096
1176,3649;0,0491352
1177,3291;0,0482926
1178,2933;0,0475738
1179,2576;0,0469687
1180,2218;0,0464645
1181,1860;0,0460476
1182,1503;0,0457059
1183,1145;0,0454316
1184,0787;0,0452227
1185,0430;0,0450818
1186,0072;0,045013
1186,9714;0,0450183
1187,9357;0,0450962
1188,8999;0,0452434
1189,8641;0,0454584
1190,8284;0,0457443
1191,7926;0,0461081
1192,7568;0,0465567
1193,7211;0,0470914
1194,6853;0,0477053
1195,6495;0,0483829
1196,6138;0,0491044
1197,5780;0,0498495
1198,5422;0,0506006
1199,5065;0,0513171
1200,4707;0,0520479
1201,4349;0,0527582
1202,3992;0,0534472
1203,3634;0,0541164
1204,3276;0,0547689
1205,2919;0,0554076
1206,2561;0,0560361
1207,2203;0,0566609
1208,1846;0,0572935
1209,1488;0,0579515
1210,1130;0,0586554
1211,0773;0,0594233
1212,0415;0,0602652
1213,0057;0,0611799
1213,9700;0,0621558
1214,9342;0,0631756
1215,8984;0,0642207
1216,8627;0,0652741
1217,8269;0,0663203
1218,7911;0,0673458
1219,7554;0,0683385
1220,7196;0,0692889
1221,6838;0,070191
1222,6481;0,0710425
1223,6123;0,0718441
1224,5765;0,0725986
1225,5408;0,0733096
1226,5050;0,0739815
1227,4692;0,0746187
1228,4335;0,0752236
1229,3977;0,0757956
1230,3619;0,0763291
1231,3262;0,0768151
1232,2904;0,0772433
1233,2546;0,0776055
1234,2189;0,077899
1235,1831;0,0781277
1236,1473;0,0783008
1237,1116;0,0784307
1238,0758;0,0785293
1239,0400;0,078604
1240,0043;0,0786553
1240,9685;0,078676
1241,9327;0,0786537
1242,8970;0,0785756
1243,8612;0,0784328
1244,8254;0,078224
1245,7897;0,0779549
1246,7539;0,0776361
1247,7181;0,077279
1248,6824;0,0768937
1249,6466;0,0764873
1250,6108;0,0760644
1251,5751;0,075628
1252,5393;0,0751808
1253,5035;0,0747257
1254,4678;0,0742648
1255,4320;0,0737985
1256,3962;0,0733237
1257,3605;0,0728344
1258,3247;0,0723228
1259,2889;0,0717825
1260,2532;0,0712107
1261,2174;0,0706073
1262,1816;0,0699736
1263,1459;0,0693099
1264,1101;0,0686146
1265,0743;0,0678854
1266,0386;0,0671215
1267,0028;0,0663245
1267,9670;0,0654989
1268,9313;0,0646509
1269,8955;0,0637882
1270,8597;0,0629188
1271,8240;0,0620494
1272,7882;0,0611847
1273,7524;0,0603271
1274,7167;0,059479
1275,6809;0,058645
1276,6451;0,0578322
1277,6094;0,0570483
1278,5736;0,0562974
1279,5378;0,0555773
1280,5021;0,0548811
1281,4663;0,0542016
1282,4305;0,0535366
1283,3948;0,0528911
1284,3590;0,0522753
1285,3232;0,051701
1286,2875;0,0511795
1287,2517;0,0507204
1288,2159;0,0503326
1289,1802;0,0500234
1290,1444;0,0497967
1291,1086;0,0496517
1292,0729;0,0495833
1293,0371;0,0495838
1294,0013;0,0496462
1294,9656;0,0497655
1295,9298;0,0499389
1296,8940;0,0501645
1297,8583;0,0504411
1298,8225;0,0507676
1299,7867;0,0511416
1300,7510;0,0515589
1301,7152;0,0520134
1302,6794;0,0524973
1303,6437;0,0530042
1304,6079;0,0535308
1305,5721;0,0540773
1306,5364;0,0546448
1307,5006;0,0552327
1308,4648;0,0558368
1309,4291;0,0564501
1310,3933;0,0570638
1311,3575;0,0576669
1312,3218;0,0582447
1313,2860;0,0587782
1314,2502;0,0592457
1315,2145;0,0596263
1316,1787;0,0599043
1317,1429;0,0600733
1318,1072;0,0601396
1319,0714;0,0601218
1320,0356;0,0600465
1320,9999;0,0599395
1321,9641;0,0598191
1322,9283;0,0596939
1323,8926;0,0595669
1324,8568;0,0594404
1325,8210;0,0593183
1326,7853;0,0592055
1327,7495;0,0591037
1328,7137;0,0590085
1329,6780;0,0589089
1330,6422;0,0587904
1331,6064;0,0586402
1332,5707;0,0584512
1333,5349;0,0582204
1334,4991;0,0579441
1335,4634;0,0576124
1336,4276;0,05721
1337,3918;0,056728
1338,3561;0,0561818
1339,3203;0,0556212
1340,2845;0,0551139
1341,2488;0,0547086
1342,2130;0,0544129
1343,1772;0,0542026
1344,1415;0,0540461
1345,1057;0,0539231
1346,0699;0,0538312
1347,0342;0,0537845
1347,9984;0,0538041
1348,9626;0,0539076
1349,9269;0,0541002
1350,8911;0,0543722
1351,8553;0,0547037
1352,8196;0,0550752
1353,7838;0,055477
1354,7480;0,0559126
1355,7123;0,0563926
1356,6765;0,0569228
1357,6407;0,0574974
1358,6050;0,0581015
1359,5692;0,0587181
1360,5334;0,0593335
1361,4977;0,0599377
1362,4619;0,0605238
1363,4261;0,0610874
1364,3904;0,0616251
1365,3546;0,0621306
1366,3188;0,0625939
1367,2831;0,0630034
1368,2473;0,0633481
1369,2115;0,0636189
1370,1758;0,0638058
1371,1400;0,0638938
1372,1042;0,0638631
1373,0685;0,0636998
1374,0327;0,0634141
1374,9969;0,0630455
1375,9612;0,0626371
1376,9254;0,0621982
1377,8896;0,0616964
1378,8539;0,0610868
1379,8181;0,0603541
1380,7823;0,0595352
1381,7466;0,0586995
1382,7108;0,057902
1383,6750;0,0571457
1384,6393;0,0563866
1385,6035;0,0555776
1386,5677;0,0547266
1387,5320;0,0539193
1388,4962;0,0532644
1389,4604;0,0528081
1390,4247;0,0525135
1391,3889;0,052306
1392,3531;0,0521204
1393,3174;0,051924
1394,2816;0,0517185
1395,2458;0,0515277
1396,2101;0,0513778
1397,1743;0,051284
1398,1385;0,0512532
1399,1028;0,0512909
1400,0670;0,0513999
1401,0313;0,0515738
1401,9955;0,0517951
1402,9597;0,0520433
1403,9240;0,0523051
1404,8882;0,0525813
1405,8524;0,0528843
1406,8167;0,0532266
1407,7809;0,0536113
1408,7451;0,0540332
1409,7094;0,0544879
1410,6736;0,0549761
1411,6378;0,0554987
1412,6021;0,0560487
1413,5663;0,0566066
1414,5305;0,057145
1415,4948;0,0576349
1416,4590;0,0580503
1417,4232;0,0583741
1418,3875;0,058613
1419,3517;0,058802
1420,3159;0,058972
1421,2802;0,059111
1422,2444;0,0591717
1423,2086;0,0591121
1424,1729;0,0589243
1425,1371;0,0586319
1426,1013;0,0582598
1427,0656;0,057805
1428,0298;0,0572405
1428,9940;0,0565568
1429,9583;0,0558055
1430,9225;0,0550838
1431,8867;0,0544619
1432,8510;0,0539239
1433,8152;0,053377
1434,7794;0,0527118
1435,7437;0,0518945
1436,7079;0,0510434
1437,6721;0,0503676
1438,6364;0,0499853
1439,6006;0,0498551
1440,5648;0,0498693
1441,5291;0,0499456
1442,4933;0,0500524
1443,4575;0,0501918
1444,4218;0,0503722
1445,3860;0,0505899
1446,3502;0,0508277
1447,3145;0,0510682
1448,2787;0,0513088
1449,2429;0,051563
1450,2072;0,0518439
1451,1714;0,052147
1452,1356;0,0524465
1453,0999;0,052699
1454,0641;0,0528411
1455,0283;0,0527784
1455,9926;0,0524125
1456,9568;0,0517943
1457,9210;0,0512356
1458,8853;0,0510052
1459,8495;0,0510619
1460,8137;0,0512109
1461,7780;0,0512668
1462,7422;0,05108
1463,7064;0,0505498
1464,6707;0,0496947
1465,6349;0,0486925
1466,5991;0,0477546
1467,5634;0,0469523
1468,5276;0,046197
1469,4918;0,0453163
1470,4561;0,0441162
1471,4203;0,0424506
1472,3845;0,0403675
1473,3488;0,038214
1474,3130;0,0364115
1475,2772;0,035107
1476,2415;0,0341834
1477,2057;0,0334752
1478,1699;0,0328771
1479,1342;0,0323435
1480,0984;0,0318647
1481,0626;0,0314525
1482,0269;0,0311311
1482,9911;0,0309223
1483,9553;0,0308273
1484,9196;0,0308183
1485,8838;0,0308454
1486,8480;0,0308572
1487,8123;0,0308354
1488,7765;0,0308341
1489,7407;0,0309667
1490,7050;0,0313094
1491,6692;0,0318393
1492,6334;0,0324837
1493,5977;0,0331834
1494,5619;0,0339125
1495,5261;0,0346718
1496,4904;0,0354754
1497,4546;0,036337
1498,4188;0,0372574
1499,3831;0,038214
1500,3473;0,0391643
1501,3115;0,0400601
1502,2758;0,0408604
1503,2400;0,0415338
1504,2042;0,042048
1505,1685;0,0423458
1506,1327;0,042346
1507,0969;0,0420763
1508,0612;0,04179
1509,0254;0,0416854
1509,9896;0,0417211
1510,9539;0,0417759
1511,9181;0,0417583
1512,8823;0,0416108
1513,8466;0,0412996
1514,8108;0,0408204
1515,7750;0,0402099
1516,7393;0,0395345
1517,7035;0,0388491
1518,6677;0,0381637
1519,6320;0,0374598
1520,5962;0,0367445
1521,5604;0,0360865
1522,5247;0,0355771
1523,4889;0,0352564
1524,4531;0,0350997
1525,4174;0,0350623
1526,3816;0,0351174
1527,3458;0,0352551
1528,3101;0,0354629
1529,2743;0,0357185
1530,2385;0,0360017
1531,2028;0,0363122
1532,1670;0,0366741
1533,1312;0,0371172
1534,0955;0,0376419
1535,0597;0,0382078
1536,0239;0,0387576
1536,9882;0,0392405
1537,9524;0,039606
1538,9166;0,0397749
1539,8809;0,0396447
1540,8451;0,0392418
1541,8093;0,0388309
1542,7736;0,038616
1543,7378;0,0385613
1544,7020;0,0385622
1545,6663;0,0385622
1546,6305;0,0385491
1547,5947;0,0385217
1548,5590;0,0384709
1549,5232;0,0383832
1550,4874;0,0382603
1551,4517;0,0381332
1552,4159;0,0380504
1553,3801;0,0380434
1554,3444;0,0380987
1555,3086;0,0381523
1556,2728;0,0380854
1557,2371;0,037735
1558,2013;0,0370552
1559,1655;0,0363994
1560,1298;0,0362004
1561,0940;0,0364409
1562,0582;0,036884
1563,0225;0,0373614
1563,9867;0,0377957
1564,9509;0,0381546
1565,9152;0,038423
1566,8794;0,0385986
1567,8436;0,0387076
1568,8079;0,0388177
1569,7721;0,0390117
1570,7363;0,0393268
1571,7006;0,039732
1572,6648;0,0401628
1573,6290;0,0405616
1574,5933;0,0408979
1575,5575;0,0411835
1576,5217;0,0414828
1577,4860;0,0418753
1578,4502;0,0423855
1579,4144;0,0429756
1580,3787;0,043594
1581,3429;0,0442059
1582,3071;0,0447995
1583,2714;0,0453816
1584,2356;0,0459712
1585,1998;0,0465871
1586,1641;0,0472348
1587,1283;0,0479019
1588,0925;0,048562
1589,0568;0,0491851
1590,0210;0,0497455
1590,9852;0,0502228
1591,9495;0,050599
1592,9137;0,0508566
1593,8779;0,0509866
1594,8422;0,0509989
1595,8064;0,0509244
1596,7706;0,0508029
1597,7349;0,0506667
1598,6991;0,0505331
1599,6633;0,0504079
1600,6276;0,0502948
1601,5918;0,0502026
1602,5560;0,0501447
1603,5203;0,0501324
1604,4845;0,0501663
1605,4487;0,0502343
1606,4130;0,0503183
1607,3772;0,0504081
1608,3414;0,0505132
1609,3057;0,050661
1610,2699;0,0508755
1611,2341;0,0511551
1612,1984;0,0514705
1613,1626;0,0517816
1614,1268;0,0520564
1615,0911;0,0522877
1616,0553;0,0525079
1617,0195;0,0527774
1617,9838;0,0531336
1618,9480;0,0535593
1619,9122;0,0540101
1620,8765;0,0544499
1621,8407;0,0548616
1622,8049;0,0552407
1623,7692;0,0555911
1624,7334;0,0559226
1625,6976;0,056248
1626,6619;0,0565797
1627,6261;0,0569268
1628,5903;0,0572931
1629,5546;0,0576719
1630,5188;0,0580455
1631,4830;0,0583874
1632,4473;0,058665
1633,4115;0,0588386
1634,3757;0,0588716
1635,3400;0,0587785
1636,3042;0,0586747
1637,2684;0,0586905
1638,2327;0,0588402
1639,1969;0,0590528
1640,1611;0,0592628
1641,1254;0,059439
1642,0896;0,0595703
1643,0538;0,0596393
1644,0181;0,0596018
1644,9823;0,059394
1645,9465;0,0590062
1646,9108;0,0585709
1647,8750;0,0582777
1648,8392;0,0581784
1649,8035;0,0581595
1650,7677;0,0580123
1651,7319;0,0574678
1652,6962;0,0563526
1653,6604;0,0549909
1654,6246;0,0540243
1655,5889;0,0536002
1656,5531;0,053447
1657,5173;0,0533127
1658,4816;0,0530605
1659,4458;0,0526202
1660,4100;0,0519613
1661,3743;0,0511184
1662,3385;0,0502228
1663,3027;0,0494424
1664,2670;0,0488561
1665,2312;0,0484085
1666,1954;0,0479612
1667,1597;0,0473567
1668,1239;0,0464872
1669,0881;0,0453887
1670,0524;0,0442715
1671,0166;0,0433537
1671,9808;0,0426631
1672,9451;0,0420575
1673,9093;0,0413778
1674,8735;0,0405723
1675,8378;0,0397349
1676,8020;0,0390264
1677,7662;0,0385356
1678,7305;0,0382267
1679,6947;0,0379836
1680,6589;0,0376526
1681,6232;0,0370504
1682,5874;0,0360133
1683,5516;0,0345948
1684,5159;0,0331987
1685,4801;0,0322137
1686,4443;0,0316414
1687,4086;0,0312697
1688,3728;0,0309319
1689,3370;0,0305731
1690,3013;0,0302128
1691,2655;0,0298872
1692,2297;0,0296064
1693,1940;0,0293427
1694,1582;0,0290468
1695,1224;0,0286745
1696,0867;0,02821
1697,0509;0,0276697
1698,0151;0,0270913
1698,9794;0,0265335
1699,9436;0,0260818
1700,9078;0,0258179
1701,8721;0,0257656
1702,8363;0,0258792
1703,8005;0,0260826
1704,7648;0,0263119
1705,7290;0,0265409
1706,6932;0,0267845
1707,6575;0,0270786
1708,6217;0,0274486
1709,5859;0,0278938
1710,5502;0,028394
1711,5144;0,0289208
1712,4786;0,0294432
1713,4429;0,0299289
1714,4071;0,0303488
1715,3713;0,0306903
1716,3356;0,0309837
1717,2998;0,0313095
1718,2640;0,0317395
1719,2283;0,0322731
1720,1925;0,0328578
1721,1567;0,0334404
1722,1210;0,0339868
1723,0852;0,0344794
1724,0494;0,0349133
1725,0137;0,0352941
1725,9779;0,0356353
1726,9421;0,0359523
1727,9064;0,0362518
1728,8706;0,0365234
1729,8348;0,0367304
1730,7991;0,0368032
1731,7633;0,0366503
1732,7275;0,0362229
1733,6918;0,0356187
1734,6560;0,0350579
1735,6202;0,0346802
1736,5845;0,0344425
1737,5487;0,0342076
1738,5129;0,0338513
1739,4772;0,0333172
1740,4414;0,032635
1741,4056;0,0318955
1742,3699;0,0311821
1743,3341;0,0305168
1744,2983;0,0298683
1745,2626;0,0291898
1746,2268;0,0284355
1747,1910;0,0275548
1748,1553;0,0265006
1749,1195;0,0252823
1750,0837;0,0240193
1751,0480;0,0228877
1752,0122;0,021987
1752,9764;0,0212848
1753,9407;0,020674
1754,9049;0,0200549
1755,8691;0,0193851
1756,8334;0,0186839
1757,7976;0,0179951
1758,7618;0,0173358
1759,7261;0,0166793
1760,6903;0,0159927
1761,6545;0,0152885
1762,6188;0,0146327
1763,5830;0,0140925
1764,5472;0,0136824
1765,5115;0,0133607
1766,4757;0,0130658
1767,4399;0,0127487
1768,4042;0,0123841
1769,3684;0,0119622
1770,3326;0,0114804
1771,2969;0,0109576
1772,2611;0,0104595
1773,2253;0,0100813
1774,1896;0,00987774
1775,1538;0,0098239
1776,1180;0,00984305
1777,0823;0,00985421
1778,0465;0,00980328
1779,0107;0,00967711
1779,9750;0,00950175
1780,9392;0,00932055
1781,9034;0,00916415
1782,8677;0,00903897
1783,8319;0,00894189
1784,7961;0,00887876
1785,7604;0,00886425
1786,7246;0,00890425
1787,6888;0,00898005
1788,6531;0,00904718
1789,6173;0,00904714
1790,5815;0,00893167
1791,5458;0,00870232
1792,5100;0,00843595
1793,4742;0,00823895
1794,4385;0,00816056
1795,4027;0,00817056
1796,3669;0,00820377
1797,3312;0,00820369
1798,2954;0,0081426
1799,2596;0,00802745
1800,2239;0,00789384
1801,1881;0,00778524
1802,1523;0,00772813
1803,1166;0,00772347
1804,0808;0,0077565
1805,0450;0,00780887
1806,0093;0,00786277
1806,9735;0,00789967
1807,9377;0,00790064
1808,9020;0,00785289
1809,8662;0,00776024
1810,8304;0,00764717
1811,7947;0,00754706
1812,7589;0,00748168
1813,7231;0,00745062
1814,6874;0,0074382
1815,6516;0,00742917
1816,6158;0,00742099
1817,5801;0,00742494
1818,5443;0,00745438
1819,5085;0,00750876
1820,4728;0,00756807
1821,4370;0,00760292
1822,4012;0,00759269
1823,3655;0,00754019
1824,3297;0,00747182
1825,2939;0,00741835
1826,2582;0,00738927
1827,2224;0,00736441
1828,1866;0,00731232
1829,1509;0,00722241
1830,1151;0,00712431
1831,0793;0,00706919
1832,0436;0,0070857
1833,0078;0,00715741
1833,9720;0,00723892
1834,9363;0,00728688
1835,9005;0,00728484
1836,8647;0,0072526
1837,8290;0,00723144
1838,7932;0,00725128
1839,7574;0,007307
1840,7217;0,00736155
1841,6859;0,00736684
1842,6501;0,00729128
1843,6144;0,00714742
1844,5786;0,00699691
1845,5428;0,00690836
1846,5071;0,00690382
1847,4713;0,0069546
1848,4355;0,00701664
1849,3998;0,00706058
1850,3640;0,00708037
1851,3282;0,007086
1852,2925;0,0070899
1853,2567;0,00709716
1854,2209;0,00710539
1855,1852;0,00711193
1856,1494;0,00711989
1857,1136;0,0071367
1858,0779;0,00716668
1859,0421;0,00720489
1860,0063;0,00723888
1860,9706;0,00725763
1861,9348;0,0072597
1862,8990;0,00725305
1863,8633;0,007247
1864,8275;0,00724326
1865,7917;0,0072328
1866,7560;0,00720074
1867,7202;0,00713928
1868,6844;0,0070605
1869,6487;0,00699231
1870,6129;0,00695597
1871,5771;0,00695121
1872,5414;0,00696313
1873,5056;0,00697775
1874,4698;0,00699168
1875,4341;0,00701188
1876,3983;0,00704748
1877,3625;0,00709941
1878,3268;0,00715639
1879,2910;0,00720084
1880,2552;0,00721976
1881,2195;0,00721243
1882,1837;0,00719001
1883,1479;0,00716826
1884,1122;0,00715947
1885,0764;0,00716911
1886,0406;0,00719764
1887,0049;0,00724242
1887,9691;0,00729559
1888,9333;0,00734038
1889,8976;0,00735351
1890,8618;0,00731695
1891,8260;0,00723148
1892,7903;0,007121
1893,7545;0,00702508
1894,7188;0,00698279
1895,6830;0,00701352
1896,6472;0,00710493
1897,6115;0,00721855
1898,5757;0,00731042
1899,5399;0,0073518
1900,5042;0,00733778
1901,4684;0,00728391
1902,4326;0,00721638
1903,3969;0,00716127
1904,3611;0,00713639
1905,3253;0,00714775
1906,2896;0,00718979
1907,2538;0,00724785
1908,2180;0,0073029
1909,1823;0,00733912
1910,1465;0,0073516
1911,1107;0,00734827
1912,0750;0,00734363
1913,0392;0,00734993
1914,0034;0,00737288
1914,9677;0,00741271
1915,9319;0,00746686
1916,8961;0,00753043
1917,8604;0,00759435
1918,8246;0,00764438
1919,7888;0,00766428
1920,7531;0,00764283
1921,7173;0,00758101
1922,6815;0,00749559
1923,6458;0,00741498
1924,6100;0,00736698
1925,5742;0,00736538
1926,5385;0,00740522
1927,5027;0,00746876
1928,4669;0,00753516
1929,4312;0,00758777
1930,3954;0,0076177
1931,3596;0,00762435
1932,3239;0,00761341
1933,2881;0,00759344
1934,2523;0,00757269
1935,2166;0,00755813
1936,1808;0,00755712
1937,1450;0,00758008
1938,1093;0,00764084
1939,0735;0,00775133
1940,0377;0,00791039
1941,0020;0,00809168
1941,9662;0,00824287
1942,9304;0,0083071
1943,8947;0,00825823
1944,8589;0,00812056
1945,8231;0,00795627
1946,7874;0,00783463
1947,7516;0,00780491
1948,7158;0,00788274
1949,6801;0,00804962
1950,6443;0,00826185
1951,6085;0,0084636
1952,5728;0,00859886
1953,5370;0,0086222
1954,5012;0,00851156
1955,4655;0,00828248
1956,4297;0,00799547
1957,3939;0,00774653
1958,3582;0,00763744
1959,3224;0,0077341
1960,2866;0,0080319
1961,2509;0,0084506
1962,2151;0,0088668
1963,1793;0,00916502
1964,1436;0,00927796
1965,1078;0,00920151
1966,0720;0,0089873
1967,0363;0,00871868
1968,0005;0,00847585
1968,9647;0,00830536
1969,9290;0,00821298
1970,8932;0,00818408
1971,8574;0,00821481
1972,8217;0,00833178
1973,7859;0,00858352
1974,7501;0,00900132
1975,7144;0,00954918
1976,6786;0,0101033
1977,6428;0,010495
1978,6071;0,0106
1979,5713;0,0104084
1980,5355;0,0100231
1981,4998;0,00959764
1982,4640;0,00926529
1983,4282;0,00909488
1984,3925;0,00908371
1985,3567;0,00918028
1986,3209;0,00932195
1987,2852;0,00946788
1988,2494;0,00961028
1989,2136;0,00976095
1990,1779;0,00992426
1991,1421;0,0100755
1992,1063;0,0101626
1993,0706;0,0101351
1994,0348;0,00998026
1994,9990;0,00974027
1995,9633;0,00949841
1996,9275;0,00934446
1997,8917;0,00933532
1998,8560;0,00946907
1999,8202;0,00968705
2000,7844;0,00990583
2001,7487;0,0100601
2002,7129;0,0101301
2003,6771;0,0101411
2004,6414;0,0101418
2005,6056;0,0101771
2006,5698;0,010268
2007,5341;0,0104058
2008,4983;0,0105612
2009,4625;0,0107009
2010,4268;0,0108057
2011,3910;0,0108786
2012,3552;0,0109419
2013,3195;0,0110218
2014,2837;0,0111293
2015,2479;0,011249
2016,2122;0,0113472
2017,1764;0,0113967
2018,1406;0,0114017
2019,1049;0,0114002
2020,0691;0,0114424
2021,0333;0,0115609
2021,9976;0,0117526
2022,9618;0,0119779
2023,9260;0,0121711
2024,8903;0,012255
2025,8545;0,0121603
2026,8187;0,0118544
2027,7830;0,0113749
2028,7472;0,0108475
2029,7114;0,0104619
2030,6757;0,0103986
2031,6399;0,0107339
2032,6041;0,0113818
2033,5684;0,0121231
2034,5326;0,0127158
2035,4968;0,0130194
2036,4611;0,0130457
2037,4253;0,0129124
2038,3895;0,0127469
2039,3538;0,0126135
2040,3180;0,0125025
2041,2822;0,0123716
2042,2465;0,0121987
2043,2107;0,0120047
2044,1749;0,0118381
2045,1392;0,0117409
2046,1034;0,0117234
2047,0676;0,0117608
2048,0320;0,0118068
2048,9961;0,011813
2049,9604;0,0117439
2050,9246;0,0115849
2051,8889;0,0113455
2052,8530;0,0110619
2053,8174;0,0107903
2054,7815;0,0105904
2055,7458;0,0105007
2056,7100;0,0105199
2057,6743;0,010609
2058,6384;0,0107114
2059,6028;0,0107804
2060,5669;0,0107951
2061,5313;0,0107601
2062,4954;0,010696
2063,4597;0,0106282
2064,4238;0,0105806
2065,3882;0,010571
2066,3523;0,0106064
2067,3167;0,0106769
2068,2808;0,0107561
2069,2451;0,0108105
2070,2092;0,0108162
2071,1736;0,0107735
2072,1377;0,0107083
2073,1021;0,0106565
2074,0662;0,0106414
2075,0305;0,0106578
2075,9946;0,0106773
2076,9590;0,0106681
2077,9231;0,0106165
2078,8875;0,0105344
2079,8516;0,0104466
2080,8159;0,0103721
2081,7800;0,0103136
2082,7444;0,0102638
2083,7085;0,0102215
2084,6729;0,0102013
2085,6370;0,0102262
2086,6013;0,0103055
2087,5654;0,0104184
2088,5298;0,0105172
2089,4939;0,0105552
2090,4583;0,0105181
2091,4224;0,0104381
2092,3867;0,0103773
2093,3508;0,0103906
2094,3152;0,0104915
2095,2793;0,0106456
2096,2437;0,0107942
2097,2078;0,0108908
2098,1721;0,0109243
2099,1362;0,0109149
2100,1006;0,0108914
2101,0647;0,0108705
2102,0291;0,0108497
2102,9932;0,010815
2103,9575;0,0107531
2104,9216;0,0106614
2105,8860;0,0105527
2106,8501;0,0104527
2107,8145;0,0103929
2108,7786;0,0103971
2109,7429;0,0104657
2110,7070;0,0105689
2111,6714;0,0106546
2112,6355;0,0106738
2113,5999;0,0106079
2114,5640;0,010482
2115,5283;0,010352
2116,4924;0,0102744
2117,4568;0,0102757
2118,4209;0,010341
2119,3853;0,0104271
2120,3494;0,010491
2121,3137;0,0105132
2122,2778;0,0105031
2123,2422;0,0104835
2124,2063;0,0104703
2125,1707;0,0104601
2126,1348;0,0104354
2127,0991;0,0103827
2128,0632;0,0103081
2129,0276;0,0102423
2129,9917;0,0102295
2130,9561;0,0103077
2131,9202;0,0104913
2132,8845;0,0107627
2133,8486;0,0110761
2134,8130;0,0113718
2135,7771;0,0115956
2136,7415;0,0117155
2137,7056;0,0117296
2138,6699;0,0116655
2139,6340;0,011571
2140,5984;0,0115004
2141,5625;0,0114995
2142,5269;0,0115924
2143,4910;0,0117756
2144,4553;0,0120228
2145,4194;0,0122984
2146,3838;0,012572
2147,3479;0,0128275
2148,3123;0,0130603
2149,2764;0,0132687
2150,2407;0,0134453
2151,2048;0,0135778
2152,1692;0,0136592
2153,1333;0,0137004
2154,0977;0,0137336
2155,0618;0,0138017
2156,0261;0,0139344
2156,9902;0,0141252
2157,9546;0,0143302
2158,9187;0,0144978
2159,8831;0,0146106
2160,8472;0,0146931
2161,8115;0,0147759
2162,7756;0,0148565
2163,7400;0,0148929
2164,7041;0,0148344
2165,6685;0,0146622
2166,6326;0,0144109
2167,5969;0,0141519
2168,5610;0,0139518
2169,5254;0,0138354
2170,4895;0,0137797
2171,4539;0,0137356
2172,4180;0,0136597
2173,3823;0,013535
2174,3464;0,0133714
2175,3108;0,013193
2176,2749;0,0130249
2177,2393;0,0128884
2178,2034;0,012798
2179,1677;0,0127562
2180,1318;0,0127453
2181,0962;0,0127272
2182,0603;0,0126616
2183,0247;0,0125356
2183,9888;0,0123809
2184,9531;0,0122607
2185,9172;0,0122297
2186,8816;0,0122959
2187,8457;0,0124111
2188,8101;0,0124992
2189,7742;0,0125005
2190,7385;0,0124046
2191,7026;0,0122478
2192,6670;0,0120833
2193,6311;0,0119475
2194,5955;0,011848
2195,5596;0,0117769
2196,5239;0,0117333
2197,4880;0,0117326
2198,4524;0,0117923
2199,4165;0,0119066
2200,3809;0,0120335
2201,3450;0,0121075
2202,3093;0,012074
2203,2734;0,0119222
2204,2378;0,0116947
2205,2019;0,0114666
2206,1663;0,0113082
2207,1304;0,0112522
2208,0947;0,0112843
2209,0588;0,0113581
2210,0232;0,0114232
2210,9873;0,0114486
2211,9517;0,0114321
2212,9158;0,0113922
2213,8801;0,0113518
2214,8442;0,0113238
2215,8086;0,0113058
2216,7727;0,0112859
2217,7371;0,0112537
2218,7012;0,0112092
2219,6655;0,0111645
2220,6296;0,0111374
2221,5940;0,0111421
2222,5581;0,0111811
2223,5225;0,0112428
2224,4866;0,0113047
2225,4509;0,0113413
2226,4150;0,0113329
2227,3794;0,011273
2228,3435;0,0111712
2229,3079;0,0110488
2230,2720;0,0109289
2231,2363;0,0108256
2232,2004;0,01074
2233,1648;0,0106654
2234,1289;0,0105989
2235,0933;0,0105485
2236,0574;0,0105306
2237,0217;0,0105579
2237,9858;0,010627
2238,9502;0,0107149
2239,9143;0,0107892
2240,8787;0,0108231
2241,8428;0,010806
2242,8071;0,0107433
2243,7712;0,010648
2244,7356;0,0105344
2245,6997;0,0104175
2246,6641;0,0103162
2247,6282;0,0102538
2248,5925;0,0102494
2249,5566;0,0103047
2250,5210;0,0103972
2251,4851;0,0104865
2252,4495;0,0105333
2253,4136;0,0105184
2254,3779;0,0104515
2255,3420;0,0103615
2256,3064;0,0102777
2257,2705;0,0102123
2258,2349;0,0101579
2259,1990;0,0100972
2260,1633;0,010018
2261,1274;0,00992283
2262,0918;0,00983001
2263,0559;0,0097653
2264,0203;0,00975082
2264,9844;0,00979507
2265,9487;0,0098879
2266,9128;0,010002
2267,8772;0,0101012
2268,8413;0,010154
2269,8057;0,0101459
2270,7698;0,0100858
2271,7341;0,0100009
2272,6982;0,00992243
2273,6626;0,00986953
2274,6267;0,00984165
2275,5911;0,00982333
2276,5552;0,00979815
2277,5195;0,00976183
2278,4836;0,00972549
2279,4480;0,00970773
2280,4121;0,0097219
2281,3765;0,00976787
2282,3406;0,00983327
2283,3049;0,0099016
2284,2690;0,00996041
2285,2334;0,0100042
2286,1975;0,0100314
2287,1619;0,0100402
2288,1260;0,0100273
2289,0903;0,00999062
2290,0544;0,00993481
2291,0188;0,00987305
2291,9829;0,00982371
2292,9473;0,00980277
2293,9114;0,00981669
2294,8757;0,00985999
2295,8398;0,00991901
2296,8042;0,00997906
2297,7683;0,0100304
2298,7327;0,0100698
2299,6968;0,0100978
2300,6611;0,0101151
2301,6252;0,0101204
2302,5896;0,0101124
2303,5537;0,0100925
2304,5181;0,0100669
2305,4822;0,0100446
2306,4465;0,0100344
2307,4106;0,0100403
2308,3750;0,0100605
2309,3391;0,0100888
2310,3035;0,0101187
2311,2676;0,010146
2312,2319;0,0101701
2313,1960;0,0101921
2314,1604;0,0102136
2315,1245;0,010236
2316,0889;0,0102612
2317,0530;0,010293
2318,0173;0,0103349
2318,9814;0,010386
2319,9458;0,0104357
2320,9099;0,0104628
2321,8743;0,0104432
2322,8384;0,0103636
2323,8027;0,0102306
2324,7668;0,0100693
2325,7312;0,00991378
2326,6953;0,00979633
2327,6597;0,00973618
2328,6238;0,0097309
2329,5881;0,0097551
2330,5522;0,00977299
2331,5166;0,00976043
2332,4807;0,00971895
2333,4451;0,00966922
2334,4092;0,00963085
2335,3735;0,00960577
2336,3376;0,0095763
2337,3020;0,00951753
2338,2661;0,00941488
2339,2305;0,0092731
2340,1946;0,00910971
2341,1589;0,0089423
2342,1230;0,00878692
2343,0874;0,00867267
2344,0515;0,00865083
2345,0159;0,00876767
2345,9800;0,0090197
2346,9443;0,00934762
2347,9084;0,00967188
2348,8728;0,00992822
2349,8369;0,0100836
2350,8013;0,010138
2351,7654;0,0101207
2352,7297;0,0100803
2353,6938;0,0100677
2354,6582;0,010112
2355,6223;0,0102002
2356,5867;0,0102786
2357,5508;0,0102786
2358,5151;0,0101569
2359,4792;0,00992875
2360,4436;0,00966512
2361,4077;0,00944867
2362,3721;0,00932326
2363,3362;0,00927528
2364,3005;0,00925308
2365,2646;0,00920463
2366,2290;0,00910808
2367,1931;0,00897792
2368,1575;0,00884819
2369,1216;0,00874802
2370,0859;0,00868606
2371,0500;0,00865163
2372,0144;0,00862881
2372,9785;0,00861138
2373,9429;0,00860799
2374,9070;0,00863532
2375,8713;0,00870555
2376,8354;0,00881731
2377,7998;0,00895538
2378,7639;0,00909793
2379,7283;0,00922568
2380,6924;0,00932774
2381,6567;0,00940252
2382,6208;0,00945511
2383,5852;0,00949387
2384,5493;0,00952756
2385,5137;0,00956308
2386,4778;0,00960342
2387,4421;0,00964639
2388,4063;0,00968525
2389,3706;0,00971195
2390,3347;0,00972172
2391,2991;0,00971617
2392,2632;0,00970263
2393,2275;0,00969001
2394,1917;0,00968434
2395,1560;0,00968728
2396,1201;0,00969826
2397,0845;0,00971757
2398,0486;0,00974682
2399,0129;0,00978565
2399,9771;0,00982832
2400,9414;0,00986402
2401,9055;0,0098823
2402,8699;0,00988036
2403,8340;0,00986636
2404,7983;0,00985535
2405,7625;0,00986032
2406,7268;0,0098846
2407,6909;0,0099216
2408,6553;0,00996175
2409,6194;0,010001
2410,5837;0,0100441
2411,5479;0,0101001
2412,5122;0,010173
2413,4763;0,0102556
2414,4407;0,0103298
2415,4048;0,0103757
2416,3691;0,0103827
2417,3333;0,0103563
2418,2976;0,010317
2419,2617;0,0102904
2420,2261;0,0102961
2421,1902;0,0103378
2422,1545;0,0104037
2423,1187;0,0104733
2424,0830;0,0105282
2425,0471;0,0105603
2426,0115;0,010573
2426,9756;0,0105758
2427,9399;0,0105768
2428,9041;0,0105779
2429,8684;0,0105773
2430,8325;0,0105745
2431,7969;0,0105749
2432,7610;0,0105882
2433,7253;0,0106231
2434,6895;0,0106797
2435,6538;0,0107488
2436,6179;0,0108154
2437,5823;0,0108664
2438,5464;0,0108961
2439,5107;0,0109069
2440,4749;0,0109059
2441,4392;0,010901
2442,4033;0,0108989
2443,3677;0,0109051
2444,3318;0,0109241
2445,2961;0,0109577
2446,2603;0,0110039
2447,2246;0,011056
2448,1887;0,011105
2449,1531;0,0111438
2450,1172;0,0111703
2451,0815;0,0111876
2452,0457;0,0112013
2453,0100;0,0112168
2453,9741;0,0112365
2454,9385;0,0112593
2455,9026;0,0112816
2456,8669;0,0112986
2457,8311;0,0113058
2458,7954;0,0113019
2459,7595;0,0112895
2460,7239;0,0112756
2461,6880;0,0112687
2462,6523;0,0112753
2463,6165;0,0112978
2464,5808;0,0113344
2465,5449;0,0113808
2466,5093;0,0114329
2467,4734;0,0114867
2468,4377;0,0115373
2469,4019;0,0115791
2470,3662;0,0116067
2471,3303;0,0116178
2472,2947;0,0116158
2473,2588;0,0116091
2474,2231;0,0116073
2475,1873;0,0116172
2476,1516;0,0116409
2477,1157;0,0116766
2478,0801;0,0117203
2479,0442;0,0117681
2480,0085;0,0118159
2480,9727;0,0118583
2481,9370;0,011889
2482,9011;0,0119028
2483,8655;0,0118979
2484,8296;0,0118783
2485,7939;0,0118521
2486,7581;0,011829
2487,7224;0,0118167
2488,6865;0,0118186
2489,6509;0,0118343
2490,6150;0,0118618
2491,5793;0,0118982
2492,5435;0,0119402
2493,5078;0,0119832
2494,4719;0,0120209
2495,4363;0,0120466
2496,4004;0,0120567
2497,3647;0,0120518
2498,3289;0,0120373
2499,2932;0,0120201
2500,2573;0,0120063
2501,2217;0,0119995
2502,1858;0,0120025
2503,1501;0,0120184
2504,1143;0,0120499
2505,0786;0,0120963
2506,0427;0,012151
2507,0071;0,0122014
2507,9712;0,0122346
2508,9355;0,0122438
2509,8997;0,0122332
2510,8640;0,0122155
2511,8281;0,0122065
2512,7925;0,0122171
2513,7566;0,0122497
2514,7209;0,0122977
2515,6851;0,0123487
2516,6494;0,012388
2517,6135;0,0124032
2518,5779;0,0123886
2519,5420;0,0123491
2520,5063;0,012301
2521,4705;0,0122669
2522,4348;0,0122656
2523,3989;0,0123023
2524,3633;0,0123649
2525,3274;0,01243
2526,2917;0,0124749
2527,2559;0,0124886
2528,2202;0,0124748
2529,1843;0,0124468
2530,1487;0,0124183
2531,1128;0,012396
2532,0771;0,0123803
2533,0413;0,0123688
2534,0056;0,0123614
2534,9697;0,0123612
2535,9341;0,0123718
2536,8982;0,0123937
2537,8625;0,012423
2538,8267;0,0124536
2539,7910;0,0124802
2540,7551;0,0125009
2541,7195;0,0125165
2542,6836;0,0125288
2543,6479;0,0125378
2544,6121;0,012542
2545,5764;0,0125404
2546,5405;0,012535
2547,5049;0,0125322
2548,4690;0,0125404
2549,4333;0,0125666
2550,3975;0,0126118
2551,3618;0,0126698
2552,3259;0,012729
2553,2903;0,0127773
2554,2544;0,0128072
2555,2188;0,0128189
2556,1829;0,0128196
2557,1472;0,0128198
2558,1113;0,0128275
2559,0757;0,0128442
2560,0398;0,0128645
2561,0042;0,012879
2561,9683;0,0128798
2562,9326;0,0128648
2563,8967;0,012838
2564,8611;0,0128073
2565,8252;0,0127806
2566,7896;0,0127636
2567,7537;0,0127596
2568,7180;0,0127706
2569,6821;0,012797
2570,6465;0,0128352
2571,6106;0,0128768
2572,5750;0,0129106
2573,5391;0,0129278
2574,5034;0,0129273
2575,4675;0,0129169
2576,4319;0,0129088
2577,3960;0,0129123
2578,3604;0,012929
2579,3245;0,0129536
2580,2888;0,0129794
2581,2529;0,0130027
2582,2173;0,0130242
2583,1814;0,0130464
2584,1458;0,0130703
2585,1099;0,0130949
2586,0742;0,0131189
2587,0383;0,0131425
2588,0027;0,013167
2588,9668;0,0131924
2589,9312;0,0132161
2590,8953;0,0132342
2591,8596;0,0132458
2592,8237;0,0132552
2593,7881;0,0132706
2594,7522;0,0132994
2595,7166;0,0133428
2596,6807;0,0133938
2597,6450;0,0134403
2598,6091;0,0134706
2599,5735;0,0134788
2600,5376;0,0134664
2601,5020;0,0134422
2602,4661;0,0134187
2603,4304;0,0134082
2604,3945;0,0134191
2605,3589;0,0134533
2606,3230;0,0135056
2607,2874;0,0135654
2608,2515;0,0136211
2609,2158;0,0136639
2610,1799;0,0136908
2611,1443;0,0137041
2612,1084;0,0137095
2613,0728;0,0137126
2614,0369;0,0137171
2615,0012;0,0137253
2615,9653;0,0137386
2616,9297;0,0137586
2617,8938;0,0137861
2618,8582;0,0138196
2619,8223;0,0138541
2620,7866;0,0138822
2621,7507;0,0138978
2622,7151;0,0139003
2623,6792;0,0138967
2624,6436;0,0138991
2625,6077;0,0139193
2626,5720;0,0139611
2627,5361;0,0140181
2628,5005;0,0140763
2629,4646;0,0141219
2630,4290;0,0141492
2631,3931;0,0141623
2632,3574;0,0141723
2633,3215;0,0141893
2634,2859;0,0142169
2635,2500;0,0142517
2636,2144;0,0142875
2637,1785;0,0143206
2638,1428;0,0143521
2639,1069;0,0143858
2640,0713;0,014424
2641,0354;0,0144643
2641,9998;0,0145011
2642,9639;0,0145284
2643,9282;0,0145445
2644,8923;0,0145529
2645,8567;0,0145602
2646,8208;0,014573
2647,7852;0,0145947
2648,7493;0,0146251
2649,7136;0,0146616
2650,6777;0,0147011
2651,6421;0,0147404
2652,6062;0,0147768
2653,5706;0,0148079
2654,5347;0,0148324
2655,4990;0,0148508
2656,4631;0,0148657
2657,4275;0,0148803
2658,3916;0,0148965
2659,3560;0,014914
2660,3201;0,0149304
2661,2844;0,014944
2662,2485;0,0149548
2663,2129;0,014966
2664,1770;0,0149813
2665,1414;0,0150036
2666,1055;0,0150333
2667,0698;0,0150686
2668,0339;0,0151066
2668,9983;0,0151449
2669,9624;0,015181
2670,9268;0,0152126
2671,8909;0,0152375
2672,8552;0,0152546
2673,8193;0,0152655
2674,7837;0,0152742
2675,7478;0,0152858
2676,7122;0,0153042
2677,6763;0,0153311
2678,6406;0,0153663
2679,6047;0,0154085
2680,5691;0,015456
2681,5332;0,0155069
2682,4976;0,0155584
2683,4617;0,0156068
2684,4260;0,0156489
2685,3901;0,0156837
2686,3545;0,0157132
2687,3186;0,0157408
2688,2830;0,0157698
2689,2471;0,0158019
2690,2114;0,0158367
2691,1755;0,015873
2692,1399;0,0159096
2693,1040;0,0159461
2694,0684;0,0159826
2695,0325;0,0160196
2695,9968;0,0160571
2696,9609;0,0160952
2697,9253;0,0161341
2698,8894;0,0161734
2699,8538;0,0162129
2700,8179;0,0162525
2701,7822;0,0162922
2702,7463;0,0163319
2703,7107;0,0163714
2704,6748;0,0164095
2705,6392;0,0164452
2706,6033;0,0164784
2707,5676;0,0165112
2708,5317;0,0165473
2709,4961;0,0165901
2710,4602;0,0166409
2711,4246;0,0166975
2712,3887;0,0167552
2713,3530;0,0168095
2714,3171;0,016858
2715,2815;0,0169009
2716,2456;0,01694
2717,2100;0,0169768
2718,1741;0,0170112
2719,1384;0,0170422
2720,1025;0,0170686
2721,0669;0,0170904
2722,0310;0,0171089
2722,9954;0,0171262
2723,9595;0,0171447
2724,9238;0,0171672
2725,8879;0,0171964
2726,8523;0,0172345
2727,8164;0,0172819
2728,7808;0,0173365
2729,7449;0,0173934
2730,7092;0,0174466
2731,6733;0,0174913
2732,6377;0,0175255
2733,6018;0,0175495
2734,5662;0,0175653
2735,5303;0,0175747
2736,4946;0,0175792
2737,4587;0,0175813
2738,4231;0,0175855
2739,3872;0,0175978
2740,3516;0,0176241
2741,3157;0,0176666
2742,2800;0,017722
2743,2441;0,0177818
2744,2085;0,0178352
2745,1726;0,0178735
2746,1370;0,0178933
2747,1011;0,0178983
2748,0654;0,0178968
2749,0295;0,0178986
2749,9939;0,0179112
2750,9580;0,0179374
2751,9224;0,0179758
2752,8865;0,0180222
2753,8508;0,0180722
2754,8149;0,0181231
2755,7793;0,0181735
2756,7434;0,0182229
2757,7078;0,0182703
2758,6719;0,0183143
2759,6362;0,0183543
2760,6003;0,0183912
2761,5647;0,0184273
2762,5288;0,0184648
2763,4932;0,0185045
2764,4573;0,0185449
2765,4216;0,0185843
2766,3857;0,0186221
2767,3501;0,0186598
2768,3142;0,0187
2769,2786;0,018744
2770,2427;0,0187909
2771,2070;0,0188385
2772,1711;0,0188855
2773,1355;0,0189332
2774,0996;0,0189848
2775,0640;0,0190419
2776,0281;0,019103
2776,9924;0,0191635
2777,9565;0,0192187
2778,9209;0,0192676
2779,8850;0,0193134
2780,8494;0,019362
2781,8135;0,0194175
2782,7778;0,0194798
2783,7419;0,019544
2784,7063;0,0196033
2785,6704;0,019653
2786,6348;0,0196929
2787,5989;0,0197285
2788,5632;0,019769
2789,5273;0,0198247
2790,4917;0,0199023
2791,4558;0,0200018
2792,4202;0,0201152
2793,3843;0,0202293
2794,3486;0,0203309
2795,3127;0,0204119
2796,2771;0,0204731
2797,2412;0,0205221
2798,2056;0,0205699
2799,1697;0,0206259
2800,1340;0,0206954
2801,0981;0,0207801
2802,0625;0,0208793
2803,0266;0,0209904
2803,9910;0,0211091
2804,9551;0,0212295
2805,9194;0,021345
2806,8835;0,0214515
2807,8479;0,0215499
2808,8120;0,0216459
2809,7764;0,0217482
2810,7405;0,0218634
2811,7048;0,0219931
2812,6689;0,0221331
2813,6333;0,0222764
2814,5974;0,0224172
2815,5618;0,0225537
2816,5259;0,0226883
2817,4902;0,0228257
2818,4543;0,0229692
2819,4187;0,0231192
2820,3828;0,0232733
2821,3472;0,0234287
2822,3113;0,0235836
2823,2756;0,0237393
2824,2397;0,0238988
2825,2041;0,0240667
2826,1682;0,0242468
2827,1326;0,024442
2828,0967;0,0246539
2829,0610;0,0248822
2830,0251;0,0251257
2830,9895;0,0253814
2831,9536;0,0256462
2832,9180;0,0259166
2833,8821;0,026191
2834,8464;0,0264698
2835,8105;0,0267571
2836,7749;0,0270601
2837,7390;0,0273885
2838,7034;0,0277526
2839,6675;0,0281618
2840,6318;0,0286224
2841,5959;0,029138
2842,5603;0,0297082
2843,5244;0,0303281
2844,4888;0,0309854
2845,4529;0,0316568
2846,4172;0,032307
2847,3813;0,0328911
2848,3457;0,033364
2849,3098;0,0336917
2850,2742;0,0338616
2851,2383;0,0338866
2852,2026;0,033801
2853,1667;0,0336506
2854,1311;0,0334798
2855,0952;0,0333224
2856,0596;0,0331971
2857,0237;0,0331096
2857,9880;0,0330576
2858,9521;0,0330382
2859,9165;0,0330507
2860,8806;0,0330974
2861,8450;0,0331809
2862,8091;0,0333018
2863,7734;0,0334567
2864,7375;0,0336391
2865,7019;0,0338406
2866,6660;0,0340513
2867,6304;0,0342602
2868,5945;0,0344555
2869,5588;0,0346269
2870,5229;0,0347687
2871,4873;0,0348829
2872,4514;0,0349784
2873,4158;0,0350675
2874,3799;0,0351601
2875,3442;0,0352606
2876,3083;0,0353667
2877,2727;0,0354724
2878,2368;0,0355718
2879,2012;0,0356617
2880,1653;0,0357426
2881,1296;0,0358182
2882,0938;0,0358936
2883,0581;0,0359735
2884,0222;0,036061
2884,9866;0,0361559
2885,9507;0,0362553
2886,9150;0,0363545
2887,8792;0,03645
2888,8435;0,03654
2889,8076;0,0366251
2890,7720;0,0367067
2891,7361;0,0367858
2892,7004;0,0368632
2893,6646;0,0369407
2894,6289;0,0370226
2895,5930;0,0371142
2896,5574;0,03722
2897,5215;0,0373405
2898,4858;0,0374711
2899,4500;0,0376038
2900,4143;0,0377303
2901,3784;0,0378462
2902,3428;0,0379531
2903,3069;0,0380589
2904,2712;0,0381754
2905,2354;0,0383152
2906,1997;0,0384894
2907,1638;0,0387063
2908,1282;0,0389725
2909,0923;0,039293
2910,0566;0,0396706
2911,0208;0,0401024
2911,9851;0,0405756
2912,9492;0,0410643
2913,9136;0,0415312
2914,8777;0,0419343
2915,8420;0,0422364
2916,8062;0,0424148
2917,7705;0,0424647
2918,7346;0,0423984
2919,6990;0,0422388
2920,6631;0,0420118
2921,6274;0,0417408
2922,5916;0,0414436
2923,5559;0,041132
2924,5200;0,0408132
2925,4844;0,0404909
2926,4485;0,0401677
2927,4128;0,039846
2928,3770;0,0395298
2929,3413;0,0392243
2930,3054;0,0389347
2931,2698;0,0386644
2932,2339;0,0384123
2933,1982;0,0381735
2934,1624;0,0379406
2935,1267;0,0377071
2936,0908;0,0374692
2937,0552;0,0372261
2938,0193;0,0369777
2938,9836;0,0367223
2939,9478;0,0364561
2940,9121;0,0361749
2941,8762;0,0358774
2942,8406;0,0355683
2943,8047;0,0352574
2944,7690;0,0349567
2945,7332;0,0346766
2946,6975;0,0344224
2947,6616;0,0341941
2948,6260;0,0339881
2949,5901;0,0337995
2950,5544;0,0336233
2951,5186;0,0334549
2952,4829;0,0332889
2953,4470;0,0331193
2954,4114;0,0329404
2955,3755;0,0327487
2956,3398;0,0325443
2957,3040;0,0323309
2958,2683;0,0321144
2959,2324;0,0319
2960,1968;0,03169
2961,1609;0,0314835
2962,1252;0,0312778
2963,0894;0,0310708
2964,0537;0,030863
2965,0178;0,0306567
2965,9822;0,030454
2966,9463;0,0302547
2967,9106;0,0300562
2968,8748;0,0298555
2969,8391;0,0296516
2970,8032;0,0294465
2971,7676;0,0292435
2972,7317;0,0290449
2973,6960;0,0288495
2974,6602;0,0286537
2975,6245;0,0284546
2976,5886;0,0282533
2977,5530;0,0280559
2978,5171;0,0278716
2979,4814;0,0277083
2980,4456;0,0275687
2981,4099;0,0274493
2982,3740;0,0273428
2983,3384;0,0272419
2984,3025;0,0271429
2985,2668;0,0270465
2986,2310;0,0269556
2987,1953;0,0268722
2988,1594;0,0267954
2989,1238;0,026722
2990,0879;0,0266494
2991,0522;0,0265783
2992,0164;0,0265135
2992,9807;0,0264617
2993,9448;0,0264277
2994,9092;0,0264119
2995,8733;0,0264114
2996,8376;0,026422
2997,8018;0,0264412
2998,7661;0,0264681
2999,7302;0,0265017
3000,6946;0,0265393
3001,6587;0,0265772
3002,6230;0,0266133
3003,5872;0,0266487
3004,5515;0,0266878
3005,5156;0,0267335
3006,4800;0,0267844
3007,4441;0,0268332
3008,4084;0,0268713
3009,3726;0,0268947
3010,3369;0,0269086
3011,3010;0,0269259
3012,2654;0,0269607
3013,2295;0,0270213
3014,1938;0,0271061
3015,1580;0,0272062
3016,1223;0,0273116
3017,0864;0,0274161
3018,0508;0,0275188
3019,0149;0,0276208
3019,9792;0,0277223
3020,9434;0,0278212
3021,9077;0,0279158
3022,8718;0,0280074
3023,8362;0,0281015
3024,8003;0,0282048
3025,7646;0,0283208
3026,7288;0,028446
3027,6931;0,0285711
3028,6572;0,0286854
3029,6216;0,028782
3030,5857;0,0288612
3031,5500;0,0289304
3032,5142;0,0290007
3033,4785;0,0290831
3034,4426;0,0291853
3035,4070;0,02931
3036,3711;0,0294546
3037,3354;0,0296116
3038,2996;0,0297703
3039,2639;0,0299204
3040,2280;0,0300563
3041,1924;0,0301796
3042,1565;0,0302978
3043,1208;0,03042
3044,0850;0,0305512
3045,0493;0,0306902
3046,0134;0,0308319
3046,9778;0,0309727
3047,9419;0,0311139
3048,9063;0,0312616
3049,8704;0,0314218
3050,8347;0,0315943
3051,7988;0,0317711
3052,7632;0,0319404
3053,7273;0,0320936
3054,6917;0,032231
3055,6558;0,0323625
3056,6201;0,032502
3057,5842;0,0326595
3058,5486;0,0328357
3059,5127;0,0330222
3060,4771;0,0332062
3061,4412;0,0333765
3062,4055;0,0335282
3063,3696;0,0336633
3064,3340;0,0337887
3065,2981;0,0339137
3066,2625;0,0340463
3067,2266;0,0341912
3068,1909;0,0343488
3069,1550;0,0345158
3070,1194;0,0346867
3071,0835;0,0348559
3072,0479;0,035019
3073,0120;0,0351745
3073,9763;0,0353228
3074,9404;0,0354653
3075,9048;0,0356038
3076,8689;0,0357392
3077,8333;0,0358718
3078,7974;0,036002
3079,7617;0,0361304
3080,7258;0,0362592
3081,6902;0,0363914
3082,6543;0,0365302
3083,6187;0,0366772
3084,5828;0,0368317
3085,5471;0,03699
3086,5112;0,0371471
3087,4756;0,0372987
3088,4397;0,0374437
3089,4041;0,0375847
3090,3682;0,0377264
3091,3325;0,0378733
3092,2966;0,0380267
3093,2610;0,038185
3094,2251;0,0383446
3095,1895;0,0385023
3096,1536;0,0386571
3097,1179;0,0388097
3098,0820;0,0389615
3099,0464;0,0391133
3100,0105;0,0392648
3100,9749;0,0394159
3101,9390;0,0395675
3102,9033;0,0397219
3103,8674;0,0398815
3104,8318;0,0400467
3105,7959;0,0402155
3106,7603;0,0403841
3107,7244;0,0405495
3108,6887;0,0407115
3109,6528;0,0408736
3110,6172;0,0410405
3111,5813;0,0412157
3112,5457;0,0413991
3113,5098;0,0415872
3114,4741;0,0417746
3115,4382;0,0419567
3116,4026;0,042132
3117,3667;0,0423024
3118,3311;0,0424725
3119,2952;0,0426475
3120,2595;0,0428313
3121,2236;0,0430241
3122,1880;0,0432225
3123,1521;0,0434207
3124,1165;0,0436128
3125,0806;0,0437966
3126,0449;0,0439746
3127,0090;0,044153
3127,9734;0,0443388
3128,9375;0,0445368
3129,9019;0,0447471
3130,8660;0,0449651
3131,8303;0,0451833
3132,7944;0,045395
3133,7588;0,0455976
3134,7229;0,0457942
3135,6873;0,0459928
3136,6514;0,0462021
3137,6157;0,0464265
3138,5798;0,0466626
3139,5442;0,0469001
3140,5083;0,0471271
3141,4727;0,0473369
3142,4368;0,0475318
3143,4011;0,0477216
3144,3652;0,0479177
3145,3296;0,0481269
3146,2937;0,0483484
3147,2581;0,0485753
3148,2222;0,0487994
3149,1865;0,0490154
3150,1506;0,0492233
3151,1150;0,0494278
3152,0791;0,0496364
3153,0435;0,0498561
3154,0076;0,0500904
3154,9719;0,0503376
3155,9360;0,0505909
3156,9004;0,0508409
3157,8645;0,0510805
3158,8289;0,0513079
3159,7930;0,0515277
3160,7573;0,0517476
3161,7214;0,051974
3162,6858;0,0522083
3163,6499;0,0524478
3164,6143;0,052688
3165,5784;0,052925
3166,5427;0,0531572
3167,5068;0,0533844
3168,4712;0,0536078
3169,4353;0,053812
3170,3997;0,0540356
3171,3638;0,0542651
3172,3281;0,0545018
3173,2922;0,0547432
3174,2566;0,0549829
3175,2207;0,0552144
3176,1851;0,0554355
3177,1492;0,0556498
3178,1135;0,0558646
3179,0776;0,0560855
3180,0420;0,0563131
3181,0061;0,0565432
3181,9705;0,0567714
3182,9346;0,0569971
3183,8989;0,0572237
3184,8630;0,0574552
3185,8274;0,0576915
3186,7915;0,0579268
3187,7559;0,0581531
3188,7200;0,0583658
3189,6843;0,0585676
3190,6484;0,058767
3191,6128;0,0589728
3192,5769;0,059189
3193,5413;0,059413
3194,5054;0,0596378
3195,4697;0,0598571
3196,4338;0,0600677
3197,3982;0,0602699
3198,3623;0,0604652
3199,3267;0,0606545
3200,2908;0,0608387
3201,2551;0,0610201
3202,2192;0,061203
3203,1836;0,0613921
3204,1477;0,0615896
3205,1121;0,0617929
3206,0762;0,061996
3207,0405;0,0621927
3208,0046;0,0623809
3208,9690;0,0625639
3209,9331;0,0627479
3210,8975;0,0629376
3211,8616;0,0631333
3212,8259;0,0633307
3213,7900;0,063525
3214,7544;0,0637137
3215,7185;0,0638985
3216,6829;0,0640822
3217,6470;0,0642665
3218,6113;0,0644495
3219,5754;0,0646281
3220,5398;0,0648007
3221,5039;0,0649698
3222,4683;0,0651406
3223,4324;0,0653179
3224,3967;0,0655027
3225,3608;0,0656923
3226,3252;0,0658818
3227,2893;0,0660682
3228,2537;0,0662517
3229,2178;0,0664348
3230,1821;0,0666195
3231,1462;0,0668052
3232,1106;0,0669887
3233,0747;0,0671665
3234,0391;0,0673366
3235,0032;0,0674999
3235,9675;0,06766
3236,9316;0,067822
3237,8960;0,0679902
3238,8601;0,0681671
3239,8245;0,0683518
3240,7886;0,0685402
3241,7529;0,0687257
3242,7170;0,0689029
3243,6814;0,0690702
3244,6455;0,0692321
3245,6099;0,0693973
3246,5740;0,0695742
3247,5383;0,0697658
3248,5024;0,069968
3249,4668;0,0701719
3250,4309;0,0703687
3251,3953;0,0705544
3252,3594;0,0707313
3253,3237;0,0709056
3254,2878;0,0710832
3255,2522;0,0712664
3256,2163;0,0714529
3257,1807;0,071638
3258,1448;0,0718173
3259,1091;0,0719894
3260,0732;0,072156
3261,0376;0,0723208
3262,0017;0,0724871
3262,9661;0,0726561
3263,9302;0,0728253
3264,8945;0,0729902
3265,8586;0,0731468
3266,8230;0,0732942
3267,7871;0,0734362
3268,7515;0,0735782
3269,7156;0,0737227
3270,6799;0,0738655
3271,6440;0,0739966
3272,6084;0,0741056
3273,5725;0,0741901
3274,5369;0,0742588
3275,5010;0,0743282
3276,4653;0,0744123
3277,4294;0,074514
3278,3938;0,074623
3279,3579;0,0747217
3280,3223;0,0747968
3281,2864;0,0748462
3282,2507;0,0748801
3283,2148;0,0749135
3284,1792;0,0749579
3285,1433;0,0750151
3286,1077;0,0750781
3287,0718;0,0751365
3288,0361;0,0751818
3289,0002;0,0752109
3289,9646;0,075226
3290,9287;0,0752321
3291,8931;0,0752342
3292,8572;0,0752356
3293,8215;0,075237
3294,7856;0,075238
3295,7500;0,0752385
3296,7141;0,07524
3297,6785;0,0752452
3298,6426;0,0752572
3299,6069;0,0752768
3300,5710;0,0753018
3301,5354;0,0753275
3302,4995;0,0753485
3303,4639;0,075361
3304,4280;0,075364
3305,3923;0,0753587
3306,3564;0,0753482
3307,3208;0,075336
3308,2849;0,0753267
3309,2493;0,0753244
3310,2134;0,0753328
3311,1777;0,0753532
3312,1418;0,0753849
3313,1062;0,0754253
3314,0703;0,0754718
3315,0347;0,075523
3315,9988;0,0755787
3316,9631;0,0756394
3317,9272;0,0757051
3318,8916;0,0757747
3319,8557;0,0758459
3320,8201;0,0759152
3321,7842;0,0759785
3322,7485;0,0760326
3323,7126;0,0760766
3324,6770;0,076114
3325,6411;0,0761525
3326,6055;0,0762015
3327,5696;0,0762661
3328,5339;0,0763437
3329,4980;0,0764224
3330,4624;0,0764859
3331,4265;0,0765207
3332,3909;0,0765228
3333,3550;0,0764982
3334,3193;0,0764594
3335,2834;0,0764179
3336,2478;0,0763792
3337,2119;0,0763408
3338,1763;0,0762959
3339,1404;0,0762375
3340,1047;0,0761616
3341,0688;0,076068
3342,0332;0,0759597
3342,9973;0,0758421
3343,9617;0,0757223
3344,9258;0,075607
3345,8901;0,0755006
3346,8542;0,0754025
3347,8186;0,0753074
3348,7827;0,0752075
3349,7471;0,0750968
3350,7112;0,0749744
3351,6755;0,0748448
3352,6396;0,0747147
3353,6040;0,0745897
3354,5681;0,0744713
3355,5325;0,0743573
3356,4966;0,0742439
3357,4609;0,0741275
3358,4250;0,0740055
3359,3894;0,0738766
3360,3535;0,0737403
3361,3179;0,0735979
3362,2820;0,073453
3363,2463;0,0733114
3364,2104;0,0731783
3365,1748;0,0730558
3366,1389;0,0729409
3367,1033;0,0728269
3368,0674;0,0727072
3369,0317;0,0725784
3369,9958;0,0724416
3370,9602;0,0723001
3371,9243;0,0721566
3372,8887;0,0720122
3373,8528;0,0718668
3374,8171;0,0717214
3375,7813;0,0715794
3376,7456;0,071445
3377,7097;0,0713203
3378,6741;0,0712032
3379,6382;0,071087
3380,6025;0,0709634
3381,5667;0,0708267
3382,5310;0,0706767
3383,4951;0,0705194
3384,4595;0,0703644
3385,4236;0,0702206
3386,3879;0,0700908
3387,3521;0,0699711
3388,3164;0,0698527
3389,2805;0,0697265
3390,2449;0,0695886
3391,2090;0,0694407
3392,1733;0,069288
3393,1375;0,0691346
3394,1018;0,0689805
3395,0659;0,0688235
3396,0303;0,0686627
3396,9944;0,0685016
3397,9587;0,0683457
3398,9229;0,0681979
3399,8872;0,0680545
3400,8513;0,067907
3401,8157;0,0677476
3402,7798;0,0675753
3403,7441;0,0673959
3404,7083;0,0672177
3405,6726;0,0670441
3406,6367;0,0668711
3407,6011;0,0666909
3408,5652;0,0664978
3409,5295;0,0662927
3410,4937;0,0660831
3411,4580;0,065879
3412,4221;0,0656883
3413,3865;0,065514
3414,3506;0,0653533
3415,3149;0,065198
3416,2791;0,0650358
3417,2434;0,0648535
3418,2075;0,064642
3419,1719;0,0644018
3420,1360;0,0641441
3421,1003;0,0638868
3422,0645;0,063646
3423,0288;0,0634284
3423,9929;0,0632304
3424,9573;0,0630429
3425,9214;0,0628566
3426,8857;0,0626656
3427,8499;0,0624662
3428,8142;0,0622559
3429,7783;0,0620315
3430,7427;0,0617916
3431,7068;0,0615383
3432,6711;0,0612784
3433,6353;0,0610208
3434,5996;0,0607729
3435,5637;0,0605364
3436,5281;0,0603083
3437,4922;0,0600837
3438,4565;0,0598615
3439,4207;0,0596463
3440,3850;0,0594455
3441,3491;0,059262
3442,3135;0,0590877
3443,2776;0,0589027
3444,2419;0,0586832
3445,2061;0,0584142
3446,1704;0,0581004
3447,1345;0,0577668
3448,0989;0,0574471
3449,0630;0,0571661
3450,0273;0,0569293
3450,9915;0,0567249
3451,9558;0,056534
3452,9199;0,0563404
3453,8843;0,0561353
3454,8484;0,0559172
3455,8127;0,0556874
3456,7769;0,0554467
3457,7412;0,0551947
3458,7053;0,0549316
3459,6697;0,0546599
3460,6338;0,054384
3461,5981;0,0541089
3462,5623;0,0538377
3463,5266;0,0535706
3464,4907;0,0533062
3465,4551;0,0530439
3466,4192;0,0527855
3467,3835;0,0525353
3468,3477;0,0522971
3469,3120;0,0520702
3470,2761;0,0518481
3471,2405;0,0516208
3472,2046;0,0513812
3473,1689;0,0511309
3474,1331;0,0508807
3475,0974;0,0506434
3476,0615;0,0504234
3477,0259;0,0502099
3477,9900;0,0499813
3478,9543;0,0497174
3479,9185;0,0494139
3480,8828;0,0490881
3481,8469;0,0487706
3482,8113;0,0484855
3483,7754;0,0482363
3484,7397;0,048006
3485,7039;0,0477713
3486,6682;0,04752
3487,6323;0,047259
3488,5967;0,0470092
3489,5608;0,0467894
3490,5251;0,046601
3491,4893;0,0464248
3492,4536;0,0462313
3493,4177;0,0459978
3494,3821;0,045724
3495,3462;0,0454356
3496,3105;0,0451709
3497,2747;0,0449555
3498,2390;0,0447842
3499,2031;0,0446203
3500,1675;0,0444149
3501,1316;0,0441363
3502,0959;0,0437934
3503,0601;0,0434353
3504,0244;0,04312
3504,9885;0,0428744
3505,9529;0,0426794
3506,9170;0,0424868
3507,8813;0,0422522
3508,8455;0,0419611
3509,8098;0,0416362
3510,7739;0,0413202
3511,7383;0,0410459
3512,7024;0,0408193
3513,6667;0,0406241
3514,6309;0,0404392
3515,5952;0,0402536
3516,5593;0,0400687
3517,5237;0,03989
3518,4878;0,0397168
3519,4521;0,0395382
3520,4163;0,0393386
3521,3806;0,0391072
3522,3447;0,0388448
3523,3091;0,0385614
3524,2732;0,0382674
3525,2375;0,0379646
3526,2017;0,0376482
3527,1660;0,0373176
3528,1301;0,0369864
3529,0945;0,0366823
3530,0586;0,0364319
3531,0229;0,0362428
3531,9871;0,0360962
3532,9514;0,0359546
3533,9155;0,0357778
3534,8799;0,0355421
3535,8440;0,0352535
3536,8083;0,0349472
3537,7725;0,0346705
3538,7368;0,0344577
3539,7009;0,034314
3540,6653;0,0342115
3541,6294;0,0340986
3542,5938;0,0339166
3543,5579;0,0336255
3544,5222;0,0332311
3545,4863;0,0327933
3546,4507;0,0323948
3547,4148;0,0320883
3548,3792;0,0318681
3549,3433;0,0316828
3550,3076;0,0314723
3551,2717;0,0312038
3552,2361;0,0308916
3553,2002;0,0305868
3554,1646;0,0303393
3555,1287;0,0301623
3556,0930;0,0300281
3557,0571;0,0298924
3558,0215;0,0297272
3558,9856;0,0295427
3559,9500;0,0293814
3560,9141;0,0292842
3561,8784;0,0292507
3562,8425;0,0292189
3563,8069;0,0290764
3564,7710;0,0287043
3565,7354;0,0280626
3566,6995;0,0272718
3567,6638;0,0265683
3568,6279;0,0261249
3569,5923;0,0259448
3570,5564;0,0259196
3571,5208;0,0259273
3572,4849;0,025885
3573,4492;0,025762
3574,4133;0,0255712
3575,3777;0,0253455
3576,3418;0,0251101
3577,3062;0,0248722
3578,2703;0,0246342
3579,2346;0,0244141
3580,1987;0,0242479
3581,1631;0,0241675
3582,1272;0,0241671
3583,0916;0,024186
3584,0557;0,0241154
3585,0200;0,0238371
3585,9841;0,0233012
3586,9485;0,0226103
3587,9126;0,0219917
3588,8770;0,0216242
3589,8411;0,021514
3590,8054;0,0215398
3591,7695;0,021556
3592,7339;0,0214618
3593,6980;0,021234
3594,6624;0,0209257
3595,6265;0,0206176
3596,5908;0,0203512
3597,5549;0,0201062
3598,5193;0,0198412
3599,4834;0,0195501
3600,4478;0,0192839
3601,4119;0,019114
3602,3762;0,01907
3603,3403;0,0191113
3604,3047;0,0191478
3605,2688;0,0190856
3606,2332;0,0188737
3607,1973;0,0185345
3608,1616;0,0181528
3609,1257;0,0178163
3610,0901;0,0175592
3611,0542;0,0173645
3612,0186;0,0172056
3612,9827;0,0170756
3613,9470;0,0169786
3614,9111;0,0168995
3615,8755;0,0167837
3616,8396;0,0165524
3617,8040;0,0161553
3618,7681;0,0156377
3619,7324;0,0151524
3620,6965;0,0148678
3621,6609;0,014854
3622,6250;0,0150639
3623,5894;0,0153853
3624,5535;0,0156811
3625,5178;0,0157951
3626,4819;0,0155659
3627,4463;0,0149151
3628,4104;0,0139961
3629,3748;0,0131654
3630,3389;0,0126742
3631,3032;0,0124998
3632,2673;0,0124827
3633,2317;0,0124828
3634,1958;0,0124316
3635,1602;0,0123243
3636,1243;0,0121903
3637,0886;0,0120602
3638,0527;0,0119467
3639,0171;0,0118501
3639,9812;0,0117776
3640,9456;0,011753
3641,9097;0,0118076
3642,8740;0,0119567
3643,8381;0,0121762
3644,8025;0,0123872
3645,7666;0,0124431
3646,7310;0,012143
3647,6951;0,0113545
3648,6594;0,0102659
3649,6235;0,00937802
3650,5879;0,0090114
3651,5520;0,00907083
3652,5164;0,00929322
3653,4805;0,00945698
3654,4448;0,00943544
3655,4089;0,00921323
3656,3733;0,0088891
3657,3374;0,00861256
3658,3018;0,0084724
3659,2659;0,00844946
3660,2302;0,00846871
3661,1943;0,00847594
3662,1587;0,00847547
3663,1228;0,00851358
3664,0872;0,00862609
3665,0513;0,0087931
3666,0156;0,00893373
3666,9797;0,00894171
3667,9441;0,0087565
3668,9082;0,00844442
3669,8726;0,00818907
3670,8367;0,00813278
3671,8010;0,00824292
3672,7651;0,00834823
3673,7295;0,00825666
3674,6936;0,00788026
3675,6580;0,00733318
3676,6221;0,00686176
3677,5864;0,00661837
3678,5505;0,00657733
3679,5149;0,00664331
3680,4790;0,00675276
3681,4434;0,00689588
3682,4075;0,00709077
3683,3718;0,00734409
3684,3359;0,00762268
3685,3003;0,00784711
3686,2644;0,00790608
3687,2288;0,00769956
3688,1929;0,00722562
3689,1572;0,00665221
3690,1213;0,00622487
3691,0857;0,00606299
3692,0498;0,00611588
3693,0142;0,00627721
3693,9783;0,00647156
3694,9426;0,00666678
3695,9067;0,00685216
3696,8711;0,00701321
3697,8352;0,00711819
3698,7996;0,00712454
3699,7637;0,00700619
3700,7280;0,00679022
3701,6921;0,00656963
3702,6565;0,00646067
3703,6206;0,00653092
3704,5850;0,00676603
3705,5491;0,00709009
3706,5134;0,00739682
3707,4775;0,00756519
3708,4419;0,0074758
3709,4060;0,00706705
3710,3704;0,00643201
3711,3345;0,00583067
3712,2988;0,00550704
3713,2629;0,00551283
3714,2273;0,00574531
3715,1914;0,00607004
3716,1558;0,00638389
3717,1199;0,00662465
3718,0842;0,00676743
3719,0483;0,00682055
3720,0127;0,00681394
3720,9768;0,00677689
3721,9412;0,00671927
3722,9053;0,00663557
3723,8696;0,00653093
3724,8337;0,00644253
3725,7981;0,00642895
3726,7622;0,00653274
3727,7266;0,00675273
3728,6907;0,00704626
3729,6550;0,00734681
3730,6191;0,00757669
3731,5835;0,0076527
3732,5476;0,00750019
3733,5120;0,00709872
3734,4761;0,0065486
3735,4404;0,00606467
3736,4045;0,00583803
3737,3689;0,00591435
3738,3330;0,006217
3739,2974;0,0066257
3740,2615;0,00701519
3741,2258;0,00726114
3742,1899;0,00726113
3743,1543;0,00700902
3744,1184;0,00667038
3745,0828;0,00649056
3746,0469;0,00656584
3747,0112;0,00677599
3747,9753;0,00690027
3748,9397;0,00674306
3749,9038;0,00626199
3750,8682;0,00567126
3751,8323;0,00530053
3752,7966;0,00528394
3753,7607;0,00551096
3754,7251;0,00579934
3755,6892;0,00600759
3756,6536;0,00606331
3757,6177;0,00597528
3758,5820;0,00583029
3759,5461;0,00574013
3760,5105;0,00576476
3761,4746;0,00588723
3762,4390;0,00604848
3763,4031;0,00618884
3764,3674;0,00626788
3765,3315;0,00626662
3766,2959;0,00618182
3767,2600;0,00602086
3768,2244;0,00580501
3769,1885;0,00557935
3770,1528;0,0054114
3771,1169;0,00536421
3772,0813;0,00546001
3773,0454;0,0056671
3774,0098;0,00591564
3774,9739;0,00612308
3775,9382;0,00621822
3776,9023;0,00616822
3777,8667;0,00600436
3778,8308;0,00581656
3779,7952;0,00569669
3780,7593;0,00567583
3781,7236;0,00571811
3782,6877;0,0057628
3783,6521;0,00576705
3784,6162;0,00572448
3785,5806;0,00565971
3786,5447;0,00560843
3787,5090;0,0055985
3788,4731;0,00564207
3789,4375;0,00573684
3790,4016;0,00586866
3791,3660;0,00601383
3792,3301;0,00614516
3793,2944;0,00624406
3794,2585;0,0063132
3795,2229;0,00637607
3796,1870;0,00645445
3797,1514;0,00653698
3798,1155;0,00656855
3799,0798;0,00648022
3800,0439;0,00625324
3801,0083;0,00596752
3801,9724;0,00575645
3802,9368;0,00568732
3803,9009;0,00570764
3804,8652;0,00570473
3805,8293;0,00560123
3806,7937;0,0054231
3807,7578;0,00529242
3808,7222;0,00532907
3809,6863;0,00555565
3810,6506;0,00589947
3811,6147;0,00625102
3812,5791;0,00651177
3813,5432;0,00662805
3814,5076;0,0066204
3815,4717;0,00657462
3816,4360;0,00656425
3817,4001;0,00657227
3818,3645;0,00650479
3819,3286;0,00628199
3820,2930;0,00593051
3821,2571;0,00559179
3822,2214;0,00540932
3823,1855;0,00541627
3824,1499;0,00554727
3825,1140;0,00571585
3826,0784;0,00586468
3827,0425;0,00597597
3828,0068;0,00606054
3828,9709;0,00613945
3829,9353;0,00622942
3830,8994;0,00633828
3831,8638;0,00646611
3832,8279;0,00660343
3833,7922;0,00672431
3834,7563;0,00678296
3835,7207;0,00672571
3836,6848;0,00652394
3837,6492;0,00621134
3838,6133;0,00588185
3839,5776;0,00562912
3840,5417;0,00548666
3841,5061;0,00543165
3842,4702;0,00543131
3843,4346;0,00547908
3844,3987;0,0055988
3845,3630;0,00582313
3846,3271;0,00616663
3847,2915;0,00661075
3848,2556;0,00709943
3849,2200;0,00753177
3850,1841;0,00774759
3851,1484;0,00754239
3852,1125;0,00681232
3853,0769;0,00581679
3854,0410;0,00508866
3855,0054;0,00488969
3855,9695;0,00509011
3856,9338;0,00547223
3857,8979;0,00588677
3858,8623;0,00624463
3859,8264;0,00648544
3860,7908;0,0065722
3861,7549;0,006512
3862,7192;0,00637495
3863,6833;0,00626755
3864,6477;0,00626241
3865,6118;0,00635333
3866,5762;0,00647331
3867,5403;0,00653969
3868,5046;0,00649232
3869,4688;0,00631966
3870,4331;0,00606826
3871,3972;0,00582253
3872,3616;0,00566256
3873,3257;0,00563073
3874,2900;0,00572453
3875,2542;0,00590656
3876,2185;0,00611912
3877,1826;0,00630061
3878,1470;0,00640537
3879,1111;0,00642371
3880,0754;0,00638573
3881,0396;0,00633389
3882,0039;0,00628388
3882,9680;0,00621808
3883,9324;0,00612119
3884,8965;0,00601722
3885,8608;0,00596164
3886,8250;0,00599015
3887,7893;0,00607784
3888,7534;0,0061491
3889,7178;0,00612765
3890,6819;0,00599876
3891,6462;0,00584228
3892,6104;0,00578484
3893,5747;0,00589915
3894,5388;0,00616017
3895,5032;0,0064831
3896,4673;0,00677501
3897,4316;0,00696454
3898,3958;0,00701697
3899,3601;0,00693723
3900,3242;0,00675334
3901,2886;0,00649288
3902,2527;0,00618275
3903,2170;0,00586918
3904,1812;0,00561748
3905,1455;0,00547739
3906,1096;0,0054535
3907,0740;0,00551263
3908,0381;0,00561233
3909,0024;0,00572354
3909,9666;0,00583801
3910,9309;0,00596179
3911,8950;0,00609965
3912,8594;0,00624
3913,8235;0,0063509
3914,7878;0,00639276
3915,7520;0,00634415
3916,7163;0,00622568
3917,6804;0,0060973
3918,6448;0,00601998
3919,6089;0,00601342
3920,5732;0,00604857
3921,5374;0,0060745
3922,5017;0,00605529
3923,4658;0,0059962
3924,4302;0,00594318
3925,3943;0,00594991
3926,3586;0,00603617
3927,3228;0,00617207
3928,2871;0,00629486
3929,2512;0,00634083
3930,2156;0,00627767
3931,1797;0,00612501
3932,1440;0,00594622
3933,1082;0,00581048
3934,0725;0,00575606
3935,0366;0,00578282
3936,0010;0,00586696
3936,9651;0,00597678
3937,9294;0,00608072
3938,8936;0,00615145
3939,8579;0,00617212
3940,8220;0,00614516
3941,7864;0,00609601
3942,7505;0,00606224
3943,7148;0,00607053
3944,6790;0,00611922
3945,6433;0,00618002
3946,6074;0,00621576
3947,5718;0,00620206
3948,5359;0,00614138
3949,5002;0,00606055
3950,4644;0,0059921
3951,4287;0,00595385
3952,3928;0,00594318
3953,3572;0,00594632
3954,3213;0,00595133
3955,2856;0,00595509
3956,2498;0,0059616
3957,2141;0,00597506
3958,1782;0,00599428
3959,1426;0,00601263
3960,1067;0,00602296
3961,0710;0,00602297
3962,0352;0,00601656
3962,9995;0,00601044
3963,9636;0,00600898
3964,9280;0,00601153
3965,8921;0,00601407
3966,8564;0,00601317
3967,8206;0,00600921
3968,7849;0,00600644
3969,7490;0,00600961
3970,7134;0,00602
3971,6775;0,0060338
3972,6418;0,00604424
3973,6060;0,00604599
3974,5703;0,00603847
3975,5344;0,00602598
3976,4988;0,00601465
3977,4629;0,00600862
3978,4272;0,00600806
3979,3914;0,00600996
3980,3557;0,0060107
3981,3198;0,0060087
3982,2842;0,00600562
3983,2483;0,00600541
3984,2126;0,00601188
3985,1768;0,00602624
3986,1411;0,00604613
3987,1052;0,00606675
3988,0696;0,00608337
3989,0337;0,00609352
3989,9980;0,00609774
3990,9622;0,0060981
3991,9265;0,00609604
3992,8906;0,00609129
3993,8550;0,00608256
3994,8191;0,00606902
3995,7834;0,00605106
3996,7476;0,00602996
3997,7119;0,00600746
3998,6760;0,00598628
3999,6404;0,00597107
4000,6045;0,00592064

##### Extended Information
[Comments]
Sample name
Comment
Username
Division
Organization;UNIVERSIDAD INDUSTRIAL DE SANTANDER

[Detailed Information]
Creation date;18/03/2025 10:29 a.m.

Data array type;Linear data array
Horizontal axis;Wavenumber [cm-1]
Vertical axis;Abs
Start;399,193 cm-1
End;4000,6 cm-1
Data interval;0,964233 cm-1
Data points;3736    

[Measurement Information]
Model name;FT/IR-4X1typeA
Serial No.;A035162111

Accessory;ATR PRO 4X
Accessory S/N;A021162126
Incident angle;45 deg

Measurement date;18/03/2025 10:28 a.m.

Light source;Standard
Detector;TGS
Accumulation;40
Resolution;4 cm-1
Zero filling;On
Apodization;Cosine
Gain;Auto (8)
Aperture;Auto (7 mm)
Scan speed;Auto (2 mm/sec)
Filter;Auto (12800 Hz)

