TITLE;
DATA TYPE;INFRARED SPECTRUM
ORIGIN;JASCO
OWNER;
DATE;25/03/18
TIME;10:31:41
SPECTROMETER/DATA SYSTEM;
LOCALE;9226
RESOLUTION;
DELTAX;0,964233
XUNITS;1/CM
YUNITS;ABSORBANCE
FIRSTX;  399,1927
LASTX; 4000,6047
NPOINTS;    3736
FIRSTY;     0,16703
MAXY;     0,21865
MINY;     0,00927
XYDATA
399,1927;0,167026
400,1569;0,168235
401,1211;0,168634
402,0854;0,168423
403,0496;0,167895
404,0138;0,167308
404,9781;0,166836
405,9423;0,166542
406,9065;0,166368
407,8708;0,16619
408,8350;0,165912
409,7992;0,165553
410,7635;0,165248
411,7277;0,165165
412,6919;0,165388
413,6562;0,165877
414,6204;0,166533
415,5846;0,167308
416,5489;0,168253
417,5131;0,169474
418,4773;0,170931
419,4416;0,172248
420,4058;0,172937
421,3700;0,172825
422,3343;0,172092
423,2985;0,171065
424,2627;0,170097
425,2270;0,169504
426,1912;0,169483
427,1554;0,17004
428,1197;0,171009
429,0839;0,172135
430,0481;0,173155
431,0124;0,173846
431,9766;0,174077
432,9408;0,173854
433,9051;0,173343
434,8693;0,172831
435,8335;0,172613
436,7978;0,172842
437,7620;0,173443
438,7262;0,174148
439,6905;0,174629
440,6547;0,174634
441,6189;0,174086
442,5832;0,17312
443,5474;0,172036
444,5116;0,17116
445,4759;0,170688
446,4401;0,170623
447,4043;0,170829
448,3686;0,171111
449,3328;0,171293
450,2970;0,171265
451,2613;0,170993
452,2255;0,170502
453,1897;0,169843
454,1540;0,169077
455,1182;0,168291
456,0824;0,16764
457,0467;0,167335
458,0109;0,167539
458,9751;0,168218
459,9394;0,169101
460,9036;0,169848
461,8678;0,170221
462,8321;0,170159
463,7963;0,169757
464,7605;0,169201
465,7248;0,168685
466,6890;0,16833
467,6532;0,168145
468,6175;0,168052
469,5817;0,167949
470,5459;0,167767
471,5102;0,167512
472,4744;0,167265
473,4386;0,167132
474,4029;0,167167
475,3671;0,167336
476,3313;0,167538
477,2956;0,167663
478,2598;0,16765
479,2240;0,167521
480,1883;0,167365
481,1525;0,167294
482,1167;0,167374
483,0810;0,167592
484,0452;0,167876
485,0094;0,16815
485,9737;0,168394
486,9379;0,168638
487,9021;0,168914
488,8664;0,169202
489,8306;0,169425
490,7948;0,169488
491,7591;0,169352
492,7233;0,169079
493,6875;0,168813
494,6518;0,168696
495,6160;0,168784
496,5802;0,169023
497,5445;0,169287
498,5087;0,169451
499,4729;0,169454
500,4372;0,169328
501,4014;0,169186
502,3656;0,169162
503,3299;0,169333
504,2941;0,169676
505,2583;0,170088
506,2226;0,170453
507,1868;0,170703
508,1510;0,170857
509,1153;0,170997
510,0795;0,171218
511,0437;0,171564
512,0080;0,172008
512,9722;0,172483
513,9365;0,172923
514,9007;0,173307
515,8649;0,173652
516,8292;0,173983
517,7934;0,17429
518,7576;0,174531
519,7219;0,174662
520,6861;0,174684
521,6503;0,174646
522,6146;0,17461
523,5788;0,174618
524,5430;0,17467
525,5073;0,17473
526,4715;0,174757
527,4357;0,174738
528,4000;0,174697
529,3642;0,174664
530,3284;0,174649
531,2927;0,174622
532,2569;0,174522
533,2211;0,174293
534,1854;0,173916
535,1496;0,173435
536,1138;0,172944
537,0781;0,172543
538,0423;0,172293
539,0065;0,17218
539,9708;0,172125
540,9350;0,172032
541,8992;0,171842
542,8635;0,171568
543,8277;0,171294
544,7919;0,171128
545,7562;0,171144
546,7204;0,171351
547,6846;0,171684
548,6489;0,172056
549,6131;0,1724
550,5773;0,172702
551,5416;0,172992
552,5058;0,173303
553,4700;0,173643
554,4343;0,173982
555,3985;0,174268
556,3627;0,174455
557,3270;0,174521
558,2912;0,174464
559,2554;0,174269
560,2197;0,1739
561,1839;0,173313
562,1481;0,172494
563,1124;0,171494
564,0766;0,170429
565,0408;0,169428
566,0051;0,168587
566,9693;0,167932
567,9335;0,167427
568,8978;0,167012
569,8620;0,166645
570,8262;0,166316
571,7905;0,16603
572,7547;0,165789
573,7189;0,165576
574,6832;0,165369
575,6474;0,165153
576,6116;0,164927
577,5759;0,164699
578,5401;0,164471
579,5043;0,164242
580,4686;0,164013
581,4328;0,163798
582,3970;0,163614
583,3613;0,163476
584,3255;0,163377
585,2897;0,163298
586,2540;0,16322
587,2182;0,163144
588,1824;0,163085
589,1467;0,163058
590,1109;0,163056
591,0751;0,163053
592,0394;0,163019
593,0036;0,162944
593,9678;0,162842
594,9321;0,162731
595,8963;0,162605
596,8605;0,162427
597,8248;0,162153
598,7890;0,161762
599,7532;0,161285
600,7175;0,160791
601,6817;0,160351
602,6459;0,159997
603,6102;0,159707
604,5744;0,159423
605,5386;0,159084
606,5029;0,158655
607,4671;0,158139
608,4313;0,157569
609,3956;0,15699
610,3598;0,156444
611,3240;0,155948
612,2883;0,155489
613,2525;0,155024
614,2167;0,154496
615,1810;0,153854
616,1452;0,153081
617,1094;0,1522
618,0737;0,151265
619,0379;0,150324
620,0021;0,149396
620,9664;0,148466
621,9306;0,147512
622,8948;0,146533
623,8591;0,145568
624,8233;0,144676
625,7875;0,143918
626,7518;0,143308
627,7160;0,142813
628,6802;0,142367
629,6445;0,141902
630,6087;0,141379
631,5729;0,140791
632,5372;0,140163
633,5014;0,139533
634,4656;0,138934
635,4299;0,138388
636,3941;0,137902
637,3583;0,137475
638,3226;0,137097
639,2868;0,136757
640,2510;0,136434
641,2153;0,136107
642,1795;0,135753
643,1437;0,135364
644,1080;0,134951
645,0722;0,134537
646,0364;0,134147
647,0007;0,13379
647,9649;0,133456
648,9291;0,13312
649,8934;0,132766
650,8576;0,1324
651,8218;0,132053
652,7861;0,131774
653,7503;0,131609
654,7145;0,131596
655,6788;0,131741
656,6430;0,13202
657,6072;0,132368
658,5715;0,1327
659,5357;0,132921
660,4999;0,132972
661,4642;0,132866
662,4284;0,132682
663,3926;0,13252
664,3569;0,132442
665,3211;0,132442
666,2853;0,132403
667,2496;0,132049
668,2138;0,131068
669,1780;0,129539
670,1423;0,127968
671,1065;0,12667
672,0707;0,125597
673,0350;0,124581
673,9992;0,123486
674,9634;0,12225
675,9277;0,120887
676,8919;0,119464
677,8561;0,118059
678,8204;0,116734
679,7846;0,115538
680,7488;0,114513
681,7131;0,11367
682,6773;0,112984
683,6415;0,112389
684,6058;0,111825
685,5700;0,111264
686,5342;0,110729
687,4985;0,110263
688,4627;0,109898
689,4269;0,10963
690,3912;0,109412
691,3554;0,109183
692,3196;0,108889
693,2839;0,108513
694,2481;0,108073
695,2123;0,107616
696,1766;0,107195
697,1408;0,106848
698,1050;0,106579
699,0693;0,106361
700,0335;0,106145
700,9977;0,105887
701,9620;0,10556
702,9262;0,105166
703,8904;0,104728
704,8547;0,104275
705,8189;0,103827
706,7831;0,103389
707,7474;0,102946
708,7116;0,102481
709,6758;0,101977
710,6401;0,101429
711,6043;0,100838
712,5685;0,100222
713,5328;0,0996059
714,4970;0,099023
715,4612;0,0984697
716,4255;0,098016
717,3897;0,0975971
718,3539;0,0971514
719,3182;0,096611
720,2824;0,0959387
721,2466;0,0951518
722,2109;0,0943109
723,1751;0,0934825
724,1393;0,0927048
725,1036;0,0919801
726,0678;0,0912901
727,0320;0,0906178
727,9963;0,0899602
728,9605;0,0893268
729,9247;0,0887283
730,8890;0,0881676
731,8532;0,0876395
732,8174;0,0871362
733,7817;0,0866522
734,7459;0,086184
735,7101;0,085728
736,6744;0,0852797
737,6386;0,0848369
738,6028;0,0844041
739,5671;0,0839935
740,5313;0,0836184
741,4955;0,083284
742,4598;0,0829793
743,4240;0,0826778
744,3882;0,0823481
745,3525;0,0819686
746,3167;0,0815388
747,2809;0,0810799
748,2452;0,0806244
749,2094;0,0801996
750,1736;0,0798153
751,1379;0,0794601
752,1021;0,0791099
753,0663;0,078741
754,0306;0,0783422
754,9948;0,0779189
755,9590;0,0774897
756,9233;0,077078
757,8875;0,0767026
758,8517;0,0763713
759,8160;0,0760785
760,7802;0,0758081
761,7444;0,075539
762,7087;0,0752537
763,6729;0,074944
764,6371;0,0746127
765,6014;0,0742695
766,5656;0,073925
767,5298;0,0735846
768,4941;0,073248
769,4583;0,0729129
770,4225;0,0725801
771,3868;0,0722558
772,3510;0,0719492
773,3152;0,071667
774,2795;0,0714069
775,2437;0,0711572
776,2079;0,0709002
777,1722;0,0706196
778,1364;0,0703074
779,1006;0,0699664
780,0649;0,069609
781,0291;0,0692522
781,9933;0,0689117
782,9576;0,0685965
783,9218;0,0683071
784,8860;0,0680361
785,8503;0,0677725
786,8145;0,0675072
787,7787;0,067237
788,7430;0,0669655
789,7072;0,0667001
790,6714;0,0664487
791,6357;0,0662167
792,5999;0,0660066
793,5641;0,0658182
794,5284;0,0656488
795,4926;0,0654916
796,4568;0,0653361
797,4211;0,065171
798,3853;0,0649893
799,3495;0,0647933
800,3138;0,0645938
801,2780;0,0644052
802,2422;0,0642375
803,2065;0,0640929
804,1707;0,0639659
805,1349;0,0638487
806,0992;0,063734
807,0634;0,0636151
808,0276;0,0634838
808,9919;0,0633306
809,9561;0,0631484
810,9203;0,0629396
811,8846;0,0627205
812,8488;0,0625173
813,8130;0,0623564
814,7773;0,0622511
815,7415;0,0621941
816,7057;0,0621599
817,6700;0,0621158
818,6342;0,0620357
819,5984;0,0619102
820,5627;0,0617483
821,5269;0,0615715
822,4911;0,0614037
823,4554;0,0612634
824,4196;0,0611587
825,3839;0,0610868
826,3481;0,0610361
827,3123;0,0609896
828,2766;0,0609279
829,2408;0,0608348
830,2050;0,0607017
831,1693;0,0605306
832,1335;0,0603333
833,0977;0,0601263
834,0620;0,0599249
835,0262;0,0597378
835,9904;0,0595658
836,9547;0,0594041
837,9189;0,0592451
838,8831;0,0590805
839,8474;0,0589038
840,8116;0,0587114
841,7758;0,0585051
842,7401;0,0582941
843,7043;0,0580933
844,6685;0,0579184
845,6328;0,0577785
846,5970;0,0576709
847,5612;0,0575811
848,5255;0,0574895
849,4897;0,057382
850,4539;0,0572584
851,4182;0,0571345
852,3824;0,0570349
853,3466;0,0569803
854,3109;0,0569758
855,2751;0,0570067
856,2393;0,0570462
857,2036;0,0570709
858,1678;0,0570731
859,1320;0,0570648
860,0963;0,0570688
861,0605;0,0571038
862,0247;0,0571749
862,9890;0,0572735
863,9532;0,0573871
864,9174;0,0575098
865,8817;0,0576456
866,8459;0,0578028
867,8101;0,0579866
868,7744;0,0581944
869,7386;0,0584175
870,7028;0,0586449
871,6671;0,0588654
872,6313;0,0590655
873,5955;0,0592286
874,5598;0,0593393
875,5240;0,0593929
876,4882;0,0594035
877,4525;0,0594036
878,4167;0,0594339
879,3809;0,059527
880,3452;0,0596967
881,3094;0,0599386
882,2736;0,0602408
883,2379;0,0605963
884,2021;0,0610099
885,1663;0,0614944
886,1306;0,0620605
887,0948;0,0627083
888,0590;0,0634252
889,0233;0,064191
889,9875;0,0649851
890,9517;0,0657898
891,9160;0,066588
892,8802;0,0673559
893,8444;0,0680593
894,8087;0,0686557
895,7729;0,0691044
896,7371;0,0693785
897,7014;0,069473
898,6656;0,069404
899,6298;0,0691991
900,5941;0,0688847
901,5583;0,0684776
902,5225;0,067985
903,4868;0,0674134
904,4510;0,0667795
905,4152;0,0661183
906,3795;0,0654801
907,3437;0,0649181
908,3079;0,0644717
909,2722;0,0641538
910,2364;0,0639505
911,2007;0,063832
912,1649;0,0637686
913,1292;0,0637438
914,0934;0,0637551
915,0576;0,0638064
916,0219;0,0638984
916,9861;0,0640246
917,9503;0,0641762
918,9146;0,06435
919,8788;0,0645529
920,8430;0,064796
921,8073;0,0650839
922,7715;0,0654052
923,7357;0,0657335
924,7000;0,0660374
925,6642;0,0662951
926,6284;0,0665029
927,5927;0,0666739
928,5569;0,066829
929,5211;0,0669856
930,4854;0,0671529
931,4496;0,0673331
932,4138;0,0675267
933,3781;0,0677365
934,3423;0,0679675
935,3065;0,0682243
936,2708;0,0685087
937,2350;0,0688213
938,1992;0,0691655
939,1635;0,0695507
940,1277;0,0699922
941,0919;0,0705058
942,0562;0,0711007
943,0204;0,0717752
943,9846;0,0725177
944,9489;0,0733142
945,9131;0,0741568
946,8773;0,0750491
947,8416;0,0760042
948,8058;0,0770371
949,7700;0,0781567
950,7343;0,0793623
951,6985;0,0806473
952,6627;0,082007
953,6270;0,0834427
954,5912;0,08496
955,5554;0,08656
956,5197;0,0882315
957,4839;0,0899501
958,4481;0,0916867
959,4124;0,09342
960,3766;0,0951449
961,3408;0,0968712
962,3051;0,0986138
963,2693;0,100382
964,2335;0,102175
965,1978;0,103983
966,1620;0,1058
967,1262;0,107626
968,0905;0,109475
969,0547;0,111367
970,0189;0,11333
970,9832;0,115396
971,9474;0,117595
972,9116;0,119955
973,8759;0,122495
974,8401;0,125228
975,8043;0,128158
976,7686;0,131283
977,7328;0,134594
978,6970;0,138065
979,6613;0,14164
980,6255;0,145234
981,5897;0,14874
982,5540;0,152048
983,5182;0,155072
984,4824;0,157764
985,4467;0,160121
986,4109;0,162173
987,3751;0,163968
988,3394;0,165557
989,3036;0,166979
990,2678;0,168263
991,2321;0,16942
992,1963;0,170456
993,1605;0,171377
994,1248;0,172197
995,0890;0,172941
996,0532;0,173638
997,0175;0,17431
997,9817;0,174972
998,9459;0,175628
999,9102;0,176286
1000,8744;0,176963
1001,8386;0,177686
1002,8029;0,178486
1003,7671;0,179394
1004,7313;0,180438
1005,6956;0,181645
1006,6598;0,183047
1007,6240;0,184671
1008,5883;0,186528
1009,5525;0,188604
1010,5167;0,190852
1011,4810;0,193206
1012,4452;0,195595
1013,4094;0,197958
1014,3737;0,200245
1015,3379;0,202418
1016,3021;0,204438
1017,2664;0,206266
1018,2306;0,207878
1019,1948;0,209268
1020,1591;0,210461
1021,1233;0,211503
1022,0875;0,21245
1023,0518;0,213354
1024,0160;0,214244
1024,9802;0,215127
1025,9445;0,215987
1026,9087;0,216796
1027,8729;0,217515
1028,8372;0,218099
1029,8014;0,218498
1030,7656;0,218651
1031,7299;0,218493
1032,6941;0,217966
1033,6583;0,217037
1034,6226;0,215718
1035,5868;0,214083
1036,5510;0,212253
1037,5153;0,210379
1038,4795;0,208607
1039,4437;0,207049
1040,4080;0,20577
1041,3722;0,204793
1042,3364;0,2041
1043,3007;0,203645
1044,2649;0,203357
1045,2291;0,20315
1046,1934;0,202932
1047,1576;0,202627
1048,1218;0,202183
1049,0861;0,201575
1050,0503;0,200789
1051,0145;0,199812
1051,9788;0,198633
1052,9430;0,197247
1053,9072;0,195663
1054,8715;0,193909
1055,8357;0,192003
1056,7999;0,189939
1057,7642;0,187673
1058,7284;0,185147
1059,6926;0,182318
1060,6569;0,1792
1061,6211;0,175873
1062,5853;0,172469
1063,5496;0,169127
1064,5138;0,165965
1065,4780;0,163049
1066,4423;0,160401
1067,4065;0,158008
1068,3707;0,155841
1069,3350;0,15386
1070,2992;0,152023
1071,2634;0,150282
1072,2277;0,148591
1073,1919;0,146901
1074,1561;0,145172
1075,1204;0,143378
1076,0846;0,14151
1077,0488;0,139577
1078,0131;0,137609
1078,9773;0,13565
1079,9415;0,133749
1080,9058;0,131954
1081,8700;0,130308
1082,8342;0,128838
1083,7985;0,127552
1084,7627;0,126443
1085,7269;0,125482
1086,6912;0,124638
1087,6554;0,123882
1088,6196;0,123202
1089,5839;0,122608
1090,5481;0,122121
1091,5123;0,121758
1092,4766;0,121521
1093,4408;0,121394
1094,4050;0,121352
1095,3693;0,12137
1096,3335;0,121437
1097,2977;0,121549
1098,2620;0,121709
1099,2262;0,121911
1100,1904;0,122137
1101,1547;0,122358
1102,1189;0,122535
1103,0831;0,122631
1104,0474;0,122618
1105,0116;0,122482
1105,9758;0,122228
1106,9401;0,121872
1107,9043;0,121433
1108,8685;0,120917
1109,8328;0,120304
1110,7970;0,11955
1111,7612;0,118606
1112,7255;0,117437
1113,6897;0,116055
1114,6539;0,114517
1115,6182;0,112921
1116,5824;0,111374
1117,5466;0,109958
1118,5109;0,108706
1119,4751;0,107596
1120,4393;0,106565
1121,4036;0,105529
1122,3678;0,104407
1123,3320;0,103141
1124,2963;0,101701
1125,2605;0,100086
1126,2247;0,0983151
1127,1890;0,0964289
1128,1532;0,0944758
1129,1174;0,0925049
1130,0817;0,0905565
1131,0459;0,0886572
1132,0101;0,0868223
1132,9744;0,0850652
1133,9386;0,0834063
1134,9028;0,0818781
1135,8671;0,0805205
1136,8313;0,0793706
1137,7955;0,0784524
1138,7598;0,0777727
1139,7240;0,077323
1140,6882;0,0770859
1141,6525;0,0770392
1142,6167;0,0771583
1143,5809;0,0774159
1144,5452;0,0777835
1145,5094;0,078235
1146,4736;0,0787507
1147,4379;0,0793196
1148,4021;0,0799375
1149,3663;0,0806019
1150,3306;0,0813062
1151,2948;0,0820359
1152,2590;0,0827674
1153,2233;0,0834694
1154,1875;0,0841041
1155,1517;0,0846292
1156,1160;0,0849983
1157,0802;0,085162
1158,0444;0,0850692
1159,0087;0,0846699
1159,9729;0,0839201
1160,9371;0,0827888
1161,9014;0,0812658
1162,8656;0,0793667
1163,8298;0,0771354
1164,7941;0,074641
1165,7583;0,0719718
1166,7225;0,0692274
1167,6868;0,0665079
1168,6510;0,0639022
1169,6152;0,0614771
1170,5795;0,05927
1171,5437;0,0572901
1172,5079;0,0555265
1173,4722;0,0539606
1174,4364;0,052576
1175,4006;0,0513612
1176,3649;0,050307
1177,3291;0,0494012
1178,2933;0,0486265
1179,2576;0,0479619
1180,2218;0,0473883
1181,1860;0,0468927
1182,1503;0,04647
1183,1145;0,0461211
1184,0787;0,0458494
1185,0430;0,0456576
1186,0072;0,0455457
1186,9714;0,0455125
1187,9357;0,045557
1188,8999;0,0456814
1189,8641;0,04589
1190,8284;0,0461877
1191,7926;0,0465758
1192,7568;0,0470493
1193,7211;0,0475977
1194,6853;0,0482076
1195,6495;0,0488661
1196,6138;0,0495616
1197,5780;0,0502825
1198,5422;0,0510148
1199,5065;0,0517253
1200,4707;0,0524379
1201,4349;0,0531243
1202,3992;0,0537825
1203,3634;0,0544145
1204,3276;0,0550224
1205,2919;0,0556062
1206,2561;0,0561649
1207,2203;0,0567014
1208,1846;0,057227
1209,1488;0,0577626
1210,1130;0,0583359
1211,0773;0,0589749
1212,0415;0,0597003
1213,0057;0,0605197
1213,9700;0,0614248
1214,9342;0,0623936
1215,8984;0,0633966
1216,8627;0,0644044
1217,8269;0,0653954
1218,7911;0,0663585
1219,7554;0,067292
1220,7196;0,068198
1221,6838;0,0690771
1222,6481;0,0699256
1223,6123;0,0707368
1224,5765;0,0715048
1225,5408;0,0722273
1226,5050;0,0729074
1227,4692;0,0735509
1228,4335;0,0741627
1229,3977;0,074743
1230,3619;0,0752861
1231,3262;0,0757816
1232,2904;0,0762187
1233,2546;0,0765911
1234,2189;0,0768996
1235,1831;0,0771522
1236,1473;0,0773598
1237,1116;0,0775314
1238,0758;0,0776691
1239,0400;0,0777684
1240,0043;0,0778216
1240,9685;0,0778219
1241,9327;0,0777674
1242,8970;0,0776595
1243,8612;0,0775005
1244,8254;0,0772899
1245,7897;0,0770244
1246,7539;0,0767013
1247,7181;0,0763228
1248,6824;0,0758981
1249,6466;0,0754409
1250,6108;0,0749654
1251,5751;0,0744817
1252,5393;0,0739948
1253,5035;0,0735061
1254,4678;0,0730144
1255,4320;0,0725169
1256,3962;0,0720075
1257,3605;0,0714776
1258,3247;0,0709186
1259,2889;0,0703256
1260,2532;0,0696999
1261,2174;0,0690473
1262,1816;0,0683735
1263,1459;0,0676801
1264,1101;0,0669642
1265,0743;0,066221
1266,0386;0,0654473
1267,0028;0,0646441
1267,9670;0,0638156
1268,9313;0,0629685
1269,8955;0,0621114
1270,8597;0,0612531
1271,8240;0,0604021
1272,7882;0,0595641
1273,7524;0,0587414
1274,7167;0,0579348
1275,6809;0,0571463
1276,6451;0,0563814
1277,6094;0,0556467
1278,5736;0,0549456
1279,5378;0,0542744
1280,5021;0,053623
1281,4663;0,0529801
1282,4305;0,0523405
1283,3948;0,0517087
1284,3590;0,0510976
1285,3232;0,0505236
1286,2875;0,0500021
1287,2517;0,0495448
1288,2159;0,0491596
1289,1802;0,0488509
1290,1444;0,0486188
1291,1086;0,04846
1292,0729;0,048368
1293,0371;0,048336
1294,0013;0,0483595
1294,9656;0,0484377
1295,9298;0,0485721
1296,8940;0,0487657
1297,8583;0,0490201
1298,8225;0,0493351
1299,7867;0,0497082
1300,7510;0,0501343
1301,7152;0,0506068
1302,6794;0,0511182
1303,6437;0,0516616
1304,6079;0,0522328
1305,5721;0,0528295
1306,5364;0,0534504
1307,5006;0,0540929
1308,4648;0,0547525
1309,4291;0,0554213
1310,3933;0,0560885
1311,3575;0,0567379
1312,3218;0,0573484
1313,2860;0,0578948
1314,2502;0,0583523
1315,2145;0,0587002
1316,1787;0,0589253
1317,1429;0,0590238
1318,1072;0,0590044
1319,0714;0,0588884
1320,0356;0,0587068
1320,9999;0,0584919
1321,9641;0,0582694
1322,9283;0,0580552
1323,8926;0,0578581
1324,8568;0,0576839
1325,8210;0,0575371
1326,7853;0,0574203
1327,7495;0,0573314
1328,7137;0,0572622
1329,6780;0,0571995
1330,6422;0,0571284
1331,6064;0,0570359
1332,5707;0,0569127
1333,5349;0,0567512
1334,4991;0,0565399
1335,4634;0,0562597
1336,4276;0,0558859
1337,3918;0,0554029
1338,3561;0,0548257
1339,3203;0,0542111
1340,2845;0,0536384
1341,2488;0,0531653
1342,2130;0,0528026
1343,1772;0,0525245
1344,1415;0,0522971
1345,1057;0,0520992
1346,0699;0,0519311
1347,0342;0,0518119
1347,9984;0,0517691
1348,9626;0,0518257
1349,9269;0,0519894
1350,8911;0,0522492
1351,8553;0,0525804
1352,8196;0,0529563
1353,7838;0,0533603
1354,7480;0,0537927
1355,7123;0,0542658
1356,6765;0,0547898
1357,6407;0,0553605
1358,6050;0,0559571
1359,5692;0,0565496
1360,5334;0,0571087
1361,4977;0,0576175
1362,4619;0,0580798
1363,4261;0,0585156
1364,3904;0,0589437
1365,3546;0,0593675
1366,3188;0,059776
1367,2831;0,0601525
1368,2473;0,0604811
1369,2115;0,0607467
1370,1758;0,0609292
1371,1400;0,0609987
1372,1042;0,0609196
1373,0685;0,0606697
1374,0327;0,0602668
1374,9969;0,0597732
1375,9612;0,0592561
1376,9254;0,0587355
1377,8896;0,0581739
1378,8539;0,0575145
1379,8181;0,0567324
1380,7823;0,0558609
1381,7466;0,0549717
1382,7108;0,0541215
1383,6750;0,0533115
1384,6393;0,0524927
1385,6035;0,0516147
1386,5677;0,0506903
1387,5320;0,049819
1388,4962;0,0491226
1389,4604;0,0486514
1390,4247;0,0483645
1391,3889;0,048179
1392,3531;0,0480202
1393,3174;0,0478447
1394,2816;0,0476438
1395,2458;0,0474353
1396,2101;0,0472469
1397,1743;0,0471036
1398,1385;0,0470249
1399,1028;0,0470254
1400,0670;0,0471084
1401,0313;0,0472601
1401,9955;0,0474519
1402,9597;0,047654
1403,9240;0,0478516
1404,8882;0,0480538
1405,8524;0,0482877
1406,8167;0,0485764
1407,7809;0,0489232
1408,7451;0,0493156
1409,7094;0,049743
1410,6736;0,0502077
1411,6378;0,0507209
1412,6021;0,0512861
1413,5663;0,0518865
1414,5305;0,0524864
1415,4948;0,0530409
1416,4590;0,0535067
1417,4232;0,0538573
1418,3875;0,0541064
1419,3517;0,0543084
1420,3159;0,054508
1421,2802;0,0546947
1422,2444;0,0548184
1423,2086;0,0548354
1424,1729;0,0547364
1425,1371;0,0545397
1426,1013;0,0542599
1427,0656;0,0538822
1428,0298;0,0533712
1428,9940;0,0527199
1429,9583;0,0519927
1430,9225;0,0513035
1431,8867;0,0507296
1432,8510;0,0502477
1433,8152;0,0497454
1434,7794;0,04909
1435,7437;0,0482369
1436,7079;0,0473198
1437,6721;0,0465815
1438,6364;0,0461612
1439,6006;0,0460168
1440,5648;0,046029
1441,5291;0,0461055
1442,4933;0,0462093
1443,4575;0,0463406
1444,4218;0,046507
1445,3860;0,0467028
1446,3502;0,0469074
1447,3145;0,0471044
1448,2787;0,047301
1449,2429;0,0475272
1450,2072;0,0478111
1451,1714;0,0481541
1452,1356;0,0485246
1453,0999;0,0488625
1454,0641;0,0490722
1455,0283;0,0490109
1455,9926;0,0485386
1456,9568;0,0477349
1457,9210;0,0470188
1458,8853;0,0467242
1459,8495;0,0467892
1460,8137;0,0469794
1461,7780;0,0470855
1462,7422;0,0469477
1463,7064;0,0464678
1464,6707;0,0456779
1465,6349;0,0447689
1466,5991;0,043951
1467,5634;0,0432866
1468,5276;0,042682
1469,4918;0,0419677
1470,4561;0,0409573
1471,4203;0,0395147
1472,3845;0,0376905
1473,3488;0,0358114
1474,3130;0,0342596
1475,2772;0,0331558
1476,2415;0,0323838
1477,2057;0,0317907
1478,1699;0,0312812
1479,1342;0,030815
1480,0984;0,0303851
1481,0626;0,0300063
1482,0269;0,029708
1482,9911;0,0295189
1483,9553;0,0294478
1484,9196;0,0294716
1485,8838;0,0295394
1486,8480;0,0295889
1487,8123;0,0295794
1488,7765;0,0295395
1489,7407;0,0295735
1490,7050;0,0297739
1491,6692;0,030144
1492,6334;0,0306276
1493,5977;0,031167
1494,5619;0,0317272
1495,5261;0,0322966
1496,4904;0,0328874
1497,4546;0,0335331
1498,4188;0,0342654
1499,3831;0,0350791
1500,3473;0,0359314
1501,3115;0,036768
1502,2758;0,0375416
1503,2400;0,0382088
1504,2042;0,0387106
1505,1685;0,0389446
1506,1327;0,0387882
1507,0969;0,0382971
1508,0612;0,0378139
1509,0254;0,037576
1509,9896;0,0375257
1510,9539;0,0375246
1511,9181;0,0374742
1512,8823;0,0373139
1513,8466;0,0370073
1514,8108;0,036549
1515,7750;0,035975
1516,7393;0,0353491
1517,7035;0,0347189
1518,6677;0,0340838
1519,6320;0,0334154
1520,5962;0,0327171
1521,5604;0,0320605
1522,5247;0,0315394
1523,4889;0,0311894
1524,4531;0,0309766
1525,4174;0,0308535
1526,3816;0,030804
1527,3458;0,0308394
1528,3101;0,0309652
1529,2743;0,0311592
1530,2385;0,0313805
1531,2028;0,0315947
1532,1670;0,0317998
1533,1312;0,0320367
1534,0955;0,0323572
1535,0597;0,0327728
1536,0239;0,0332413
1536,9882;0,0336901
1537,9524;0,0340253
1538,9166;0,0341212
1539,8809;0,0338696
1540,8451;0,0333739
1541,8093;0,0329767
1542,7736;0,0328592
1543,7378;0,0329313
1544,7020;0,0330675
1545,6663;0,0332098
1546,6305;0,0333458
1547,5947;0,0334702
1548,5590;0,0335684
1549,5232;0,0336251
1550,4874;0,0336464
1551,4517;0,0336722
1552,4159;0,0337586
1553,3801;0,0339357
1554,3444;0,0341777
1555,3086;0,0343935
1556,2728;0,0344186
1557,2371;0,0340383
1558,2013;0,0332208
1559,1655;0,032444
1560,1298;0,0322166
1561,0940;0,0324774
1562,0582;0,0329447
1563,0225;0,0334401
1563,9867;0,03389
1564,9509;0,0342651
1565,9152;0,0345479
1566,8794;0,0347295
1567,8436;0,0348313
1568,8079;0,0349248
1569,7721;0,0351043
1570,7363;0,0354151
1571,7006;0,0358237
1572,6648;0,0362549
1573,6290;0,0366354
1574,5933;0,0369222
1575,5575;0,0371323
1576,5217;0,0373605
1577,4860;0,0377138
1578,4502;0,0382143
1579,4144;0,0388064
1580,3787;0,0394264
1581,3429;0,040037
1582,3071;0,040628
1583,2714;0,0412092
1584,2356;0,0417994
1585,1998;0,0424138
1586,1641;0,0430535
1587,1283;0,0437049
1588,0925;0,0443452
1589,0568;0,0449503
1590,0210;0,0454994
1590,9852;0,0459731
1591,9495;0,0463507
1592,9137;0,0466111
1593,8779;0,0467434
1594,8422;0,0467576
1595,8064;0,0466858
1596,7706;0,0465682
1597,7349;0,0464351
1598,6991;0,046299
1599,6633;0,0461599
1600,6276;0,0460167
1601,5918;0,0458776
1602,5560;0,0457608
1603,5203;0,0456849
1604,4845;0,0456539
1605,4487;0,0456503
1606,4130;0,0456439
1607,3772;0,0456161
1608,3414;0,0455844
1609,3057;0,0456035
1610,2699;0,0457294
1611,2341;0,0459729
1612,1984;0,0462877
1613,1626;0,0465915
1614,1268;0,0467992
1615,0911;0,0468684
1616,0553;0,0468575
1617,0195;0,0469174
1617,9838;0,0471577
1618,9480;0,0475514
1619,9122;0,0479953
1620,8765;0,0483969
1621,8407;0,0487103
1622,8049;0,0489421
1623,7692;0,0491377
1624,7334;0,0493429
1625,6976;0,0495716
1626,6619;0,0498179
1627,6261;0,0500882
1628,5903;0,0504109
1629,5546;0,0508101
1630,5188;0,0512754
1631,4830;0,0517529
1632,4473;0,0521517
1633,4115;0,0523509
1634,3757;0,0522379
1635,3400;0,051835
1636,3042;0,0514015
1637,2684;0,0512216
1638,2327;0,0513356
1639,1969;0,0516223
1640,1611;0,0519697
1641,1254;0,052318
1642,0896;0,0526304
1643,0538;0,0528542
1644,0181;0,0529002
1644,9823;0,0526765
1645,9465;0,0522113
1646,9108;0,0517467
1647,8750;0,0515516
1648,8392;0,0516554
1649,8035;0,0518615
1650,7677;0,0518615
1651,7319;0,0512876
1652,6962;0,0499602
1653,6604;0,0484055
1654,6246;0,0474664
1655,5889;0,0472515
1656,5531;0,0473721
1657,5173;0,0475091
1658,4816;0,0474942
1659,4458;0,0472352
1660,4100;0,0466891
1661,3743;0,0459048
1662,3385;0,0450592
1663,3027;0,0443689
1664,2670;0,0439295
1665,2312;0,043673
1666,1954;0,0434381
1667,1597;0,0430446
1668,1239;0,0423658
1669,0881;0,0414303
1670,0524;0,0404568
1671,0166;0,0396795
1671,9808;0,0391367
1672,9451;0,0386874
1673,9093;0,0381688
1674,8735;0,0375265
1675,8378;0,0368557
1676,8020;0,03632
1677,7662;0,0360097
1678,7305;0,0358886
1679,6947;0,0358384
1680,6589;0,035701
1681,6232;0,0352877
1682,5874;0,0344368
1683,5516;0,0332125
1684,5159;0,0320176
1685,4801;0,0312166
1686,4443;0,0307976
1687,4086;0,030559
1688,3728;0,0303514
1689,3370;0,0301305
1690,3013;0,029919
1691,2655;0,0297535
1692,2297;0,0296468
1693,1940;0,029576
1694,1582;0,0294943
1695,1224;0,0293508
1696,0867;0,0291108
1697,0509;0,0287685
1698,0151;0,0283537
1698,9794;0,0279391
1699,9436;0,0276269
1700,9078;0,0274966
1701,8721;0,0275546
1702,8363;0,0277442
1703,8005;0,0279918
1704,7648;0,0282463
1705,7290;0,0284983
1706,6932;0,0287772
1707,6575;0,029126
1708,6217;0,0295699
1709,5859;0,030105
1710,5502;0,0307084
1711,5144;0,0313479
1712,4786;0,0319854
1713,4429;0,0325763
1714,4071;0,0330738
1715,3713;0,0334473
1716,3356;0,0337226
1717,2998;0,0339994
1718,2640;0,0343769
1719,2283;0,0348695
1720,1925;0,035428
1721,1567;0,0359999
1722,1210;0,0365488
1723,0852;0,0370521
1724,0494;0,0374985
1725,0137;0,0378906
1725,9779;0,038246
1726,9421;0,0385894
1727,9064;0,0389372
1728,8706;0,0392805
1729,8348;0,0395709
1730,7991;0,0397124
1731,7633;0,0395792
1732,7275;0,0391035
1733,6918;0,0384053
1734,6560;0,037756
1735,6202;0,0373275
1736,5845;0,0370745
1737,5487;0,036843
1738,5129;0,0364929
1739,4772;0,035958
1740,4414;0,0352671
1741,4056;0,0345182
1742,3699;0,0338041
1743,3341;0,0331535
1744,2983;0,0325385
1745,2626;0,0319125
1746,2268;0,031226
1747,1910;0,0304192
1748,1553;0,0294305
1749,1195;0,0282571
1750,0837;0,0270172
1751,0480;0,0258982
1752,0122;0,0250149
1752,9764;0,0243448
1753,9407;0,0237827
1754,9049;0,0232237
1755,8691;0,0226162
1756,8334;0,0219708
1757,7976;0,0213272
1758,7618;0,0207038
1759,7261;0,0200789
1760,6903;0,0194241
1761,6545;0,0187549
1762,6188;0,0181383
1763,5830;0,0176432
1764,5472;0,0172864
1765,5115;0,0170294
1766,4757;0,0168108
1767,4399;0,0165781
1768,4042;0,0162978
1769,3684;0,015949
1770,3326;0,0155199
1771,2969;0,0150263
1772,2611;0,0145385
1773,2253;0,0141596
1774,1896;0,0139509
1775,1538;0,0138922
1776,1180;0,0139109
1777,0823;0,0139288
1778,0465;0,0138928
1779,0107;0,0137887
1779,9750;0,0136404
1780,9392;0,0134881
1781,9034;0,0133583
1782,8677;0,0132535
1783,8319;0,0131683
1784,7961;0,0131095
1785,7604;0,0130956
1786,7246;0,0131384
1787,6888;0,0132242
1788,6531;0,0133112
1789,6173;0,013341
1790,5815;0,0132634
1791,5458;0,0130779
1792,5100;0,0128567
1793,4742;0,0126984
1794,4385;0,0126469
1795,4027;0,0126738
1796,3669;0,0127199
1797,3312;0,0127337
1798,2954;0,0126876
1799,2596;0,0125848
1800,2239;0,0124553
1801,1881;0,0123398
1802,1523;0,0122681
1803,1166;0,0122488
1804,0808;0,0122756
1805,0450;0,0123345
1806,0093;0,0124065
1806,9735;0,0124671
1807,9377;0,0124894
1808,9020;0,0124534
1809,8662;0,0123594
1810,8304;0,0122334
1811,7947;0,012113
1812,7589;0,0120257
1813,7231;0,0119752
1814,6874;0,0119489
1815,6516;0,0119332
1816,6158;0,0119267
1817,5801;0,0119415
1818,5443;0,011991
1819,5085;0,0120738
1820,4728;0,012167
1821,4370;0,0122374
1822,4012;0,0122596
1823,3655;0,0122337
1824,3297;0,0121862
1825,2939;0,0121502
1826,2582;0,0121362
1827,2224;0,0121199
1828,1866;0,012062
1829,1509;0,0119468
1830,1151;0,0118092
1831,0793;0,0117164
1832,0436;0,0117138
1833,0078;0,0117928
1833,9720;0,0119049
1834,9363;0,0119956
1835,9005;0,012035
1836,8647;0,0120329
1837,8290;0,0120287
1838,7932;0,0120581
1839,7574;0,0121232
1840,7217;0,0121901
1841,6859;0,0122077
1842,6501;0,0121377
1843,6144;0,0119873
1844,5786;0,0118179
1845,5428;0,0117024
1846,5071;0,0116685
1847,4713;0,0116926
1848,4355;0,0117344
1849,3998;0,0117651
1850,3640;0,011777
1851,3282;0,0117777
1852,2925;0,0117793
1853,2567;0,0117891
1854,2209;0,0118075
1855,1852;0,0118314
1856,1494;0,0118579
1857,1136;0,0118849
1858,0779;0,0119099
1859,0421;0,0119297
1860,0063;0,011943
1860,9706;0,0119526
1861,9348;0,0119651
1862,8990;0,0119852
1863,8633;0,0120108
1864,8275;0,0120296
1865,7917;0,0120223
1866,7560;0,0119713
1867,7202;0,0118756
1868,6844;0,0117601
1869,6487;0,0116642
1870,6129;0,011615
1871,5771;0,0116148
1872,5414;0,0116504
1873,5056;0,0117063
1874,4698;0,0117717
1875,4341;0,0118397
1876,3983;0,0119046
1877,3625;0,0119592
1878,3268;0,0119943
1879,2910;0,0120029
1880,2552;0,011984
1881,2195;0,0119462
1882,1837;0,0119057
1883,1479;0,0118801
1884,1122;0,0118805
1885,0764;0,0119064
1886,0406;0,0119463
1887,0049;0,0119825
1887,9691;0,011998
1888,9333;0,011983
1889,8976;0,0119399
1890,8618;0,0118816
1891,8260;0,0118247
1892,7903;0,0117831
1893,7545;0,0117646
1894,7188;0,0117705
1895,6830;0,011796
1896,6472;0,0118318
1897,6115;0,011867
1898,5757;0,0118933
1899,5399;0,0119073
1900,5042;0,0119109
1901,4684;0,0119102
1902,4326;0,0119138
1903,3969;0,0119289
1904,3611;0,0119574
1905,3253;0,0119936
1906,2896;0,0120253
1907,2538;0,0120387
1908,2180;0,0120255
1909,1823;0,0119894
1910,1465;0,0119455
1911,1107;0,0119123
1912,0750;0,0119024
1913,0392;0,0119187
1914,0034;0,0119577
1914,9677;0,0120144
1915,9319;0,0120826
1916,8961;0,0121522
1917,8604;0,0122061
1918,8246;0,0122236
1919,7888;0,0121903
1920,7531;0,0121072
1921,7173;0,0119923
1922,6815;0,0118745
1923,6458;0,011781
1924,6100;0,0117244
1925,5742;0,0116986
1926,5385;0,0116861
1927,5027;0,0116716
1928,4669;0,01165
1929,4312;0,0116275
1930,3954;0,0116168
1931,3596;0,0116302
1932,3239;0,0116746
1933,2881;0,0117484
1934,2523;0,0118405
1935,2166;0,011931
1936,1808;0,0119977
1937,1450;0,0120257
1938,1093;0,012016
1939,0735;0,0119862
1940,0377;0,0119618
1941,0020;0,0119626
1941,9662;0,0119878
1942,9304;0,012014
1943,8947;0,0120089
1944,8589;0,0119528
1945,8231;0,0118508
1946,7874;0,011728
1947,7516;0,0116169
1948,7158;0,011544
1949,6801;0,0115208
1950,6443;0,0115415
1951,6085;0,0115869
1952,5728;0,0116332
1953,5370;0,0116588
1954,5012;0,0116486
1955,4655;0,0115954
1956,4297;0,0115023
1957,3939;0,0113882
1958,3582;0,0112905
1959,3224;0,0112604
1960,2866;0,0113413
1961,2509;0,0115393
1962,2151;0,0118031
1963,1793;0,0120344
1964,1436;0,0121255
1965,1078;0,0120103
1966,0720;0,0117022
1967,0363;0,0112945
1968,0005;0,0109104
1968,9647;0,010633
1969,9290;0,0104697
1970,8932;0,0103773
1971,8574;0,0103202
1972,8217;0,010314
1973,7859;0,0104215
1974,7501;0,0107022
1975,7144;0,0111455
1976,6786;0,011643
1977,6428;0,0120338
1978,6071;0,0121981
1979,5713;0,0121256
1980,5355;0,0119073
1981,4998;0,0116715
1982,4640;0,0115169
1983,4282;0,0114773
1984,3925;0,0115241
1985,3567;0,0115958
1986,3209;0,0116377
1987,2852;0,0116324
1988,2494;0,0116068
1989,2136;0,0116148
1990,1779;0,0117049
1991,1421;0,0118881
1992,1063;0,012122
1993,0706;0,0123266
1994,0348;0,0124235
1994,9990;0,012374
1995,9633;0,0121965
1996,9275;0,0119571
1997,8917;0,0117445
1998,8560;0,011635
1999,8202;0,0116636
2000,7844;0,0118125
2001,7487;0,012027
2002,7129;0,0122447
2003,6771;0,0124228
2004,6414;0,0125487
2005,6056;0,0126327
2006,5698;0,0126894
2007,5341;0,0127198
2008,4983;0,0127076
2009,4625;0,0126332
2010,4268;0,0124939
2011,3910;0,0123171
2012,3552;0,0121567
2013,3195;0,0120742
2014,2837;0,0121137
2015,2479;0,0122818
2016,2122;0,0125417
2017,1764;0,0128283
2018,1406;0,013076
2019,1049;0,0132428
2020,0691;0,0133191
2021,0333;0,0133196
2021,9976;0,013272
2022,9618;0,0132064
2023,9260;0,0131471
2024,8903;0,0131028
2025,8545;0,0130591
2026,8187;0,0129831
2027,7830;0,0128464
2028,7472;0,0126543
2029,7114;0,0124617
2030,6757;0,0123536
2031,6399;0,0123948
2032,6041;0,012579
2033,5684;0,0128196
2034,5326;0,0130007
2035,4968;0,013056
2036,4611;0,0130155
2037,4253;0,0129826
2038,3895;0,0130607
2039,3538;0,0132802
2040,3180;0,0135765
2041,2822;0,0138294
2042,2465;0,0139396
2043,2107;0,0138884
2044,1749;0,0137405
2045,1392;0,0135968
2046,1034;0,0135328
2047,0676;0,0135622
2048,0320;0,0136444
2048,9961;0,0137216
2049,9604;0,0137547
2050,9246;0,0137342
2051,8889;0,0136685
2052,8530;0,0135709
2053,8174;0,013456
2054,7815;0,0133439
2055,7458;0,0132618
2056,7100;0,0132369
2057,6743;0,0132831
2058,6384;0,0133898
2059,6028;0,0135229
2060,5669;0,0136369
2061,5313;0,0136936
2062,4954;0,0136783
2063,4597;0,0136059
2064,4238;0,0135137
2065,3882;0,013444
2066,3523;0,0134244
2067,3167;0,0134543
2068,2808;0,0135065
2069,2451;0,0135435
2070,2092;0,0135395
2071,1736;0,0134976
2072,1377;0,0134498
2073,1021;0,0134397
2074,0662;0,0134953
2075,0305;0,0136107
2075,9946;0,013749
2076,9590;0,0138643
2077,9231;0,0139269
2078,8875;0,0139355
2079,8516;0,013908
2080,8159;0,0138632
2081,7800;0,0138083
2082,7444;0,0137434
2083,7085;0,013676
2084,6729;0,0136294
2085,6370;0,0136338
2086,6013;0,0137035
2087,5654;0,0138189
2088,5298;0,01393
2089,4939;0,0139844
2090,4583;0,0139609
2091,4224;0,0138848
2092,3867;0,0138135
2093,3508;0,0138006
2094,3152;0,013864
2095,2793;0,0139792
2096,2437;0,0141002
2097,2078;0,0141911
2098,1721;0,0142436
2099,1362;0,0142707
2100,1006;0,0142856
2101,0647;0,0142888
2102,0291;0,0142686
2102,9932;0,014215
2103,9575;0,0141301
2104,9216;0,0140293
2105,8860;0,0139338
2106,8501;0,0138616
2107,8145;0,0138234
2108,7786;0,0138224
2109,7429;0,013854
2110,7070;0,0139047
2111,6714;0,0139526
2112,6355;0,0139739
2113,5999;0,0139543
2114,5640;0,0138993
2115,5283;0,0138341
2116,4924;0,0137918
2117,4568;0,0137956
2118,4209;0,0138469
2119,3853;0,0139255
2120,3494;0,0140029
2121,3137;0,0140593
2122,2778;0,0140922
2123,2422;0,0141117
2124,2063;0,0141252
2125,1707;0,0141258
2126,1348;0,0140921
2127,0991;0,0140034
2128,0632;0,013861
2129,0276;0,0136992
2129,9917;0,0135778
2130,9561;0,0135572
2131,9202;0,0136679
2132,8845;0,0138908
2133,8486;0,0141598
2134,8130;0,0143873
2135,7771;0,0145009
2136,7415;0,0144728
2137,7056;0,0143275
2138,6699;0,0141284
2139,6340;0,0139547
2140,5984;0,0138763
2141,5625;0,0139323
2142,5269;0,0141165
2143,4910;0,0143778
2144,4553;0,014639
2145,4194;0,0148313
2146,3838;0,0149281
2147,3479;0,0149569
2148,3123;0,014981
2149,2764;0,0150585
2150,2407;0,0152047
2151,2048;0,015379
2152,1692;0,0155045
2153,1333;0,015506
2154,0977;0,0153481
2155,0618;0,0150558
2156,0261;0,0147163
2156,9902;0,0144588
2157,9546;0,0144089
2158,9187;0,0146244
2159,8831;0,0150534
2160,8472;0,0155563
2161,8115;0,0159745
2162,7756;0,0161963
2163,7400;0,016188
2164,7041;0,015995
2165,6685;0,0157182
2166,6326;0,015471
2167,5969;0,0153321
2168,5610;0,0153164
2169,5254;0,0153799
2170,4895;0,0154519
2171,4539;0,0154739
2172,4180;0,0154238
2173,3823;0,015317
2174,3464;0,0151869
2175,3108;0,0150634
2176,2749;0,0149634
2177,2393;0,0148961
2178,2034;0,0148722
2179,1677;0,0149009
2180,1318;0,0149769
2181,0962;0,0150679
2182,0603;0,0151234
2183,0247;0,015105
2183,9888;0,0150188
2184,9531;0,0149203
2185,9172;0,014884
2186,8816;0,0149561
2187,8457;0,015124
2188,8101;0,015322
2189,7742;0,0154675
2190,7385;0,0155026
2191,7026;0,0154144
2192,6670;0,015229
2193,6311;0,0149914
2194,5955;0,0147521
2195,5596;0,0145641
2196,5239;0,014481
2197,4880;0,0145417
2198,4524;0,0147433
2199,4165;0,0150217
2200,3809;0,0152624
2201,3450;0,0153492
2202,3093;0,015225
2203,2734;0,0149289
2204,2378;0,0145816
2205,2019;0,0143246
2206,1663;0,0142492
2207,1304;0,0143544
2208,0947;0,0145569
2209,0588;0,0147438
2210,0232;0,0148333
2210,9873;0,0148122
2211,9517;0,0147292
2212,9158;0,0146563
2213,8801;0,0146421
2214,8442;0,0146856
2215,8086;0,0147425
2216,7727;0,0147579
2217,7371;0,0147032
2218,7012;0,014595
2219,6655;0,0144876
2220,6296;0,0144441
2221,5940;0,0145042
2222,5581;0,0146649
2223,5225;0,0148813
2224,4866;0,0150844
2225,4509;0,0152059
2226,4150;0,0152013
2227,3794;0,0150629
2228,3435;0,0148223
2229,3079;0,0145388
2230,2720;0,014281
2231,2363;0,0141059
2232,2004;0,0140446
2233,1648;0,0140983
2234,1289;0,0142428
2235,0933;0,0144381
2236,0574;0,0146373
2237,0217;0,0147964
2237,9858;0,0148854
2238,9502;0,0148991
2239,9143;0,0148596
2240,8787;0,0148068
2241,8428;0,014777
2242,8071;0,0147825
2243,7712;0,014805
2244,7356;0,0148095
2245,6997;0,0147688
2246,6641;0,0146828
2247,6282;0,0145778
2248,5925;0,0144889
2249,5566;0,0144377
2250,5210;0,0144241
2251,4851;0,0144338
2252,4495;0,014454
2253,4136;0,0144832
2254,3779;0,0145271
2255,3420;0,0145855
2256,3064;0,0146449
2257,2705;0,0146817
2258,2349;0,014676
2259,1990;0,0146246
2260,1633;0,0145425
2261,1274;0,0144541
2262,0918;0,0143807
2263,0559;0,0143333
2264,0203;0,0143142
2264,9844;0,0143233
2265,9487;0,0143621
2266,9128;0,01443
2267,8772;0,0145185
2268,8413;0,0146076
2269,8057;0,0146723
2270,7698;0,0146945
2271,7341;0,014673
2272,6982;0,0146245
2273,6626;0,0145729
2274,6267;0,0145351
2275,5911;0,0145135
2276,5552;0,0144996
2277,5195;0,0144859
2278,4836;0,0144755
2279,4480;0,0144825
2280,4121;0,0145227
2281,3765;0,0146018
2282,3406;0,0147105
2283,3049;0,014829
2284,2690;0,014937
2285,2334;0,0150208
2286,1975;0,0150755
2287,1619;0,0151024
2288,1260;0,0151059
2289,0903;0,0150923
2290,0544;0,01507
2291,0188;0,0150484
2291,9829;0,0150345
2292,9473;0,0150304
2293,9114;0,0150335
2294,8757;0,0150411
2295,8398;0,0150554
2296,8042;0,0150844
2297,7683;0,0151376
2298,7327;0,0152177
2299,6968;0,0153156
2300,6611;0,0154133
2301,6252;0,0154921
2302,5896;0,0155421
2303,5537;0,0155654
2304,5181;0,0155735
2305,4822;0,015581
2306,4465;0,0155989
2307,4106;0,0156325
2308,3750;0,0156813
2309,3391;0,015741
2310,3035;0,0158042
2311,2676;0,0158621
2312,2319;0,0159061
2313,1960;0,0159307
2314,1604;0,0159346
2315,1245;0,0159211
2316,0889;0,0158971
2317,0530;0,0158737
2318,0173;0,0158647
2318,9814;0,0158833
2319,9458;0,0159347
2320,9099;0,0160089
2321,8743;0,0160809
2322,8384;0,0161224
2323,8027;0,0161162
2324,7668;0,0160637
2325,7312;0,0159815
2326,6953;0,0158921
2327,6597;0,015814
2328,6238;0,0157536
2329,5881;0,0157045
2330,5522;0,0156548
2331,5166;0,015598
2332,4807;0,0155365
2333,4451;0,0154742
2334,4092;0,0154101
2335,3735;0,0153398
2336,3376;0,0152637
2337,3020;0,015195
2338,2661;0,0151545
2339,2305;0,0151531
2340,1946;0,0151728
2341,1589;0,0151654
2342,1230;0,0150819
2343,0874;0,0149282
2344,0515;0,0148014
2345,0159;0,0148335
2345,9800;0,0150762
2346,9443;0,0154627
2347,9084;0,0158683
2348,8728;0,0161843
2349,8369;0,0163539
2350,8013;0,0163774
2351,7654;0,0163031
2352,7297;0,0162069
2353,6938;0,0161622
2354,6582;0,0162076
2355,6223;0,0163263
2356,5867;0,016453
2357,5508;0,0165055
2358,5151;0,0164323
2359,4792;0,0162466
2360,4436;0,016016
2361,4077;0,0158053
2362,3721;0,0156267
2363,3362;0,0154407
2364,3005;0,015203
2365,2646;0,0149118
2366,2290;0,0146171
2367,1931;0,0143898
2368,1575;0,0142774
2369,1216;0,0142774
2370,0859;0,0143418
2371,0500;0,0144056
2372,0144;0,0144205
2372,9785;0,0143774
2373,9429;0,0143046
2374,9070;0,0142484
2375,8713;0,0142482
2376,8354;0,0143194
2377,7998;0,0144505
2378,7639;0,0146132
2379,7283;0,0147755
2380,6924;0,0149121
2381,6567;0,0150085
2382,6208;0,0150611
2383,5852;0,0150753
2384,5493;0,0150637
2385,5137;0,0150434
2386,4778;0,0150305
2387,4421;0,0150347
2388,4063;0,0150548
2389,3706;0,0150804
2390,3347;0,0150981
2391,2991;0,0151007
2392,2632;0,0150913
2393,2275;0,015081
2394,1917;0,0150815
2395,1560;0,0150982
2396,1201;0,0151282
2397,0845;0,0151637
2398,0486;0,0151975
2399,0129;0,0152254
2399,9771;0,0152457
2400,9414;0,0152586
2401,9055;0,0152664
2402,8699;0,015274
2403,8340;0,0152887
2404,7983;0,0153155
2405,7625;0,0153525
2406,7268;0,0153893
2407,6909;0,0154115
2408,6553;0,0154107
2409,6194;0,0153912
2410,5837;0,0153695
2411,5479;0,0153661
2412,5122;0,0153933
2413,4763;0,0154482
2414,4407;0,0155134
2415,4048;0,0155661
2416,3691;0,0155895
2417,3333;0,0155808
2418,2976;0,015552
2419,2617;0,0155234
2420,2261;0,0155136
2421,1902;0,0155311
2422,1545;0,0155717
2423,1187;0,0156225
2424,0830;0,0156702
2425,0471;0,0157078
2426,0115;0,0157363
2426,9756;0,0157604
2427,9399;0,0157826
2428,9041;0,0158003
2429,8684;0,0158081
2430,8325;0,015803
2431,7969;0,0157888
2432,7610;0,0157749
2433,7253;0,0157715
2434,6895;0,0157842
2435,6538;0,0158124
2436,6179;0,0158516
2437,5823;0,0158975
2438,5464;0,015947
2439,5107;0,0159968
2440,4749;0,0160418
2441,4392;0,0160745
2442,4033;0,01609
2443,3677;0,0160905
2444,3318;0,0160866
2445,2961;0,0160931
2446,2603;0,0161198
2447,2246;0,0161651
2448,1887;0,0162153
2449,1531;0,0162518
2450,1172;0,0162624
2451,0815;0,0162483
2452,0457;0,0162238
2453,0100;0,0162078
2453,9741;0,0162133
2454,9385;0,0162406
2455,9026;0,016278
2456,8669;0,0163088
2457,8311;0,0163197
2458,7954;0,016307
2459,7595;0,0162773
2460,7239;0,0162441
2461,6880;0,0162225
2462,6523;0,0162239
2463,6165;0,0162528
2464,5808;0,0163055
2465,5449;0,0163714
2466,5093;0,0164371
2467,4734;0,0164897
2468,4377;0,0165206
2469,4019;0,0165278
2470,3662;0,0165153
2471,3303;0,0164922
2472,2947;0,0164698
2473,2588;0,0164584
2474,2231;0,0164639
2475,1873;0,0164863
2476,1516;0,0165207
2477,1157;0,0165609
2478,0801;0,0166027
2479,0442;0,0166459
2480,0085;0,0166919
2480,9727;0,0167392
2481,9370;0,016781
2482,9011;0,0168073
2483,8655;0,0168108
2484,8296;0,0167922
2485,7939;0,0167614
2486,7581;0,0167327
2487,7224;0,0167169
2488,6865;0,0167163
2489,6509;0,0167254
2490,6150;0,0167366
2491,5793;0,0167456
2492,5435;0,0167545
2493,5078;0,0167687
2494,4719;0,0167924
2495,4363;0,0168247
2496,4004;0,0168592
2497,3647;0,0168867
2498,3289;0,0168993
2499,2932;0,0168939
2500,2573;0,0168738
2501,2217;0,0168479
2502,1858;0,016828
2503,1501;0,0168238
2504,1143;0,0168381
2505,0786;0,0168656
2506,0427;0,0168949
2507,0071;0,0169146
2507,9712;0,0169183
2508,9355;0,0169085
2509,8997;0,016894
2510,8640;0,0168859
2511,8281;0,0168927
2512,7925;0,0169172
2513,7566;0,0169565
2514,7209;0,0170025
2515,6851;0,0170441
2516,6494;0,0170696
2517,6135;0,017071
2518,5779;0,0170476
2519,5420;0,0170085
2520,5063;0,016969
2521,4705;0,0169448
2522,4348;0,0169448
2523,3989;0,0169676
2524,3633;0,0170034
2525,3274;0,0170391
2526,2917;0,0170645
2527,2559;0,0170747
2528,2202;0,0170704
2529,1843;0,0170558
2530,1487;0,0170374
2531,1128;0,0170229
2532,0771;0,0170194
2533,0413;0,0170313
2534,0056;0,0170577
2534,9697;0,0170913
2535,9341;0,0171212
2536,8982;0,0171376
2537,8625;0,0171371
2538,8267;0,0171258
2539,7910;0,0171162
2540,7551;0,0171216
2541,7195;0,017148
2542,6836;0,0171897
2543,6479;0,0172311
2544,6121;0,0172546
2545,5764;0,0172503
2546,5405;0,0172222
2547,5049;0,0171865
2548,4690;0,0171629
2549,4333;0,017164
2550,3975;0,0171885
2551,3618;0,0172236
2552,3259;0,0172538
2553,2903;0,0172696
2554,2544;0,017272
2555,2188;0,0172701
2556,1829;0,0172739
2557,1472;0,017288
2558,1113;0,0173096
2559,0757;0,017331
2560,0398;0,0173446
2561,0042;0,0173471
2561,9683;0,0173404
2562,9326;0,0173299
2563,8967;0,0173207
2564,8611;0,0173152
2565,8252;0,0173131
2566,7896;0,0173132
2567,7537;0,0173158
2568,7180;0,0173227
2569,6821;0,0173356
2570,6465;0,0173525
2571,6106;0,0173687
2572,5750;0,0173788
2573,5391;0,0173817
2574,5034;0,0173819
2575,4675;0,0173863
2576,4319;0,0173993
2577,3960;0,0174184
2578,3604;0,0174361
2579,3245;0,0174456
2580,2888;0,0174465
2581,2529;0,0174452
2582,2173;0,0174505
2583,1814;0,0174675
2584,1458;0,0174948
2585,1099;0,0175261
2586,0742;0,0175551
2587,0383;0,0175776
2588,0027;0,0175921
2588,9668;0,0175974
2589,9312;0,0175929
2590,8953;0,01758
2591,8596;0,0175642
2592,8237;0,017555
2593,7881;0,0175622
2594,7522;0,0175902
2595,7166;0,0176356
2596,6807;0,0176881
2597,6450;0,0177349
2598,6091;0,0177667
2599,5735;0,0177805
2600,5376;0,0177796
2601,5020;0,0177713
2602,4661;0,0177631
2603,4304;0,0177603
2604,3945;0,0177651
2605,3589;0,0177776
2606,3230;0,0177976
2607,2874;0,0178255
2608,2515;0,0178612
2609,2158;0,0179023
2610,1799;0,0179431
2611,1443;0,0179749
2612,1084;0,0179901
2613,0728;0,0179865
2614,0369;0,017969
2615,0012;0,017948
2615,9653;0,0179351
2616,9297;0,0179374
2617,8938;0,0179555
2618,8582;0,0179842
2619,8223;0,0180155
2620,7866;0,0180424
2621,7507;0,0180616
2622,7151;0,0180745
2623,6792;0,0180862
2624,6436;0,018103
2625,6077;0,018129
2626,5720;0,0181629
2627,5361;0,0181986
2628,5005;0,0182277
2629,4646;0,0182446
2630,4290;0,0182508
2631,3931;0,0182545
2632,3574;0,0182663
2633,3215;0,0182926
2634,2859;0,0183318
2635,2500;0,0183752
2636,2144;0,0184124
2637,1785;0,018438
2638,1428;0,0184545
2639,1069;0,0184702
2640,0713;0,018493
2641,0354;0,0185258
2641,9998;0,0185642
2642,9639;0,0186
2643,9282;0,0186255
2644,8923;0,0186377
2645,8567;0,0186386
2646,8208;0,0186335
2647,7852;0,0186275
2648,7493;0,018625
2649,7136;0,0186292
2650,6777;0,0186428
2651,6421;0,0186681
2652,6062;0,0187051
2653,5706;0,0187511
2654,5347;0,0188006
2655,4990;0,0188467
2656,4631;0,0188837
2657,4275;0,0189086
2658,3916;0,0189216
2659,3560;0,0189254
2660,3201;0,0189237
2661,2844;0,0189205
2662,2485;0,0189193
2663,2129;0,0189229
2664,1770;0,0189329
2665,1414;0,0189501
2666,1055;0,0189742
2667,0698;0,0190036
2668,0339;0,0190354
2668,9983;0,0190659
2669,9624;0,019092
2670,9268;0,0191126
2671,8909;0,0191295
2672,8552;0,0191468
2673,8193;0,0191687
2674,7837;0,0191967
2675,7478;0,0192281
2676,7122;0,0192578
2677,6763;0,0192816
2678,6406;0,0192995
2679,6047;0,0193164
2680,5691;0,0193388
2681,5332;0,019371
2682,4976;0,0194117
2683,4617;0,0194547
2684,4260;0,0194921
2685,3901;0,0195196
2686,3545;0,0195385
2687,3186;0,0195547
2688,2830;0,0195746
2689,2471;0,0196023
2690,2114;0,0196372
2691,1755;0,0196762
2692,1399;0,0197158
2693,1040;0,0197543
2694,0684;0,0197916
2695,0325;0,0198279
2695,9968;0,0198621
2696,9609;0,0198925
2697,9253;0,0199181
2698,8894;0,0199398
2699,8538;0,0199607
2700,8179;0,0199847
2701,7822;0,0200142
2702,7463;0,0200487
2703,7107;0,0200857
2704,6748;0,0201219
2705,6392;0,0201548
2706,6033;0,0201842
2707,5676;0,0202118
2708,5317;0,0202403
2709,4961;0,0202718
2710,4602;0,0203073
2711,4246;0,020346
2712,3887;0,0203856
2713,3530;0,0204233
2714,3171;0,0204568
2715,2815;0,0204853
2716,2456;0,0205094
2717,2100;0,0205305
2718,1741;0,0205504
2719,1384;0,0205702
2720,1025;0,0205902
2721,0669;0,0206101
2722,0310;0,0206296
2722,9954;0,0206483
2723,9595;0,0206667
2724,9238;0,020686
2725,8879;0,0207079
2726,8523;0,0207342
2727,8164;0,0207655
2728,7808;0,0208007
2729,7449;0,0208378
2730,7092;0,0208744
2731,6733;0,0209096
2732,6377;0,0209432
2733,6018;0,0209754
2734,5662;0,0210052
2735,5303;0,02103
2736,4946;0,021047
2737,4587;0,0210557
2738,4231;0,0210597
2739,3872;0,0210667
2740,3516;0,0210847
2741,3157;0,0211184
2742,2800;0,0211652
2743,2441;0,0212157
2744,2085;0,0212571
2745,1726;0,0212795
2746,1370;0,0212804
2747,1011;0,0212665
2748,0654;0,0212501
2749,0295;0,0212439
2749,9939;0,0212557
2750,9580;0,0212861
2751,9224;0,0213299
2752,8865;0,0213799
2753,8508;0,0214302
2754,8149;0,0214779
2755,7793;0,021523
2756,7434;0,0215666
2757,7078;0,021609
2758,6719;0,0216498
2759,6362;0,0216881
2760,6003;0,0217233
2761,5647;0,0217565
2762,5288;0,0217892
2763,4932;0,0218229
2764,4573;0,0218581
2765,4216;0,0218938
2766,3857;0,0219284
2767,3501;0,021961
2768,3142;0,0219918
2769,2786;0,0220223
2770,2427;0,0220536
2771,2070;0,0220864
2772,1711;0,0221206
2773,1355;0,0221564
2774,0996;0,022195
2775,0640;0,022238
2776,0281;0,0222861
2776,9924;0,0223378
2777,9565;0,02239
2778,9209;0,0224394
2779,8850;0,0224851
2780,8494;0,0225289
2781,8135;0,0225742
2782,7778;0,0226228
2783,7419;0,022673
2784,7063;0,0227204
2785,6704;0,0227609
2786,6348;0,0227936
2787,5989;0,0228226
2788,5632;0,0228558
2789,5273;0,0229017
2790,4917;0,0229657
2791,4558;0,0230474
2792,4202;0,0231403
2793,3843;0,0232338
2794,3486;0,0233166
2795,3127;0,0233811
2796,2771;0,0234269
2797,2412;0,0234607
2798,2056;0,0234939
2799,1697;0,0235376
2800,1340;0,0235983
2801,0981;0,023676
2802,0625;0,0237656
2803,0266;0,0238607
2803,9910;0,0239561
2804,9551;0,024049
2805,9194;0,0241388
2806,8835;0,024226
2807,8479;0,0243118
2808,8120;0,0243986
2809,7764;0,0244896
2810,7405;0,0245874
2811,7048;0,0246921
2812,6689;0,0248014
2813,6333;0,0249114
2814,5974;0,0250197
2815,5618;0,0251273
2816,5259;0,025238
2817,4902;0,0253561
2818,4543;0,0254838
2819,4187;0,0256201
2820,3828;0,0257617
2821,3472;0,0259047
2822,3113;0,0260461
2823,2756;0,0261841
2824,2397;0,0263181
2825,2041;0,0264488
2826,1682;0,0265792
2827,1326;0,0267149
2828,0967;0,0268641
2829,0610;0,0270347
2830,0251;0,0272312
2830,9895;0,0274523
2831,9536;0,0276909
2832,9180;0,0279361
2833,8821;0,0281775
2834,8464;0,0284091
2835,8105;0,0286315
2836,7749;0,0288515
2837,7390;0,0290803
2838,7034;0,0293301
2839,6675;0,0296113
2840,6318;0,0299309
2841,5959;0,0302928
2842,5603;0,0306977
2843,5244;0,0311431
2844,4888;0,0316207
2845,4529;0,0321134
2846,4172;0,0325936
2847,3813;0,0330257
2848,3457;0,0333727
2849,3098;0,033607
2850,2742;0,0337191
2851,2383;0,0337218
2852,2026;0,0336469
2853,1667;0,0335352
2854,1311;0,0334249
2855,0952;0,0333422
2856,0596;0,0332983
2857,0237;0,0332922
2857,9880;0,0333181
2858,9521;0,0333706
2859,9165;0,0334482
2860,8806;0,0335516
2861,8450;0,0336801
2862,8091;0,0338301
2863,7734;0,0339948
2864,7375;0,0341673
2865,7019;0,0343429
2866,6660;0,0345185
2867,6304;0,0346908
2868,5945;0,0348541
2869,5588;0,0350005
2870,5229;0,0351237
2871,4873;0,0352234
2872,4514;0,0353077
2873,4158;0,0353898
2874,3799;0,035482
2875,3442;0,0355887
2876,3083;0,0357042
2877,2727;0,0358162
2878,2368;0,0359123
2879,2012;0,0359873
2880,1653;0,0360455
2881,1296;0,0360983
2882,0938;0,0361581
2883,0581;0,0362329
2884,0222;0,0363232
2884,9866;0,036423
2885,9507;0,0365235
2886,9150;0,0366178
2887,8792;0,0367036
2888,8435;0,0367832
2889,8076;0,0368611
2890,7720;0,0369408
2891,7361;0,0370227
2892,7004;0,0371038
2893,6646;0,0371803
2894,6289;0,0372508
2895,5930;0,0373177
2896,5574;0,0373863
2897,5215;0,0374616
2898,4858;0,0375441
2899,4500;0,0376287
2900,4143;0,0377062
2901,3784;0,0377687
2902,3428;0,037815
2903,3069;0,037853
2904,2712;0,0378971
2905,2354;0,0379621
2906,1997;0,0380567
2907,1638;0,0381806
2908,1282;0,0383287
2909,0923;0,0384967
2910,0566;0,0386864
2911,0208;0,0389045
2911,9851;0,0391548
2912,9492;0,0394288
2913,9136;0,0397013
2914,8777;0,0399341
2915,8420;0,0400885
2916,8062;0,0401389
2917,7705;0,0400814
2918,7346;0,0399331
2919,6990;0,0397234
2920,6631;0,0394829
2921,6274;0,0392344
2922,5916;0,0389905
2923,5559;0,0387545
2924,5200;0,0385242
2925,4844;0,0382954
2926,4485;0,0380652
2927,4128;0,0378336
2928,3770;0,0376047
2929,3413;0,037386
2930,3054;0,037186
2931,2698;0,0370096
2932,2339;0,0368561
2933,1982;0,0367181
2934,1624;0,0365846
2935,1267;0,0364459
2936,0908;0,0362971
2937,0552;0,0361387
2938,0193;0,0359743
2938,9836;0,0358066
2939,9478;0,0356346
2940,9121;0,0354537
2941,8762;0,0352582
2942,8406;0,0350457
2943,8047;0,034819
2944,7690;0,0345866
2945,7332;0,0343589
2946,6975;0,034144
2947,6616;0,0339447
2948,6260;0,0337586
2949,5901;0,0335801
2950,5544;0,0334048
2951,5186;0,0332313
2952,4829;0,0330613
2953,4470;0,0328972
2954,4114;0,03274
2955,3755;0,0325881
2956,3398;0,0324383
2957,3040;0,0322881
2958,2683;0,032137
2959,2324;0,0319863
2960,1968;0,0318376
2961,1609;0,0316912
2962,1252;0,0315465
2963,0894;0,0314022
2964,0537;0,0312575
2965,0178;0,031113
2965,9822;0,0309691
2966,9463;0,030826
2967,9106;0,0306826
2968,8748;0,0305368
2969,8391;0,0303863
2970,8032;0,0302294
2971,7676;0,0300659
2972,7317;0,0298978
2973,6960;0,0297298
2974,6602;0,0295678
2975,6245;0,0294177
2976,5886;0,0292827
2977,5530;0,0291631
2978,5171;0,0290564
2979,4814;0,0289594
2980,4456;0,0288698
2981,4099;0,028786
2982,3740;0,0287075
2983,3384;0,0286336
2984,3025;0,0285638
2985,2668;0,0284981
2986,2310;0,0284364
2987,1953;0,0283774
2988,1594;0,0283188
2989,1238;0,0282578
2990,0879;0,0281938
2991,0522;0,0281301
2992,0164;0,0280732
2992,9807;0,0280303
2993,9448;0,0280048
2994,9092;0,0279955
2995,8733;0,0279979
2996,8376;0,028008
2997,8018;0,0280248
2998,7661;0,0280488
2999,7302;0,0280799
3000,6946;0,0281148
3001,6587;0,0281483
3002,6230;0,0281768
3003,5872;0,0282012
3004,5515;0,0282265
3005,5156;0,0282584
3006,4800;0,0282985
3007,4441;0,0283429
3008,4084;0,0283844
3009,3726;0,0284182
3010,3369;0,0284454
3011,3010;0,0284736
3012,2654;0,0285118
3013,2295;0,0285651
3014,1938;0,0286315
3015,1580;0,0287037
3016,1223;0,0287739
3017,0864;0,028839
3018,0508;0,0289017
3019,0149;0,0289677
3019,9792;0,029041
3020,9434;0,0291211
3021,9077;0,0292039
3022,8718;0,0292854
3023,8362;0,0293647
3024,8003;0,0294447
3025,7646;0,0295298
3026,7288;0,0296217
3027,6931;0,0297178
3028,6572;0,0298124
3029,6216;0,0298994
3030,5857;0,0299755
3031,5500;0,0300417
3032,5142;0,0301026
3033,4785;0,0301648
3034,4426;0,0302351
3035,4070;0,0303186
3036,3711;0,0304171
3037,3354;0,0305279
3038,2996;0,0306445
3039,2639;0,0307592
3040,2280;0,0308669
3041,1924;0,0309687
3042,1565;0,0310703
3043,1208;0,0311787
3044,0850;0,0312965
3045,0493;0,0314196
3046,0134;0,0315398
3046,9778;0,0316505
3047,9419;0,0317516
3048,9063;0,0318503
3049,8704;0,0319563
3050,8347;0,0320751
3051,7988;0,0322047
3052,7632;0,0323363
3053,7273;0,0324609
3054,6917;0,032574
3055,6558;0,0326791
3056,6201;0,0327848
3057,5842;0,0329004
3058,5486;0,0330308
3059,5127;0,0331741
3060,4771;0,0333229
3061,4412;0,0334669
3062,4055;0,0335969
3063,3696;0,0337083
3064,3340;0,0338036
3065,2981;0,0338922
3066,2625;0,0339862
3067,2266;0,0340952
3068,1909;0,0342222
3069,1550;0,0343628
3070,1194;0,0345087
3071,0835;0,0346523
3072,0479;0,0347895
3073,0120;0,0349194
3073,9763;0,0350425
3074,9404;0,035159
3075,9048;0,0352695
3076,8689;0,0353754
3077,8333;0,0354798
3078,7974;0,035586
3079,7617;0,035695
3080,7258;0,0358049
3081,6902;0,0359122
3082,6543;0,0360148
3083,6187;0,036114
3084,5828;0,0362148
3085,5471;0,0363231
3086,5112;0,0364427
3087,4756;0,0365734
3088,4397;0,0367109
3089,4041;0,0368488
3090,3682;0,036981
3091,3325;0,0371046
3092,2966;0,0372208
3093,2610;0,0373339
3094,2251;0,0374493
3095,1895;0,0375695
3096,1536;0,0376929
3097,1179;0,0378144
3098,0820;0,0379287
3099,0464;0,0380348
3100,0105;0,0381372
3100,9749;0,0382443
3101,9390;0,0383641
3102,9033;0,0384998
3103,8674;0,0386481
3104,8318;0,038801
3105,7959;0,0389501
3106,7603;0,0390904
3107,7244;0,0392231
3108,6887;0,0393544
3109,6528;0,0394922
3110,6172;0,0396419
3111,5813;0,0398032
3112,5457;0,03997
3113,5098;0,040133
3114,4741;0,0402839
3115,4382;0,0404189
3116,4026;0,0405403
3117,3667;0,0406543
3118,3311;0,0407689
3119,2952;0,0408905
3120,2595;0,0410233
3121,2236;0,0411684
3122,1880;0,0413247
3123,1521;0,041489
3124,1165;0,041657
3125,0806;0,0418244
3126,0449;0,0419879
3127,0090;0,0421464
3127,9734;0,0423006
3128,9375;0,0424523
3129,9019;0,0426034
3130,8660;0,0427551
3131,8303;0,042908
3132,7944;0,0430629
3133,7588;0,0432214
3134,7229;0,0433858
3135,6873;0,0435582
3136,6514;0,0437387
3137,6157;0,0439238
3138,5798;0,0441077
3139,5442;0,0442835
3140,5083;0,0444476
3141,4727;0,0446014
3142,4368;0,0447514
3143,4011;0,0449055
3144,3652;0,0450694
3145,3296;0,0452435
3146,2937;0,0454236
3147,2581;0,0456037
3148,2222;0,0457795
3149,1865;0,0459503
3150,1506;0,0461187
3151,1150;0,0462888
3152,0791;0,0464642
3153,0435;0,0466466
3154,0076;0,0468354
3154,9719;0,0470284
3155,9360;0,0472227
3156,9004;0,0474158
3157,8645;0,0476066
3158,8289;0,0477956
3159,7930;0,0479838
3160,7573;0,0481717
3161,7214;0,0483589
3162,6858;0,0485449
3163,6499;0,04873
3164,6143;0,0489157
3165,5784;0,0491032
3166,5427;0,0492907
3167,5068;0,0494734
3168,4712;0,0496461
3169,4353;0,0497912
3170,3997;0,0499509
3171,3638;0,0501207
3172,3281;0,0503112
3173,2922;0,0505231
3174,2566;0,0507452
3175,2207;0,0509599
3176,1851;0,0511537
3177,1492;0,051326
3178,1135;0,0514885
3179,0776;0,0516576
3180,0420;0,0518436
3181,0061;0,0520453
3181,9705;0,052253
3182,9346;0,0524564
3183,8989;0,0526511
3184,8630;0,0528391
3185,8274;0,0530254
3186,7915;0,0532123
3187,7559;0,0533981
3188,7200;0,0535791
3189,6843;0,0537528
3190,6484;0,0539205
3191,6128;0,0540866
3192,5769;0,0542561
3193,5413;0,054432
3194,5054;0,0546134
3195,4697;0,0547956
3196,4338;0,0549715
3197,3982;0,055135
3198,3623;0,0552843
3199,3267;0,0554243
3200,2908;0,0555659
3201,2551;0,055721
3202,2192;0,0558966
3203,1836;0,0560904
3204,1477;0,0562923
3205,1121;0,0564891
3206,0762;0,0566713
3207,0405;0,0568371
3208,0046;0,0569913
3208,9690;0,0571412
3209,9331;0,057292
3210,8975;0,0574449
3211,8616;0,0575992
3212,8259;0,0577543
3213,7900;0,0579119
3214,7544;0,0580745
3215,7185;0,0582438
3216,6829;0,0584191
3217,6470;0,0585974
3218,6113;0,0587749
3219,5754;0,0589479
3220,5398;0,0591139
3221,5039;0,0592721
3222,4683;0,0594234
3223,4324;0,0595719
3224,3967;0,0597243
3225,3608;0,0598882
3226,3252;0,060068
3227,2893;0,0602614
3228,2537;0,0604591
3229,2178;0,0606486
3230,1821;0,0608201
3231,1462;0,0609723
3232,1106;0,0611113
3233,0747;0,0612472
3234,0391;0,0613882
3235,0032;0,0615374
3235,9675;0,0616944
3236,9316;0,0618582
3237,8960;0,0620297
3238,8601;0,0622106
3239,8245;0,0623999
3240,7886;0,062592
3241,7529;0,0627774
3242,7170;0,0629472
3243,6814;0,063098
3244,6455;0,0632342
3245,6099;0,0633666
3246,5740;0,0635078
3247,5383;0,063667
3248,5024;0,0638476
3249,4668;0,0640467
3250,4309;0,0642576
3251,3953;0,0644721
3252,3594;0,0646823
3253,3237;0,0648828
3254,2878;0,0650715
3255,2522;0,0652496
3256,2163;0,0654209
3257,1807;0,0655904
3258,1448;0,065763
3259,1091;0,0659415
3260,0732;0,0661267
3261,0376;0,0663174
3262,0017;0,0665106
3262,9661;0,0667038
3263,9302;0,066895
3264,8945;0,0670839
3265,8586;0,0672714
3266,8230;0,0674574
3267,7871;0,06764
3268,7515;0,0678142
3269,7156;0,0679719
3270,6799;0,0681053
3271,6440;0,0682097
3272,6084;0,0682874
3273,5725;0,0683483
3274,5369;0,0684067
3275,5010;0,0684753
3276,4653;0,0685592
3277,4294;0,068654
3278,3938;0,0687485
3279,3579;0,0688318
3280,3223;0,0688991
3281,2864;0,068954
3282,2507;0,0690059
3283,2148;0,0690645
3284,1792;0,0691348
3285,1433;0,0692144
3286,1077;0,0692956
3287,0718;0,0693676
3288,0361;0,0694208
3289,0002;0,0694494
3289,9646;0,0694535
3290,9287;0,0694397
3291,8931;0,0694195
3292,8572;0,0694056
3293,8215;0,0694078
3294,7856;0,0694291
3295,7500;0,0694655
3296,7141;0,0695085
3297,6785;0,0695489
3298,6426;0,0695809
3299,6069;0,0696027
3300,5710;0,0696163
3301,5354;0,0696247
3302,4995;0,06963
3303,4639;0,0696323
3304,4280;0,06963
3305,3923;0,0696215
3306,3564;0,0696064
3307,3208;0,0695874
3308,2849;0,0695693
3309,2493;0,0695577
3310,2134;0,0695571
3311,1777;0,0695693
3312,1418;0,0695946
3313,1062;0,0696322
3314,0703;0,0696821
3315,0347;0,0697452
3315,9988;0,0698222
3316,9631;0,0699136
3317,9272;0,0700181
3318,8916;0,0701329
3319,8557;0,0702538
3320,8201;0,0703746
3321,7842;0,0704878
3322,7485;0,0705864
3323,7126;0,0706663
3324,6770;0,0707293
3325,6411;0,0707841
3326,6055;0,0708434
3327,5696;0,0709183
3328,5339;0,0710123
3329,4980;0,0711178
3330,4624;0,0712179
3331,4265;0,0712934
3332,3909;0,0713304
3333,3550;0,0713267
3334,3193;0,071292
3335,2834;0,0712433
3336,2478;0,0711964
3337,2119;0,0711582
3338,1763;0,0711244
3339,1404;0,071083
3340,1047;0,0710218
3341,0688;0,0709344
3342,0332;0,0708238
3342,9973;0,0707003
3343,9617;0,0705763
3344,9258;0,0704604
3345,8901;0,0703545
3346,8542;0,0702529
3347,8186;0,0701462
3348,7827;0,0700254
3349,7471;0,0698859
3350,7112;0,0697301
3351,6755;0,0695661
3352,6396;0,0694047
3353,6040;0,0692545
3354,5681;0,0691192
3355,5325;0,0689965
3356,4966;0,0688805
3357,4609;0,0687659
3358,4250;0,06865
3359,3894;0,0685325
3360,3535;0,0684134
3361,3179;0,0682911
3362,2820;0,0681623
3363,2463;0,0680254
3364,2104;0,0678827
3365,1748;0,0677405
3366,1389;0,0676059
3367,1033;0,0674817
3368,0674;0,0673642
3369,0317;0,0672451
3369,9958;0,0671161
3370,9602;0,0669735
3371,9243;0,0668197
3372,8887;0,0666604
3373,8528;0,0665011
3374,8171;0,0663454
3375,7813;0,0661953
3376,7456;0,0660533
3377,7097;0,0659224
3378,6741;0,0658045
3379,6382;0,0656959
3380,6025;0,0655866
3381,5667;0,0654636
3382,5310;0,0653187
3383,4951;0,0651556
3384,4595;0,0649903
3385,4236;0,0648437
3386,3879;0,0647284
3387,3521;0,0646408
3388,3164;0,064562
3389,2805;0,0644686
3390,2449;0,0643457
3391,2090;0,0641943
3392,1733;0,0640289
3393,1375;0,063867
3394,1018;0,063719
3395,0659;0,0635844
3396,0303;0,0634562
3396,9944;0,0633275
3397,9587;0,0631956
3398,9229;0,063061
3399,8872;0,0629249
3400,8513;0,0627874
3401,8157;0,0626482
3402,7798;0,0625077
3403,7441;0,0623661
3404,7083;0,0622218
3405,6726;0,0620703
3406,6367;0,0619054
3407,6011;0,0617228
3408,5652;0,0615227
3409,5295;0,0613113
3410,4937;0,0610991
3411,4580;0,0608987
3412,4221;0,0607213
3413,3865;0,0605724
3414,3506;0,0604473
3415,3149;0,0603298
3416,2791;0,0601953
3417,2434;0,0600212
3418,2075;0,0597977
3419,1719;0,059535
3420,1360;0,0592601
3421,1003;0,0590035
3422,0645;0,0587832
3423,0288;0,0585973
3423,9929;0,0584288
3424,9573;0,0582577
3425,9214;0,0580726
3426,8857;0,057874
3427,8499;0,0576706
3428,8142;0,0574718
3429,7783;0,0572808
3430,7427;0,0570927
3431,7068;0,0568977
3432,6711;0,0566869
3433,6353;0,0564576
3434,5996;0,0562142
3435,5637;0,0559659
3436,5281;0,0557227
3437,4922;0,0554926
3438,4565;0,0552814
3439,4207;0,0550933
3440,3850;0,0549295
3441,3491;0,054784
3442,3135;0,0546407
3443,2776;0,0544758
3444,2419;0,054267
3445,2061;0,0540062
3446,1704;0,0537073
3447,1345;0,0534022
3448,0989;0,0531251
3449,0630;0,0528937
3450,0273;0,0527034
3450,9915;0,0525345
3451,9558;0,0523651
3452,9199;0,0521818
3453,8843;0,0519814
3454,8484;0,0517672
3455,8127;0,0515432
3456,7769;0,0513102
3457,7412;0,0510679
3458,7053;0,0508176
3459,6697;0,050565
3460,6338;0,0503187
3461,5981;0,0500861
3462,5623;0,0498687
3463,5266;0,0496604
3464,4907;0,0494505
3465,4551;0,0492306
3466,4192;0,0489994
3467,3835;0,0487639
3468,3477;0,0485341
3469,3120;0,0483149
3470,2761;0,048102
3471,2405;0,0478855
3472,2046;0,0476594
3473,1689;0,0474292
3474,1331;0,0472104
3475,0974;0,0470176
3476,0615;0,0468506
3477,0259;0,0466899
3477,9900;0,0465061
3478,9543;0,0462774
3479,9185;0,0460046
3480,8828;0,0457132
3481,8469;0,0454382
3482,8113;0,0452025
3483,7754;0,0450032
3484,7397;0,0448172
3485,7039;0,0446182
3486,6682;0,0443947
3487,6323;0,0441564
3488,5967;0,0439269
3489,5608;0,0437271
3490,5251;0,0435597
3491,4893;0,0434068
3492,4536;0,0432406
3493,4177;0,0430414
3494,3821;0,0428126
3495,3462;0,0425826
3496,3105;0,0423875
3497,2747;0,0422455
3498,2390;0,0421397
3499,2031;0,0420231
3500,1675;0,0418441
3501,1316;0,0415777
3502,0959;0,0412467
3503,0601;0,0409125
3504,0244;0,0406356
3504,9885;0,0404355
3505,9529;0,0402832
3506,9170;0,0401257
3507,8813;0,0399219
3508,8455;0,039665
3509,8098;0,0393834
3510,7739;0,0391179
3511,7383;0,0388942
3512,7024;0,0387103
3513,6667;0,0385466
3514,6309;0,0383851
3515,5952;0,0382215
3516,5593;0,0380636
3517,5237;0,0379216
3518,4878;0,0377961
3519,4521;0,0376754
3520,4163;0,0375414
3521,3806;0,0373794
3522,3447;0,0371839
3523,3091;0,0369577
3524,2732;0,0367048
3525,2375;0,036426
3526,2017;0,0361214
3527,1660;0,0358003
3528,1301;0,0354871
3529,0945;0,0352154
3530,0586;0,0350101
3531,0229;0,0348722
3531,9871;0,0347759
3532,9514;0,0346798
3533,9155;0,0345447
3534,8799;0,034351
3535,8440;0,0341084
3536,8083;0,033853
3537,7725;0,0336296
3538,7368;0,0334688
3539,7009;0,0333727
3540,6653;0,0333122
3541,6294;0,0332368
3542,5938;0,0330925
3543,5579;0,0328467
3544,5222;0,0325126
3545,4863;0,032151
3546,4507;0,0318343
3547,4148;0,0315973
3548,3792;0,0314181
3549,3433;0,0312405
3550,3076;0,0310148
3551,2717;0,03073
3552,2361;0,0304242
3553,2002;0,0301598
3554,1646;0,0299802
3555,1287;0,0298804
3556,0930;0,0298169
3557,0571;0,0297413
3558,0215;0,029633
3558,9856;0,0295132
3559,9500;0,0294286
3560,9141;0,0294129
3561,8784;0,0294499
3562,8425;0,0294631
3563,8069;0,0293343
3564,7710;0,0289531
3565,7354;0,0283024
3566,6995;0,0275286
3567,6638;0,0268767
3568,6279;0,0265043
3569,5923;0,0263927
3570,5564;0,0264196
3571,5208;0,0264599
3572,4849;0,0264335
3573,4492;0,0263163
3574,4133;0,0261296
3575,3777;0,0259156
3576,3418;0,0257086
3577,3062;0,0255231
3578,2703;0,025365
3579,2346;0,0252499
3580,1987;0,025203
3581,1631;0,0252378
3582,1272;0,0253287
3583,0916;0,0253999
3584,0557;0,0253387
3585,0200;0,0250401
3585,9841;0,0244866
3586,9485;0,0238199
3587,9126;0,0232821
3588,8770;0,023029
3589,8411;0,023029
3590,8054;0,0231359
3591,7695;0,0231999
3592,7339;0,0231314
3593,6980;0,0229253
3594,6624;0,0226488
3595,6265;0,0223837
3596,5908;0,02216
3597,5549;0,0219443
3598,5193;0,0216904
3599,4834;0,0213992
3600,4478;0,0211348
3601,4119;0,0209795
3602,3762;0,0209668
3603,3403;0,0210542
3604,3047;0,0211481
3605,2688;0,0211504
3606,2332;0,0210026
3607,1973;0,0207142
3608,1616;0,0203559
3609,1257;0,0200099
3610,0901;0,0197212
3611,0542;0,0194957
3612,0186;0,0193291
3612,9827;0,0192241
3613,9470;0,0191775
3614,9111;0,0191563
3615,8755;0,0190906
3616,8396;0,0188983
3617,8040;0,0185401
3618,7681;0,018077
3619,7324;0,0176682
3620,6965;0,0174713
3621,6609;0,017538
3622,6250;0,0178086
3623,5894;0,0181667
3624,5535;0,0184753
3625,5178;0,0185818
3626,4819;0,0183357
3627,4463;0,0176824
3628,4104;0,0168012
3629,3748;0,016045
3630,3389;0,0156284
3631,3032;0,0154966
3632,2673;0,0154825
3633,2317;0,0154579
3634,1958;0,0153732
3635,1602;0,0152418
3636,1243;0,0151044
3637,0886;0,0149935
3638,0527;0,014917
3639,0171;0,01487
3639,9812;0,0148571
3640,9456;0,0149018
3641,9097;0,0150346
3642,8740;0,0152669
3643,8381;0,0155679
3644,8025;0,0158482
3645,7666;0,0159478
3646,7310;0,0156524
3647,6951;0,0148292
3648,6594;0,0136918
3649,6235;0,0127738
3650,5879;0,0124
3651,5520;0,0124588
3652,5164;0,0126742
3653,4805;0,0128208
3654,4448;0,0127751
3655,4089;0,0125301
3656,3733;0,0121934
3657,3374;0,0119183
3658,3018;0,0117904
3659,2659;0,0117873
3660,2302;0,0118368
3661,1943;0,0118927
3662,1587;0,0119651
3663,1228;0,0120963
3664,0872;0,0123074
3665,0513;0,0125592
3666,0156;0,0127563
3666,9797;0,0127891
3667,9441;0,0126103
3668,9082;0,0123124
3669,8726;0,012097
3670,8367;0,0120947
3671,8010;0,0122398
3672,7651;0,0123311
3673,7295;0,012168
3674,6936;0,0116886
3675,6580;0,0110618
3676,6221;0,0105752
3677,5864;0,0103732
3678,5505;0,0103941
3679,5149;0,0105145
3680,4790;0,0106608
3681,4434;0,0108271
3682,4075;0,0110414
3683,3718;0,0113202
3684,3359;0,0116352
3685,3003;0,0119045
3686,2644;0,0120092
3687,2288;0,0118401
3688,1929;0,0113911
3689,1572;0,0108337
3690,1213;0,0104178
3691,0857;0,0102612
3692,0498;0,0103096
3693,0142;0,0104563
3693,9783;0,0106304
3694,9426;0,0108073
3695,9067;0,0109845
3696,8711;0,0111524
3697,8352;0,0112788
3698,7996;0,0113158
3699,7637;0,0112309
3700,7280;0,0110471
3701,6921;0,0108579
3702,6565;0,0107816
3703,6206;0,010886
3704,5850;0,011154
3705,5491;0,0115059
3706,5134;0,011831
3707,4775;0,0120039
3708,4419;0,0119013
3709,4060;0,0114619
3710,3704;0,0107878
3711,3345;0,0101529
3712,2988;0,00980966
3713,2629;0,00980957
3714,2273;0,0100464
3715,1914;0,0103833
3716,1558;0,0107156
3717,1199;0,0109801
3718,0842;0,0111523
3719,0483;0,0112423
3720,0127;0,0112815
3720,9768;0,0112973
3721,9412;0,0112938
3722,9053;0,0112572
3723,8696;0,0111861
3724,8337;0,0111158
3725,7981;0,0111067
3726,7622;0,011206
3727,7266;0,0114176
3728,6907;0,0117054
3729,6550;0,01201
3730,6191;0,0122597
3731,5835;0,0123708
3732,5476;0,0122552
3733,5120;0,0118651
3734,4761;0,0112777
3735,4404;0,0107155
3736,4045;0,0104075
3737,3689;0,0104336
3738,3330;0,0107268
3739,2974;0,0111556
3740,2615;0,0115749
3741,2258;0,0118403
3742,1899;0,0118374
3743,1543;0,0115664
3744,1184;0,0112167
3745,0828;0,011049
3746,0469;0,0111448
3747,0112;0,0113529
3747,9753;0,0114279
3748,9397;0,0111708
3749,9038;0,0105706
3750,8682;0,00990021
3751,8323;0,00952477
3752,7966;0,00955846
3753,7607;0,00984854
3754,7251;0,0101835
3755,6892;0,0104086
3756,6536;0,0104476
3757,6177;0,0103149
3758,5820;0,0101129
3759,5461;0,00997281
3760,5105;0,00996722
3761,4746;0,0100806
3762,4390;0,0102483
3763,4031;0,0104032
3764,3674;0,0104984
3765,3315;0,0105105
3766,2959;0,010434
3767,2600;0,0102761
3768,2244;0,0100599
3769,1885;0,00983415
3770,1528;0,00967041
3771,1169;0,00963387
3772,0813;0,0097454
3773,0454;0,00996898
3774,0098;0,0102293
3774,9739;0,0104385
3775,9382;0,010522
3776,9023;0,0104476
3777,8667;0,010253
3778,8308;0,0100376
3779,7952;0,00990008
3780,7593;0,00987226
3781,7236;0,00991571
3782,6877;0,00996725
3783,6521;0,00998207
3784,6162;0,00995111
3785,5806;0,00989549
3786,5447;0,00984913
3787,5090;0,00984219
3788,4731;0,0098926
3789,4375;0,010003
3790,4016;0,0101591
3791,3660;0,0103317
3792,3301;0,0104869
3793,2944;0,0106046
3794,2585;0,0106949
3795,2229;0,0107945
3796,1870;0,0109329
3797,1514;0,0110914
3798,1155;0,0111915
3799,0798;0,0111361
3800,0439;0,0108915
3801,0083;0,010549
3801,9724;0,0102709
3802,9368;0,0101445
3803,9009;0,0101143
3804,8652;0,0100533
3805,8293;0,0098786
3806,7937;0,00963223
3807,7578;0,00946612
3808,7222;0,00951912
3809,6863;0,00980691
3810,6506;0,0102324
3811,6147;0,0106588
3812,5791;0,0109665
3813,5432;0,0110926
3814,5076;0,0110674
3815,4717;0,0110009
3816,4360;0,0109848
3817,4001;0,0109979
3818,3645;0,0109269
3819,3286;0,0106791
3820,2930;0,0102898
3821,2571;0,00992387
3822,2214;0,00973825
3823,1855;0,00975765
3824,1499;0,00989883
3825,1140;0,0100643
3826,0784;0,0101985
3827,0425;0,0102956
3828,0068;0,0103809
3828,9709;0,0104833
3829,9353;0,0106173
3830,8994;0,0107813
3831,8638;0,0109654
3832,8279;0,0111526
3833,7922;0,0113107
3834,7563;0,011385
3835,7207;0,0113112
3836,6848;0,0110554
3837,6492;0,0106624
3838,6133;0,0102522
3839,5776;0,00994288
3840,5417;0,0097741
3841,5061;0,00971269
3842,4702;0,00971251
3843,4346;0,00976173
3844,3987;0,00988942
3845,3630;0,0101393
3846,3271;0,0105351
3847,2915;0,0110608
3848,2556;0,0116544
3849,2200;0,0121987
3850,1841;0,0125044
3851,1484;0,0123256
3852,1125;0,0115274
3853,0769;0,0103947
3854,0410;0,00953881
3855,0054;0,00927346
3855,9695;0,00946741
3856,9338;0,00988312
3857,8979;0,0103533
3858,8623;0,0107724
3859,8264;0,0110627
3860,7908;0,0111715
3861,7549;0,0110988
3862,7192;0,0109247
3863,6833;0,0107783
3864,6477;0,0107528
3865,6118;0,0108477
3866,5762;0,010987
3867,5403;0,0110728
3868,5046;0,0110301
3869,4688;0,0108393
3870,4331;0,0105485
3871,3972;0,0102535
3872,3616;0,0100487
3873,3257;0,0099869
3874,2900;0,0100693
3875,2542;0,0102563
3876,2185;0,010485
3877,1826;0,0106885
3878,1470;0,0108184
3879,1111;0,0108643
3880,0754;0,010855
3881,0396;0,0108266
3882,0039;0,0107844
3882,9680;0,010704
3883,9324;0,0105748
3884,8965;0,0104382
3885,8608;0,0103685
3886,8250;0,0104077
3887,7893;0,0105196
3888,7534;0,0106071
3889,7178;0,0105756
3890,6819;0,0104075
3891,6462;0,0102008
3892,6104;0,0101095
3893,5747;0,0102231
3894,5388;0,0105151
3895,5032;0,0108896
3896,4673;0,0112424
3897,4316;0,0114944
3898,3958;0,0116065
3899,3601;0,0115769
3900,3242;0,0114203
3901,2886;0,0111466
3902,2527;0,0107734
3903,2170;0,0103591
3904,1812;0,0100008
3905,1455;0,00978138
3906,1096;0,00972143
3907,0740;0,00978424
3908,0381;0,00991303
3909,0024;0,0100632
3909,9666;0,0102156
3910,9309;0,0103716
3911,8950;0,0105359
3912,8594;0,0106966
3913,8235;0,0108186
3914,7878;0,0108567
3915,7520;0,0107866
3916,7163;0,0106355
3917,6804;0,0104781
3918,6448;0,0103901
3919,6089;0,0103954
3920,5732;0,0104576
3921,5374;0,0105125
3922,5017;0,0105124
3923,4658;0,010457
3924,4302;0,0103943
3925,3943;0,0103838
3926,3586;0,0104495
3927,3228;0,0105629
3928,2871;0,0106619
3929,2512;0,0106855
3930,2156;0,0106076
3931,1797;0,0104538
3932,1440;0,0102873
3933,1082;0,0101697
3934,0725;0,0101298
3935,0366;0,0101636
3936,0010;0,0102508
3936,9651;0,010367
3937,9294;0,0104857
3938,8936;0,0105781
3939,8579;0,0106193
3940,8220;0,0106025
3941,7864;0,0105489
3942,7505;0,0105009
3943,7148;0,0104951
3944,6790;0,0105375
3945,6433;0,0106
3946,6074;0,0106391
3947,5718;0,0106225
3948,5359;0,0105492
3949,5002;0,0104493
3950,4644;0,0103626
3951,4287;0,0103135
3952,3928;0,0103023
3953,3572;0,0103151
3954,3213;0,0103386
3955,2856;0,0103672
3956,2498;0,0104003
3957,2141;0,0104346
3958,1782;0,0104604
3959,1426;0,0104665
3960,1067;0,010449
3961,0710;0,0104165
3962,0352;0,0103867
3962,9995;0,010375
3963,9636;0,0103854
3964,9280;0,0104102
3965,8921;0,0104375
3966,8564;0,0104598
3967,8206;0,0104773
3968,7849;0,0104938
3969,7490;0,0105101
3970,7134;0,0105206
3971,6775;0,0105161
3972,6418;0,0104918
3973,6060;0,0104531
3974,5703;0,0104138
3975,5344;0,0103893
3976,4988;0,0103872
3977,4629;0,010404
3978,4272;0,0104283
3979,3914;0,0104478
3980,3557;0,0104554
3981,3198;0,010451
3982,2842;0,0104403
3983,2483;0,0104305
3984,2126;0,010427
3985,1768;0,0104316
3986,1411;0,010443
3987,1052;0,0104583
3988,0696;0,0104746
3989,0337;0,0104904
3989,9980;0,0105045
3990,9622;0,0105159
3991,9265;0,0105229
3992,8906;0,0105243
3993,8550;0,0105204
3994,8191;0,0105142
3995,7834;0,0105091
3996,7476;0,0105065
3997,7119;0,010504
3998,6760;0,010498
3999,6404;0,0104874
4000,6045;0,0104117

##### Extended Information
[Comments]
Sample name
Comment
Username
Division
Organization;UNIVERSIDAD INDUSTRIAL DE SANTANDER

[Detailed Information]
Creation date;18/03/2025 10:31 a.m.

Data array type;Linear data array
Horizontal axis;Wavenumber [cm-1]
Vertical axis;Abs
Start;399,193 cm-1
End;4000,6 cm-1
Data interval;0,964233 cm-1
Data points;3736    

[Measurement Information]
Model name;FT/IR-4X1typeA
Serial No.;A035162111

Accessory;ATR PRO 4X
Accessory S/N;A021162126
Incident angle;45 deg

Measurement date;18/03/2025 10:30 a.m.

Light source;Standard
Detector;TGS
Accumulation;40
Resolution;4 cm-1
Zero filling;On
Apodization;Cosine
Gain;Auto (8)
Aperture;Auto (7 mm)
Scan speed;Auto (2 mm/sec)
Filter;Auto (12800 Hz)

