TITLE;
DATA TYPE;INFRARED SPECTRUM
ORIGIN;JASCO
OWNER;
DATE;25/03/18
TIME;10:48:01
SPECTROMETER/DATA SYSTEM;
LOCALE;9226
RESOLUTION;
DELTAX;0,964233
XUNITS;1/CM
YUNITS;ABSORBANCE
FIRSTX;  399,1927
LASTX; 4000,6047
NPOINTS;    3736
FIRSTY;     0,16003
MAXY;     0,19856
MINY;     0,00992
XYDATA
399,1927;0,160029
400,1569;0,159314
401,1211;0,157671
402,0854;0,155496
403,0496;0,153123
404,0138;0,150869
404,9781;0,149079
405,9423;0,148072
406,9065;0,14801
407,8708;0,148806
408,8350;0,150158
409,7992;0,151673
410,7635;0,153009
411,7277;0,153972
412,6919;0,154537
413,6562;0,154781
414,6204;0,15479
415,5846;0,154621
416,5489;0,154343
417,5131;0,154148
418,4773;0,154359
419,4416;0,155171
420,4058;0,156335
421,3700;0,157357
422,3343;0,157883
423,2985;0,157827
424,2627;0,157291
425,2270;0,156495
426,1912;0,155664
427,1554;0,154935
428,1197;0,15433
429,0839;0,153825
430,0481;0,15344
431,0124;0,153251
431,9766;0,153324
432,9408;0,153617
433,9051;0,153966
434,8693;0,154161
435,8335;0,154078
436,7978;0,153753
437,7620;0,153335
438,7262;0,152974
439,6905;0,152731
440,6547;0,152579
441,6189;0,152453
442,5832;0,152307
443,5474;0,152139
444,5116;0,151972
445,4759;0,151828
446,4401;0,151717
447,4043;0,151637
448,3686;0,151579
449,3328;0,151511
450,2970;0,15138
451,2613;0,15112
452,2255;0,150684
453,1897;0,150064
454,1540;0,149295
455,1182;0,148443
456,0824;0,147602
457,0467;0,146885
458,0109;0,146399
458,9751;0,146175
459,9394;0,146139
460,9036;0,146147
461,8678;0,14607
462,8321;0,14584
463,7963;0,145469
464,7605;0,145025
465,7248;0,144591
466,6890;0,144209
467,6532;0,14386
468,6175;0,143487
469,5817;0,143055
470,5459;0,142599
471,5102;0,142228
472,4744;0,142068
473,4386;0,142175
474,4029;0,14249
475,3671;0,142886
476,3313;0,143234
477,2956;0,14345
478,2598;0,143507
479,2240;0,143426
480,1883;0,143285
481,1525;0,143195
482,1167;0,14328
483,0810;0,14362
484,0452;0,144202
485,0094;0,144913
485,9737;0,145591
486,9379;0,14612
487,9021;0,146476
488,8664;0,146711
489,8306;0,146897
490,7948;0,147065
491,7591;0,147199
492,7233;0,14727
493,6875;0,147287
494,6518;0,147315
495,6160;0,147434
496,5802;0,147676
497,5445;0,147993
498,5087;0,148277
499,4729;0,148419
500,4372;0,148385
501,4014;0,148244
502,3656;0,148135
503,3299;0,148188
504,2941;0,14845
505,2583;0,148886
506,2226;0,149418
507,1868;0,149976
508,1510;0,15051
509,1153;0,150987
510,0795;0,15138
511,0437;0,151682
512,0080;0,151921
512,9722;0,152164
513,9365;0,1525
514,9007;0,152982
515,8649;0,153593
516,8292;0,154228
517,7934;0,15475
518,7576;0,155077
519,7219;0,155236
520,6861;0,155334
521,6503;0,155471
522,6146;0,15569
523,5788;0,155974
524,5430;0,156283
525,5073;0,156591
526,4715;0,156893
527,4357;0,157184
528,4000;0,157429
529,3642;0,15757
530,3284;0,157556
531,2927;0,157378
532,2569;0,15708
533,2211;0,156729
534,1854;0,156379
535,1496;0,156047
536,1138;0,155731
537,0781;0,155445
538,0423;0,15523
539,0065;0,155133
539,9708;0,155156
540,9350;0,155234
541,8992;0,155264
542,8635;0,155168
543,8277;0,154951
544,7919;0,154714
545,7562;0,154597
546,7204;0,154703
547,6846;0,155031
548,6489;0,155484
549,6131;0,155928
550,5773;0,156269
551,5416;0,1565
552,5058;0,156684
553,4700;0,156909
554,4343;0,15723
555,3985;0,157645
556,3627;0,158096
557,3270;0,158502
558,2912;0,158782
559,2554;0,158873
560,2197;0,158728
561,1839;0,15832
562,1481;0,157659
563,1124;0,156808
564,0766;0,155877
565,0408;0,154999
566,0051;0,154279
566,9693;0,153758
567,9335;0,153403
568,8978;0,153135
569,8620;0,152885
570,8262;0,152633
571,7905;0,152414
572,7547;0,152286
573,7189;0,152286
574,6832;0,152402
575,6474;0,152572
576,6116;0,152715
577,5759;0,152764
578,5401;0,152691
579,5043;0,15251
580,4686;0,152258
581,4328;0,151973
582,3970;0,151685
583,3613;0,15141
584,3255;0,151159
585,2897;0,15094
586,2540;0,150761
587,2182;0,150632
588,1824;0,150555
589,1467;0,15052
590,1109;0,150507
591,0751;0,150489
592,0394;0,150442
593,0036;0,150355
593,9678;0,150232
594,9321;0,150081
595,8963;0,149904
596,8605;0,149686
597,8248;0,149401
598,7890;0,14903
599,7532;0,148574
600,7175;0,148065
601,6817;0,147558
602,6459;0,147113
603,6102;0,146768
604,5744;0,146525
605,5386;0,146342
606,5029;0,146149
607,4671;0,145863
608,4313;0,145425
609,3956;0,144826
610,3598;0,144122
611,3240;0,143418
612,2883;0,142825
613,2525;0,142409
614,2167;0,142153
615,1810;0,141959
616,1452;0,141673
617,1094;0,141156
618,0737;0,140352
619,0379;0,139311
620,0021;0,138159
620,9664;0,13703
621,9306;0,136017
622,8948;0,135158
623,8591;0,134441
624,8233;0,133811
625,7875;0,133243
626,7518;0,132692
627,7160;0,132134
628,6802;0,131566
629,6445;0,131004
630,6087;0,130464
631,5729;0,12995
632,5372;0,129448
633,5014;0,128942
634,4656;0,128426
635,4299;0,127924
636,3941;0,127477
637,3583;0,127126
638,3226;0,126885
639,2868;0,126731
640,2510;0,126607
641,2153;0,126451
642,1795;0,12622
643,1437;0,125904
644,1080;0,125528
645,0722;0,125132
646,0364;0,124754
647,0007;0,124414
647,9649;0,124109
648,9291;0,12382
649,8934;0,123529
650,8576;0,123233
651,8218;0,122955
652,7861;0,122736
653,7503;0,122614
654,7145;0,122605
655,6788;0,122691
656,6430;0,122825
657,6072;0,12295
658,5715;0,123026
659,5357;0,123026
660,4999;0,122933
661,4642;0,122728
662,4284;0,122395
663,3926;0,121918
664,3569;0,121309
665,3211;0,120649
666,2853;0,120106
667,2496;0,119809
668,2138;0,119604
669,1780;0,119152
670,1423;0,118429
671,1065;0,117604
672,0707;0,116704
673,0350;0,115676
673,9992;0,114511
674,9634;0,113266
675,9277;0,112018
676,8919;0,110815
677,8561;0,109666
678,8204;0,108557
679,7846;0,107494
680,7488;0,106508
681,7131;0,105637
682,6773;0,104898
683,6415;0,104275
684,6058;0,103737
685,5700;0,103258
686,5342;0,102825
687,4985;0,102433
688,4627;0,102078
689,4269;0,101744
690,3912;0,101415
691,3554;0,10108
692,3196;0,100735
693,2839;0,100383
694,2481;0,100031
695,2123;0,0996881
696,1766;0,099364
697,1408;0,099066
698,1050;0,0987967
699,0693;0,0985499
700,0335;0,0983084
700,9977;0,0980453
701,9620;0,0977326
702,9262;0,0973524
703,8904;0,096901
704,8547;0,0964018
705,8189;0,0958876
706,7831;0,095387
707,7474;0,0949118
708,7116;0,0944562
709,6758;0,0940045
710,6401;0,0935425
711,6043;0,093065
712,5685;0,0925809
713,5328;0,0921126
714,4970;0,0916891
715,4612;0,0910332
716,4255;0,0908065
717,3897;0,0906289
718,3539;0,0904049
719,3182;0,0900201
720,2824;0,089399
721,2466;0,0885552
722,2109;0,0875906
723,1751;0,0866412
724,1393;0,0858119
725,1036;0,0851407
726,0678;0,0846011
727,0320;0,084129
727,9963;0,0836566
728,9605;0,0831384
729,9247;0,0825624
730,8890;0,0819445
731,8532;0,0813164
732,8174;0,0807117
733,7817;0,0801546
734,7459;0,0796541
735,7101;0,0792042
736,6744;0,0787894
737,6386;0,0783933
738,6028;0,0780056
739,5671;0,0776249
740,5313;0,0772557
741,4955;0,0769026
742,4598;0,0765648
743,4240;0,0762334
744,3882;0,0758946
745,3525;0,0755369
746,3167;0,0751593
747,2809;0,074774
748,2452;0,0744013
749,2094;0,0740576
750,1736;0,073744
751,1379;0,0734443
752,1021;0,0731338
753,0663;0,072795
754,0306;0,0724288
754,9948;0,0720535
755,9590;0,0716915
756,9233;0,0713541
757,8875;0,0710354
758,8517;0,070719
759,8160;0,0703919
760,7802;0,0700541
761,7444;0,0697174
762,7087;0,0693947
763,6729;0,0690887
764,6371;0,0687907
765,6014;0,0684881
766,5656;0,0681755
767,5298;0,0678592
768,4941;0,0675514
769,4583;0,0672604
770,4225;0,0669853
771,3868;0,066719
772,3510;0,0664578
773,3152;0,066207
774,2795;0,0659776
775,2437;0,065775
776,2079;0,0655893
777,1722;0,0653957
778,1364;0,0651659
779,1006;0,064884
780,0649;0,0645554
781,0291;0,0642055
781,9933;0,0638669
782,9576;0,0635666
783,9218;0,0633165
784,8860;0,0631123
785,8503;0,0629379
786,8145;0,0627729
787,7787;0,0625992
788,7430;0,062408
789,7072;0,0622021
790,6714;0,0619953
791,6357;0,0618055
792,5999;0,0616462
793,5641;0,0615184
794,5284;0,06141
795,4926;0,0613014
796,4568;0,0611766
797,4211;0,0610306
798,3853;0,0608713
799,3495;0,060714
800,3138;0,0605736
801,2780;0,0604582
802,2422;0,0603671
803,2065;0,060293
804,1707;0,0602248
805,1349;0,0601493
806,0992;0,060053
807,0634;0,0599247
808,0276;0,0597592
808,9919;0,0595611
809,9561;0,059346
810,9203;0,0591371
811,8846;0,0589586
812,8488;0,0588271
813,8130;0,0587456
814,7773;0,0587012
815,7415;0,0586691
816,7057;0,0586202
817,6700;0,0585313
818,6342;0,0583933
819,5984;0,0582145
820,5627;0,0580171
821,5269;0,0578283
822,4911;0,0576699
823,4554;0,0575508
824,4196;0,0574662
825,3839;0,0574021
826,3481;0,0573433
827,3123;0,0572797
828,2766;0,0572087
829,2408;0,0571328
830,2050;0,0570536
831,1693;0,0569665
832,1335;0,0568598
833,0977;0,0567182
834,0620;0,0565318
835,0262;0,0563035
835,9904;0,05605
836,9547;0,0557954
837,9189;0,0555589
838,8831;0,0553454
839,8474;0,0551458
840,8116;0,0549463
841,7758;0,0547414
842,7401;0,0545401
843,7043;0,0543616
844,6685;0,0542229
845,6328;0,0541271
846,5970;0,0540619
847,5612;0,0540072
848,5255;0,0539476
849,4897;0,0538791
850,4539;0,0538077
851,4182;0,0537421
852,3824;0,053687
853,3466;0,053641
854,3109;0,0535999
855,2751;0,0535605
856,2393;0,0535231
857,2036;0,0534903
858,1678;0,0534664
859,1320;0,0534565
860,0963;0,0534661
861,0605;0,0534996
862,0247;0,0535583
862,9890;0,0536383
863,9532;0,0537313
864,9174;0,0538286
865,8817;0,0539254
866,8459;0,0540239
867,8101;0,0541317
868,7744;0,0542572
869,7386;0,054404
870,7028;0,0545663
871,6671;0,0547295
872,6313;0,0548743
873,5955;0,0549852
874,5598;0,0550575
875,5240;0,0551011
876,4882;0,055137
877,4525;0,0551895
878,4167;0,0552773
879,3809;0,055409
880,3452;0,0555843
881,3094;0,0558004
882,2736;0,0560575
883,2379;0,0563609
884,2021;0,0567195
885,1663;0,0571414
886,1306;0,0576314
887,0948;0,0581892
888,0590;0,0588095
889,0233;0,0594823
889,9875;0,0601939
890,9517;0,060926
891,9160;0,0616565
892,8802;0,062359
893,8444;0,0630019
894,8087;0,0635498
895,7729;0,0639668
896,7371;0,0642221
897,7014;0,0642976
898,6656;0,0641916
899,6298;0,0639189
900,5941;0,0635058
901,5583;0,0629841
902,5225;0,0623863
903,4868;0,0617442
904,4510;0,0610906
905,4152;0,0604596
906,3795;0,0598849
907,3437;0,0593946
908,3079;0,0590052
909,2722;0,0587176
910,2364;0,0585189
911,2007;0,0583888
912,1649;0,0583083
913,1292;0,0582662
914,0934;0,0582594
915,0576;0,0582889
916,0219;0,0583536
916,9861;0,0584477
917,9503;0,0585634
918,9146;0,0586958
919,8788;0,0588466
920,8430;0,0590217
921,8073;0,0592247
922,7715;0,0594502
923,7357;0,0596823
924,7000;0,0599006
925,6642;0,0600887
926,6284;0,0602419
927,5927;0,0603681
928,5569;0,0604824
929,5211;0,0606006
930,4854;0,0607336
931,4496;0,0608864
932,4138;0,0610593
933,3781;0,0612508
934,3423;0,0614587
935,3065;0,0616812
936,2708;0,0619187
937,2350;0,0621751
938,1992;0,0624593
939,1635;0,0627836
940,1277;0,0631606
941,0919;0,0635986
942,0562;0,0640993
943,0204;0,0646578
943,9846;0,0652665
944,9489;0,0659186
945,9131;0,06661
946,8773;0,067339
947,8416;0,0681047
948,8058;0,0689068
949,7700;0,0697479
950,7343;0,0706362
951,6985;0,071585
952,6627;0,07261
953,6270;0,0737223
954,5912;0,0749234
955,5554;0,0762038
956,5197;0,0775454
957,4839;0,0789268
958,4481;0,0803285
959,4124;0,0817355
960,3766;0,0831398
961,3408;0,0845404
962,3051;0,0859431
963,2693;0,0873569
964,2335;0,0887895
965,1978;0,0902427
966,1620;0,0917139
967,1262;0,0932015
968,0905;0,0947138
969,0547;0,0962734
970,0189;0,0979127
970,9832;0,0996628
971,9474;0,101542
972,9116;0,103553
973,8759;0,105692
974,8401;0,10796
975,8043;0,110374
976,7686;0,112959
977,7328;0,115732
978,6970;0,118685
979,6613;0,121764
980,6255;0,124881
981,5897;0,12793
982,5540;0,130808
983,5182;0,133438
984,4824;0,135778
985,4467;0,137819
986,4109;0,13958
987,3751;0,141095
988,3394;0,142408
989,3036;0,143556
990,2678;0,144566
991,2321;0,145456
992,1963;0,146233
993,1605;0,146914
994,1248;0,147525
995,0890;0,148105
996,0532;0,148693
997,0175;0,149317
997,9817;0,149984
998,9459;0,150687
999,9102;0,151414
1000,8744;0,152165
1001,8386;0,152951
1002,8029;0,153792
1003,7671;0,154706
1004,7313;0,15571
1005,6956;0,156822
1006,6598;0,15807
1007,6240;0,159491
1008,5883;0,161123
1009,5525;0,162985
1010,5167;0,165065
1011,4810;0,167315
1012,4452;0,16966
1013,4094;0,172022
1014,3737;0,174329
1015,3379;0,176526
1016,3021;0,178577
1017,2664;0,180463
1018,2306;0,18218
1019,1948;0,183743
1020,1591;0,185183
1021,1233;0,186542
1022,0875;0,187867
1023,0518;0,189197
1024,0160;0,190549
1024,9802;0,191921
1025,9445;0,193284
1026,9087;0,194597
1027,8729;0,195812
1028,8372;0,196877
1029,8014;0,197734
1030,7656;0,198321
1031,7299;0,198564
1032,6941;0,198392
1033,6583;0,197755
1034,6226;0,196653
1035,5868;0,195151
1036,5510;0,193381
1037,5153;0,191511
1038,4795;0,189707
1039,4437;0,188098
1040,4080;0,186752
1041,3722;0,185684
1042,3364;0,184868
1043,3007;0,184259
1044,2649;0,1838
1045,2291;0,183429
1046,1934;0,183078
1047,1576;0,182679
1048,1218;0,182173
1049,0861;0,181511
1050,0503;0,180664
1051,0145;0,179614
1051,9788;0,178356
1052,9430;0,176896
1053,9072;0,175257
1054,8715;0,173466
1055,8357;0,171548
1056,7999;0,169501
1057,7642;0,167292
1058,7284;0,164868
1059,6926;0,162181
1060,6569;0,159222
1061,6211;0,156044
1062,5853;0,152754
1063,5496;0,149485
1064,5138;0,14636
1065,4780;0,143466
1066,4423;0,140839
1067,4065;0,138474
1068,3707;0,136339
1069,3350;0,134392
1070,2992;0,132587
1071,2634;0,130886
1072,2277;0,129252
1073,1919;0,127654
1074,1561;0,126065
1075,1204;0,124463
1076,0846;0,122839
1077,0488;0,121192
1078,0131;0,119541
1078,9773;0,117915
1079,9415;0,116353
1080,9058;0,114896
1081,8700;0,113578
1082,8342;0,112419
1083,7985;0,111421
1084,7627;0,110569
1085,7269;0,109836
1086,6912;0,10919
1087,6554;0,108609
1088,6196;0,108088
1089,5839;0,10764
1090,5481;0,107285
1091,5123;0,10704
1092,4766;0,106904
1093,4408;0,106862
1094,4050;0,10689
1095,3693;0,106965
1096,3335;0,107077
1097,2977;0,107222
1098,2620;0,107403
1099,2262;0,10762
1100,1904;0,107866
1101,1547;0,108124
1102,1189;0,108365
1103,0831;0,108559
1104,0474;0,108672
1105,0116;0,108681
1105,9758;0,108575
1106,9401;0,108362
1107,9043;0,108055
1108,8685;0,107662
1109,8328;0,10717
1110,7970;0,106544
1111,7612;0,105741
1112,7255;0,104734
1113,6897;0,103534
1114,6539;0,102199
1115,6182;0,100818
1116,5824;0,0994854
1117,5466;0,0982697
1118,5109;0,0971955
1119,4751;0,0962411
1120,4393;0,0953512
1121,4036;0,0944562
1122,3678;0,0934891
1123,3320;0,0923982
1124,2963;0,091153
1125,2605;0,0897462
1126,2247;0,0881925
1127,1890;0,086524
1128,1532;0,0847824
1129,1174;0,0830107
1130,0817;0,0812453
1131,0459;0,0795136
1132,0101;0,0778361
1132,9744;0,0762316
1133,9386;0,0747217
1134,9028;0,0733323
1135,8671;0,072091
1136,8313;0,0710231
1137,7955;0,0701465
1138,7598;0,0694702
1139,7240;0,0689931
1140,6882;0,0687043
1141,6525;0,0685836
1142,6167;0,068603
1143,5809;0,0687299
1144,5452;0,0689336
1145,5094;0,0691925
1146,4736;0,0694988
1147,4379;0,0698583
1148,4021;0,070284
1149,3663;0,0707862
1150,3306;0,0713635
1151,2948;0,0719995
1152,2590;0,0726657
1153,2233;0,0733284
1154,1875;0,0739548
1155,1517;0,0745147
1156,1160;0,0749765
1157,0802;0,0753012
1158,0444;0,0754397
1159,0087;0,0753345
1159,9729;0,0749284
1160,9371;0,0741756
1161,9014;0,073052
1162,8656;0,0715623
1163,8298;0,0697416
1164,7941;0,0676523
1165,7583;0,0653782
1166,7225;0,0630142
1167,6868;0,0606546
1168,6510;0,0583802
1169,6152;0,056249
1170,5795;0,0542921
1171,5437;0,0525186
1172,5079;0,0509247
1173,4722;0,0495029
1174,4364;0,0482476
1175,4006;0,0471533
1176,3649;0,0462108
1177,3291;0,045404
1178,2933;0,0447113
1179,2576;0,0441109
1180,2218;0,0435862
1181,1860;0,0431289
1182,1503;0,0427382
1183,1145;0,0424174
1184,0787;0,0421707
1185,0430;0,0420005
1186,0072;0,0419068
1186,9714;0,0418869
1187,9357;0,0419359
1188,8999;0,0420479
1189,8641;0,042219
1190,8284;0,0424496
1191,7926;0,0427451
1192,7568;0,043113
1193,7211;0,0435574
1194,6853;0,0440738
1195,6495;0,0446468
1196,6138;0,0452531
1197,5780;0,0458684
1198,5422;0,0464739
1199,5065;0,0470502
1200,4707;0,047622
1201,4349;0,0481834
1202,3992;0,0487404
1203,3634;0,0492941
1204,3276;0,0498402
1205,2919;0,0503716
1206,2561;0,0508829
1207,2203;0,0513752
1208,1846;0,0518577
1209,1488;0,0523467
1210,1130;0,0528626
1211,0773;0,0534248
1212,0415;0,0540464
1213,0057;0,0547308
1213,9700;0,0554708
1214,9342;0,0562503
1215,8984;0,0570486
1216,8627;0,0578458
1217,8269;0,0586269
1218,7911;0,0593832
1219,7554;0,0601121
1220,7196;0,0608135
1221,6838;0,0614877
1222,6481;0,0621332
1223,6123;0,0627478
1224,5765;0,0633292
1225,5408;0,0638768
1226,5050;0,064392
1227,4692;0,0648779
1228,4335;0,0653377
1229,3977;0,0657735
1230,3619;0,0661849
1231,3262;0,066568
1232,2904;0,0669167
1233,2546;0,0672245
1234,2189;0,0674884
1235,1831;0,0677109
1236,1473;0,0678993
1237,1116;0,0680625
1238,0758;0,0682062
1239,0400;0,0683291
1240,0043;0,0684238
1240,9685;0,068479
1241,9327;0,0684853
1242,8970;0,0684371
1243,8612;0,0683342
1244,8254;0,0681797
1245,7897;0,0679784
1246,7539;0,0677359
1247,7181;0,0674577
1248,6824;0,0671493
1249,6466;0,0668159
1250,6108;0,0664621
1251,5751;0,0660929
1252,5393;0,0657152
1253,5035;0,0653376
1254,4678;0,0649686
1255,4320;0,0646122
1256,3962;0,0642642
1257,3605;0,0639124
1258,3247;0,0635401
1259,2889;0,0631327
1260,2532;0,0626825
1261,2174;0,0621903
1262,1816;0,0616619
1263,1459;0,061104
1264,1101;0,0605213
1265,0743;0,0599166
1266,0386;0,0592913
1267,0028;0,0586463
1267,9670;0,0579817
1268,9313;0,057297
1269,8955;0,0565921
1270,8597;0,0558686
1271,8240;0,0551311
1272,7882;0,0543873
1273,7524;0,0536474
1274,7167;0,052924
1275,6809;0,0522302
1276,6451;0,0515773
1277,6094;0,0509698
1278,5736;0,0504019
1279,5378;0,0498579
1280,5021;0,0493189
1281,4663;0,048772
1282,4305;0,0482175
1283,3948;0,0476686
1284,3590;0,0471439
1285,3232;0,0466594
1286,2875;0,0462232
1287,2517;0,0458367
1288,2159;0,0455
1289,1802;0,0452166
1290,1444;0,0449939
1291,1086;0,0448404
1292,0729;0,0447608
1293,0371;0,0447541
1294,0013;0,0448137
1294,9656;0,0449293
1295,9298;0,0450906
1296,8940;0,0452907
1297,8583;0,0455289
1298,8225;0,0458101
1299,7867;0,0461419
1300,7510;0,0465289
1301,7152;0,0469688
1302,6794;0,0474514
1303,6437;0,0479635
1304,6079;0,0484947
1305,5721;0,0490418
1306,5364;0,0496075
1307,5006;0,0501961
1308,4648;0,0508066
1309,4291;0,0514294
1310,3933;0,0520479
1311,3575;0,0526416
1312,3218;0,0531911
1313,2860;0,0536806
1314,2502;0,0540972
1315,2145;0,054428
1316,1787;0,0546586
1317,1429;0,0547757
1318,1072;0,0547753
1319,0714;0,0546703
1320,0356;0,0544902
1320,9999;0,054271
1321,9641;0,0540425
1322,9283;0,0538211
1323,8926;0,0536132
1324,8568;0,0534225
1325,8210;0,053254
1326,7853;0,053114
1327,7495;0,0530045
1328,7137;0,0529185
1329,6780;0,0528407
1330,6422;0,0527534
1331,6064;0,0526437
1332,5707;0,0525091
1333,5349;0,0523538
1334,4991;0,0521799
1335,4634;0,0519777
1336,4276;0,0517216
1337,3918;0,051379
1338,3561;0,0509326
1339,3203;0,0504044
1340,2845;0,0498559
1341,2488;0,0493566
1342,2130;0,0489484
1343,1772;0,0486372
1344,1415;0,0484063
1345,1057;0,0482345
1346,0699;0,0481075
1347,0342;0,0480223
1347,9984;0,0479867
1348,9626;0,0480138
1349,9269;0,0481136
1350,8911;0,0482863
1351,8553;0,048521
1352,8196;0,0488005
1353,7838;0,0491101
1354,7480;0,0494457
1355,7123;0,0498141
1356,6765;0,0502257
1357,6407;0,0506844
1358,6050;0,0511816
1359,5692;0,0516953
1360,5334;0,0521931
1361,4977;0,0526412
1362,4619;0,0530215
1363,4261;0,053342
1364,3904;0,0536278
1365,3546;0,0538989
1366,3188;0,054158
1367,2831;0,0543942
1368,2473;0,0545934
1369,2115;0,0547447
1370,1758;0,0548395
1371,1400;0,0548649
1372,1042;0,0547998
1373,0685;0,054624
1374,0327;0,0543381
1374,9969;0,0539729
1375,9612;0,0535692
1376,9254;0,0531402
1377,8896;0,052659
1378,8539;0,0520832
1379,8181;0,0513953
1380,7823;0,0506282
1381,7466;0,0498519
1382,7108;0,0491279
1383,6750;0,0484691
1384,6393;0,0478362
1385,6035;0,0471738
1386,5677;0,0464648
1387,5320;0,0457655
1388,4962;0,0451709
1389,4604;0,0447405
1390,4247;0,0444671
1391,3889;0,0443022
1392,3531;0,0441915
1393,3174;0,0440949
1394,2816;0,0439923
1395,2458;0,0438825
1396,2101;0,0437776
1397,1743;0,0436959
1398,1385;0,0436581
1399,1028;0,0436828
1400,0670;0,0437793
1401,0313;0,043942
1401,9955;0,0441521
1402,9597;0,0443857
1403,9240;0,0446256
1404,8882;0,0448691
1405,8524;0,0451282
1406,8167;0,0454188
1407,7809;0,0457485
1408,7451;0,0461147
1409,7094;0,0465115
1410,6736;0,0469367
1411,6378;0,047393
1412,6021;0,0478821
1413,5663;0,0483992
1414,5305;0,0489291
1415,4948;0,0494447
1416,4590;0,0499057
1417,4232;0,050266
1418,3875;0,0505018
1419,3517;0,0506399
1420,3159;0,0507342
1421,2802;0,0508089
1422,2444;0,050843
1423,2086;0,0508005
1424,1729;0,0506611
1425,1371;0,0504286
1426,1013;0,0501119
1427,0656;0,0497039
1428,0298;0,0491824
1428,9940;0,0485457
1429,9583;0,0478478
1430,9225;0,0471841
1431,8867;0,0466225
1432,8510;0,0461499
1433,8152;0,0456771
1434,7794;0,0450929
1435,7437;0,0443529
1436,7079;0,0435592
1437,6721;0,0429099
1438,6364;0,0425279
1439,6006;0,0423906
1440,5648;0,0424083
1441,5291;0,0425067
1442,4933;0,0426501
1443,4575;0,0428305
1444,4218;0,043048
1445,3860;0,0432962
1446,3502;0,0435595
1447,3145;0,0438218
1448,2787;0,0440782
1449,2429;0,0443384
1450,2072;0,0446165
1451,1714;0,0449175
1452,1356;0,0452294
1453,0999;0,0455194
1454,0641;0,0457239
1455,0283;0,0457354
1455,9926;0,0454365
1456,9568;0,0448627
1457,9210;0,0443121
1458,8853;0,0440471
1459,8495;0,044047
1460,8137;0,0441533
1461,7780;0,0442099
1462,7422;0,0440826
1463,7064;0,0436729
1464,6707;0,0429833
1465,6349;0,0421576
1466,5991;0,0413774
1467,5634;0,0407129
1468,5276;0,0401007
1469,4918;0,0394027
1470,4561;0,038458
1471,4203;0,037147
1472,3845;0,0355159
1473,3488;0,0338515
1474,3130;0,0324818
1475,2772;0,0315031
1476,2415;0,030811
1477,2057;0,0302765
1478,1699;0,0298232
1479,1342;0,0294211
1480,0984;0,0290655
1481,0626;0,028766
1482,0269;0,0285419
1482,9911;0,0284129
1483,9553;0,0283853
1484,9196;0,0284418
1485,8838;0,0285412
1486,8480;0,0286283
1487,8123;0,0286598
1488,7765;0,0286492
1489,7407;0,0286824
1490,7050;0,0288478
1491,6692;0,0291635
1492,6334;0,0295929
1493,5977;0,0300912
1494,5619;0,030627
1495,5261;0,0311848
1496,4904;0,0317668
1497,4546;0,0323903
1498,4188;0,0330686
1499,3831;0,0337879
1500,3473;0,0345124
1501,3115;0,0352045
1502,2758;0,0358344
1503,2400;0,0363765
1504,2042;0,0367956
1505,1685;0,0370299
1506,1327;0,0370039
1507,0969;0,0367397
1508,0612;0,036425
1509,0254;0,0362033
1509,9896;0,0360605
1510,9539;0,0359318
1511,9181;0,0357625
1512,8823;0,0355075
1513,8466;0,0351282
1514,8108;0,0346075
1515,7750;0,0339687
1516,7393;0,0332702
1517,7035;0,0325652
1518,6677;0,0318671
1519,6320;0,0311626
1520,5962;0,0304653
1521,5604;0,0298473
1522,5247;0,0293942
1523,4889;0,0291302
1524,4531;0,0290094
1525,4174;0,028968
1526,3816;0,0289714
1527,3458;0,0290199
1528,3101;0,0291226
1529,2743;0,0292716
1530,2385;0,0294364
1531,2028;0,0295773
1532,1670;0,0296721
1533,1312;0,0297412
1534,0955;0,0298388
1535,0597;0,0300014
1536,0239;0,030212
1536,9882;0,0304061
1537,9524;0,0304884
1538,9166;0,030357
1539,8809;0,0300031
1540,8451;0,0296622
1541,8093;0,0296405
1542,7736;0,0299321
1543,7378;0,030336
1544,7020;0,0307166
1545,6663;0,0310356
1546,6305;0,0313001
1547,5947;0,0315217
1548,5590;0,0316985
1549,5232;0,0318175
1550,4874;0,0318718
1551,4517;0,0318795
1552,4159;0,0318811
1553,3801;0,0319124
1554,3444;0,0319736
1555,3086;0,0320128
1556,2728;0,0319221
1557,2371;0,0315735
1558,2013;0,0310011
1559,1655;0,0305667
1560,1298;0,0305541
1561,0940;0,0308529
1562,0582;0,0312644
1563,0225;0,0316845
1563,9867;0,0320742
1564,9509;0,0324137
1565,9152;0,0326845
1566,8794;0,032875
1567,8436;0,0330013
1568,8079;0,0331225
1569,7721;0,0333116
1570,7363;0,0335982
1571,7006;0,0339527
1572,6648;0,0343205
1573,6290;0,0346574
1574,5933;0,0349502
1575,5575;0,0352351
1576,5217;0,0355898
1577,4860;0,036068
1578,4502;0,0366506
1579,4144;0,0372822
1580,3787;0,03792
1581,3429;0,0385429
1582,3071;0,0391444
1583,2714;0,0397306
1584,2356;0,0403172
1585,1998;0,0409208
1586,1641;0,0415463
1587,1283;0,0421801
1588,0925;0,0427945
1589,0568;0,0433587
1590,0210;0,0438488
1590,9852;0,0442494
1591,9495;0,0445481
1592,9137;0,0447325
1593,8779;0,0447962
1594,8422;0,0447488
1595,8064;0,0446185
1596,7706;0,0444409
1597,7349;0,0442441
1598,6991;0,0440421
1599,6633;0,043838
1600,6276;0,043633
1601,5918;0,0434331
1602,5560;0,0432497
1603,5203;0,0430941
1604,4845;0,0429693
1605,4487;0,0428662
1606,4130;0,0427683
1607,3772;0,042665
1608,3414;0,042566
1609,3057;0,0425032
1610,2699;0,0425086
1611,2341;0,0425862
1612,1984;0,0427033
1613,1626;0,0428023
1614,1268;0,0428235
1615,0911;0,0427439
1616,0553;0,0426248
1617,0195;0,0425965
1617,9838;0,0427408
1618,9480;0,0430239
1619,9122;0,0433573
1620,8765;0,0436659
1621,8407;0,0439098
1622,8049;0,0440884
1623,7692;0,044234
1624,7334;0,0443861
1625,6976;0,0445637
1626,6619;0,0447647
1627,6261;0,0449844
1628,5903;0,0452262
1629,5546;0,0454935
1630,5188;0,0457764
1631,4830;0,0460444
1632,4473;0,0462439
1633,4115;0,0463026
1634,3757;0,0461636
1635,3400;0,045876
1636,3042;0,0456333
1637,2684;0,045597
1638,2327;0,0457486
1639,1969;0,0459848
1640,1611;0,0462305
1641,1254;0,0464523
1642,0896;0,0466314
1643,0538;0,0467342
1644,0181;0,0466967
1644,9823;0,0464516
1645,9465;0,0460242
1646,9108;0,0456023
1647,8750;0,0453925
1648,8392;0,0454239
1649,8035;0,0455647
1650,7677;0,0456078
1651,7319;0,0453069
1652,6962;0,044526
1653,6604;0,0435638
1654,6246;0,0429315
1655,5889;0,0427125
1656,5531;0,0426906
1657,5173;0,0426828
1658,4816;0,042586
1659,4458;0,0423338
1660,4100;0,0418859
1661,3743;0,0412652
1662,3385;0,0405914
1663,3027;0,0400198
1664,2670;0,0396244
1665,2312;0,0393602
1666,1954;0,0391101
1667,1597;0,0387392
1668,1239;0,0381532
1669,0881;0,0373807
1670,0524;0,0365968
1671,0166;0,035982
1671,9808;0,0355602
1672,9451;0,0352181
1673,9093;0,0348289
1674,8735;0,0343493
1675,8378;0,03385
1676,8020;0,0334534
1677,7662;0,0332273
1678,7305;0,0331443
1679,6947;0,0331114
1680,6589;0,0329963
1681,6232;0,0326367
1682,5874;0,0318999
1683,5516;0,0308666
1684,5159;0,0299047
1685,4801;0,0293127
1686,4443;0,0290493
1687,4086;0,028926
1688,3728;0,0288128
1689,3370;0,028674
1690,3013;0,0285324
1691,2655;0,0284217
1692,2297;0,0283528
1693,1940;0,0283022
1694,1582;0,0282234
1695,1224;0,0280717
1696,0867;0,0278314
1697,0509;0,0275289
1698,0151;0,0272208
1698,9794;0,0269702
1699,9436;0,0268251
1700,9078;0,0268052
1701,8721;0,026899
1702,8363;0,0270762
1703,8005;0,0273056
1704,7648;0,0275662
1705,7290;0,0278517
1706,6932;0,0281678
1707,6575;0,0285235
1708,6217;0,0289224
1709,5859;0,0293604
1710,5502;0,0298278
1711,5144;0,0303087
1712,4786;0,0307782
1713,4429;0,0311999
1714,4071;0,0315307
1715,3713;0,0317434
1716,3356;0,0318719
1717,2998;0,032025
1718,2640;0,0322987
1719,2283;0,0326928
1720,1925;0,0331481
1721,1567;0,0336101
1722,1210;0,0340457
1723,0852;0,0344383
1724,0494;0,0347845
1725,0137;0,0350928
1725,9779;0,0353796
1726,9421;0,0356605
1727,9064;0,0359415
1728,8706;0,0362106
1729,8348;0,0364304
1730,7991;0,0365293
1731,7633;0,0364124
1732,7275;0,036025
1733,6918;0,0354521
1734,6560;0,0348963
1735,6202;0,0344921
1736,5845;0,0342166
1737,5487;0,033965
1738,5129;0,0336401
1739,4772;0,0331963
1740,4414;0,0326538
1741,4056;0,0320761
1742,3699;0,0315151
1743,3341;0,030976
1744,2983;0,030431
1745,2626;0,0298502
1746,2268;0,0292089
1747,1910;0,0284765
1748,1553;0,0276177
1749,1195;0,0266337
1750,0837;0,0256084
1751,0480;0,0246761
1752,0122;0,023922
1752,9764;0,0233343
1753,9407;0,0228411
1754,9049;0,0223689
1755,8691;0,0218808
1756,8334;0,0213824
1757,7976;0,0208955
1758,7618;0,0204223
1759,7261;0,0199362
1760,6903;0,019414
1761,6545;0,0188777
1762,6188;0,0183964
1763,5830;0,0180357
1764,5472;0,0178085
1765,5115;0,0176707
1766,4757;0,0175508
1767,4399;0,0173817
1768,4042;0,0171176
1769,3684;0,0167432
1770,3326;0,0162817
1771,2969;0,015805
1772,2611;0,0154199
1773,2253;0,0152094
1774,1896;0,015176
1775,1538;0,015254
1776,1180;0,0153617
1777,0823;0,0154366
1778,0465;0,0154482
1779,0107;0,0154005
1779,9750;0,0153235
1780,9392;0,0152502
1781,9034;0,0151922
1782,8677;0,0151383
1783,8319;0,0150778
1784,7961;0,0150224
1785,7604;0,0150029
1786,7246;0,0150444
1787,6888;0,0151419
1788,6531;0,0152534
1789,6173;0,015312
1790,5815;0,0152556
1791,5458;0,0150756
1792,5100;0,0148479
1793,4742;0,014683
1794,4385;0,0146351
1795,4027;0,0146808
1796,3669;0,0147619
1797,3312;0,0148253
1798,2954;0,0148395
1799,2596;0,0148002
1800,2239;0,0147263
1801,1881;0,0146472
1802,1523;0,0145863
1803,1166;0,0145549
1804,0808;0,0145568
1805,0450;0,0145915
1806,0093;0,0146521
1806,9735;0,0147219
1807,9377;0,0147744
1808,9020;0,014783
1809,8662;0,0147356
1810,8304;0,0146458
1811,7947;0,014547
1812,7589;0,0144706
1813,7231;0,01443
1814,6874;0,0144187
1815,6516;0,0144223
1816,6158;0,0144317
1817,5801;0,0144507
1818,5443;0,0144914
1819,5085;0,0145604
1820,4728;0,0146484
1821,4370;0,0147312
1822,4012;0,0147818
1823,3655;0,0147866
1824,3297;0,0147546
1825,2939;0,0147088
1826,2582;0,0146653
1827,2224;0,0146181
1828,1866;0,014548
1829,1509;0,0144486
1830,1151;0,0143468
1831,0793;0,0142893
1832,0436;0,0143047
1833,0078;0,0143825
1833,9720;0,0144839
1834,9363;0,0145667
1835,9005;0,0146087
1836,8647;0,0146199
1837,8290;0,0146348
1838,7932;0,0146843
1839,7574;0,0147705
1840,7217;0,0148636
1841,6859;0,0149158
1842,6501;0,0148866
1843,6144;0,0147745
1844,5786;0,0146292
1845,5428;0,0145175
1846,5071;0,0144707
1847,4713;0,0144746
1848,4355;0,0144957
1849,3998;0,0145086
1850,3640;0,0145062
1851,3282;0,0144985
1852,2925;0,0145019
1853,2567;0,0145274
1854,2209;0,0145747
1855,1852;0,014634
1856,1494;0,0146933
1857,1136;0,0147436
1858,0779;0,0147811
1859,0421;0,0148057
1860,0063;0,0148196
1860,9706;0,0148268
1861,9348;0,014833
1862,8990;0,0148441
1863,8633;0,0148616
1864,8275;0,0148803
1865,7917;0,0148871
1866,7560;0,0148674
1867,7202;0,0148149
1868,6844;0,0147407
1869,6487;0,0146673
1870,6129;0,0146121
1871,5771;0,0145792
1872,5414;0,0145647
1873,5056;0,0145647
1874,4698;0,0145784
1875,4341;0,0146068
1876,3983;0,0146484
1877,3625;0,0146974
1878,3268;0,0147453
1879,2910;0,0147864
1880,2552;0,0148219
1881,2195;0,0148584
1882,1837;0,014902
1883,1479;0,0149526
1884,1122;0,0150028
1885,0764;0,0150421
1886,0406;0,0150617
1887,0049;0,0150581
1887,9691;0,0150335
1888,9333;0,0149938
1889,8976;0,0149466
1890,8618;0,0148995
1891,8260;0,0148578
1892,7903;0,0148235
1893,7545;0,014795
1894,7188;0,0147679
1895,6830;0,0147393
1896,6472;0,0147133
1897,6115;0,0147025
1898,5757;0,0147216
1899,5399;0,0147774
1900,5042;0,0148609
1901,4684;0,0149475
1902,4326;0,0150084
1903,3969;0,0150263
1904,3611;0,0150056
1905,3253;0,0149674
1906,2896;0,0149349
1907,2538;0,0149191
1908,2180;0,0149151
1909,1823;0,0149121
1910,1465;0,0149071
1911,1107;0,0149115
1912,0750;0,0149431
1913,0392;0,0150131
1914,0034;0,0151171
1914,9677;0,0152362
1915,9319;0,015345
1916,8961;0,0154232
1917,8604;0,0154643
1918,8246;0,0154749
1919,7888;0,0154652
1920,7531;0,0154391
1921,7173;0,0153917
1922,6815;0,0153161
1923,6458;0,0152125
1924,6100;0,0150938
1925,5742;0,0149834
1926,5385;0,014906
1927,5027;0,0148786
1928,4669;0,0149038
1929,4312;0,0149685
1930,3954;0,0150487
1931,3596;0,0151194
1932,3239;0,0151661
1933,2881;0,015189
1934,2523;0,0151965
1935,2166;0,0151963
1936,1808;0,0151901
1937,1450;0,0151789
1938,1093;0,0151711
1939,0735;0,0151857
1940,0377;0,0152439
1941,0020;0,0153526
1941,9662;0,0154906
1942,9304;0,0156138
1943,8947;0,0156822
1944,8589;0,0156893
1945,8231;0,0156658
1946,7874;0,0156576
1947,7516;0,0156976
1948,7158;0,0157883
1949,6801;0,0159025
1950,6443;0,0160009
1951,6085;0,0160534
1952,5728;0,0160518
1953,5370;0,0160071
1954,5012;0,0159375
1955,4655;0,015858
1956,4297;0,0157799
1957,3939;0,0157187
1958,3582;0,0157015
1959,3224;0,0157637
1960,2866;0,0159298
1961,2509;0,0161899
1962,2151;0,0164891
1963,1793;0,0167423
1964,1436;0,0168672
1965,1078;0,0168206
1966,0720;0,0166218
1967,0363;0,0163477
1968,0005;0,0160955
1968,9647;0,0159327
1969,9290;0,0158715
1970,8932;0,015882
1971,8574;0,0159286
1972,8217;0,0159989
1973,7859;0,0161101
1974,7501;0,0162902
1975,7144;0,0165451
1976,6786;0,0168355
1977,6428;0,0170843
1978,6071;0,0172157
1979,5713;0,0171976
1980,5355;0,0170581
1981,4998;0,0168692
1982,4640;0,0167118
1983,4282;0,0166422
1984,3925;0,0166713
1985,3567;0,0167672
1986,3209;0,0168799
1987,2852;0,0169762
1988,2494;0,017061
1989,2136;0,0171688
1990,1779;0,0173316
1991,1421;0,017543
1992,1063;0,0177486
1993,0706;0,0178757
1994,0348;0,0178802
1994,9990;0,017774
1995,9633;0,0176154
1996,9275;0,0174753
1997,8917;0,0174026
1998,8560;0,0174062
1999,8202;0,0174589
2000,7844;0,0175182
2001,7487;0,0175491
2002,7129;0,0175381
2003,6771;0,0174964
2004,6414;0,0174586
2005,6056;0,0174743
2006,5698;0,017589
2007,5341;0,017815
2008,4983;0,01811
2009,4625;0,0183838
2010,4268;0,0185403
2011,3910;0,0185293
2012,3552;0,0183775
2013,3195;0,0181799
2014,2837;0,0180563
2015,2479;0,0180927
2016,2122;0,0183002
2017,1764;0,0186119
2018,1406;0,0189218
2019,1049;0,0191374
2020,0691;0,0192153
2021,0333;0,0191643
2021,9976;0,0190277
2022,9618;0,0188596
2023,9260;0,0187021
2024,8903;0,0185686
2025,8545;0,0184383
2026,8187;0,0182716
2027,7830;0,0180449
2028,7472;0,0177842
2029,7114;0,0175716
2030,6757;0,0175099
2031,6399;0,0176579
2032,6041;0,0179805
2033,5684;0,0183557
2034,5326;0,0186456
2035,4968;0,0187836
2036,4611;0,0188124
2037,4253;0,0188439
2038,3895;0,018974
2039,3538;0,0192137
2040,3180;0,0194787
2041,2822;0,0196415
2042,2465;0,0196105
2043,2107;0,0193819
2044,1749;0,0190361
2045,1392;0,0186887
2046,1034;0,0184347
2047,0676;0,0183123
2048,0320;0,0182983
2048,9961;0,0183307
2049,9604;0,0183411
2050,9246;0,0182826
2051,8889;0,0181437
2052,8530;0,0179508
2053,8174;0,0177584
2054,7815;0,0176271
2055,7458;0,0175938
2056,7100;0,0176494
2057,6743;0,0177419
2058,6384;0,0178069
2059,6028;0,017805
2060,5669;0,017742
2061,5313;0,0176604
2062,4954;0,0176087
2063,4597;0,0176111
2064,4238;0,0176566
2065,3882;0,0177121
2066,3523;0,0177464
2067,3167;0,0177464
2068,2808;0,0177175
2069,2451;0,017673
2070,2092;0,0176258
2071,1736;0,0175875
2072,1377;0,0175698
2073,1021;0,0175817
2074,0662;0,0176222
2075,0305;0,0176746
2075,9946;0,0177106
2076,9590;0,0177051
2077,9231;0,0176514
2078,8875;0,0175649
2079,8516;0,0174724
2080,8159;0,0173947
2081,7800;0,0173384
2082,7444;0,0173016
2083,7085;0,0172879
2084,6729;0,0173138
2085,6370;0,0173998
2086,6013;0,0175487
2087,5654;0,0177311
2088,5298;0,0178893
2089,4939;0,0179646
2090,4583;0,0179299
2091,4224;0,0178057
2092,3867;0,0176506
2093,3508;0,0175312
2094,3152;0,0174915
2095,2793;0,0175378
2096,2437;0,0176442
2097,2078;0,0177714
2098,1721;0,0178838
2099,1362;0,0179588
2100,1006;0,017988
2101,0647;0,0179768
2102,0291;0,0179398
2102,9932;0,0178952
2103,9575;0,017854
2104,9216;0,0178136
2105,8860;0,0177604
2106,8501;0,017685
2107,8145;0,0175965
2108,7786;0,0175249
2109,7429;0,0175043
2110,7070;0,0175489
2111,6714;0,0176377
2112,6355;0,0177231
2113,5999;0,0177576
2114,5640;0,0177227
2115,5283;0,01764
2116,4924;0,0175584
2117,4568;0,0175263
2118,4209;0,017567
2119,3853;0,0176703
2120,3494;0,0178021
2121,3137;0,0179222
2122,2778;0,0180005
2123,2422;0,0180223
2124,2063;0,0179869
2125,1707;0,0179045
2126,1348;0,0177947
2127,0991;0,0176869
2128,0632;0,0176159
2129,0276;0,0176133
2129,9917;0,017696
2130,9561;0,0178584
2131,9202;0,0180738
2132,8845;0,0183032
2133,8486;0,0185085
2134,8130;0,0186627
2135,7771;0,0187525
2136,7415;0,0187769
2137,7056;0,0187441
2138,6699;0,0186729
2139,6340;0,0185949
2140,5984;0,0185514
2141,5625;0,018583
2142,5269;0,0187137
2143,4910;0,01894
2144,4553;0,0192307
2145,4194;0,0195395
2146,3838;0,0198216
2147,3479;0,0200459
2148,3123;0,0201981
2149,2764;0,0202778
2150,2407;0,0202943
2151,2048;0,0202678
2152,1692;0,0202299
2153,1333;0,0202219
2154,0977;0,0202863
2155,0618;0,0204537
2156,0261;0,0207287
2156,9902;0,0210772
2157,9546;0,021425
2158,9187;0,0216771
2159,8831;0,0217588
2160,8472;0,0216499
2161,8115;0,0213902
2162,7756;0,0210584
2163,7400;0,0207439
2164,7041;0,0205205
2165,6685;0,0204246
2166,6326;0,0204476
2167,5969;0,0205455
2168,5610;0,0206649
2169,5254;0,0207678
2170,4895;0,0208413
2171,4539;0,0208898
2172,4180;0,020918
2173,3823;0,0209172
2174,3464;0,0208656
2175,3108;0,0207419
2176,2749;0,0205456
2177,2393;0,0203074
2178,2034;0,0200829
2179,1677;0,0199277
2180,1318;0,019867
2181,0962;0,0198767
2182,0603;0,0198914
2183,0247;0,0198443
2183,9888;0,0197153
2184,9531;0,019551
2185,9172;0,0194401
2186,8816;0,0194552
2187,8457;0,0196026
2188,8101;0,0198142
2189,7742;0,0199861
2190,7385;0,0200395
2191,7026;0,0199597
2192,6670;0,019792
2193,6311;0,0196039
2194,5955;0,0194479
2195,5596;0,0193484
2196,5239;0,0193137
2197,4880;0,0193496
2198,4524;0,0194543
2199,4165;0,0196012
2200,3809;0,0197305
2201,3450;0,0197703
2202,3093;0,0196778
2203,2734;0,0194717
2204,2378;0,0192275
2205,2019;0,0190356
2206,1663;0,01895
2207,1304;0,0189636
2208,0947;0,019023
2209,0588;0,0190688
2210,0232;0,0190698
2210,9873;0,019032
2211,9517;0,0189823
2212,9158;0,0189447
2213,8801;0,0189282
2214,8442;0,0189291
2215,8086;0,0189412
2216,7727;0,0189626
2217,7371;0,0189944
2218,7012;0,0190361
2219,6655;0,0190825
2220,6296;0,0191253
2221,5940;0,0191575
2222,5581;0,0191757
2223,5225;0,0191776
2224,4866;0,019158
2225,4509;0,0191067
2226,4150;0,019013
2227,3794;0,0188748
2228,3435;0,0187069
2229,3079;0,01854
2230,2720;0,0184077
2231,2363;0,0183299
2232,2004;0,0183033
2233,1648;0,0183071
2234,1289;0,0183201
2235,0933;0,0183361
2236,0574;0,0183654
2237,0217;0,018421
2237,9858;0,0185003
2238,9502;0,0185803
2239,9143;0,0186284
2240,8787;0,0186235
2241,8428;0,0185695
2242,8071;0,0184931
2243,7712;0,0184267
2244,7356;0,0183904
2245,6997;0,0183841
2246,6641;0,0183925
2247,6282;0,0183961
2248,5925;0,0183824
2249,5566;0,0183508
2250,5210;0,0183133
2251,4851;0,0182915
2252,4495;0,0183084
2253,4136;0,0183771
2254,3779;0,018489
2255,3420;0,0186105
2256,3064;0,0186944
2257,2705;0,0187009
2258,2349;0,0186171
2259,1990;0,0184627
2260,1633;0,0182797
2261,1274;0,0181124
2262,0918;0,0179916
2263,0559;0,017929
2264,0203;0,0179214
2264,9844;0,0179586
2265,9487;0,0180267
2266,9128;0,0181081
2267,8772;0,018182
2268,8413;0,0182288
2269,8057;0,018237
2270,7698;0,0182092
2271,7341;0,0181596
2272,6982;0,0181057
2273,6626;0,018059
2274,6267;0,0180202
2275,5911;0,0179833
2276,5552;0,0179435
2277,5195;0,0179042
2278,4836;0,0178763
2279,4480;0,0178722
2280,4121;0,0178991
2281,3765;0,0179555
2282,3406;0,018034
2283,3049;0,0181255
2284,2690;0,0182224
2285,2334;0,0183189
2286,1975;0,0184101
2287,1619;0,0184917
2288,1260;0,0185622
2289,0903;0,0186253
2290,0544;0,018689
2291,0188;0,0187628
2291,9829;0,0188532
2292,9473;0,0189609
2293,9114;0,0190821
2294,8757;0,0192118
2295,8398;0,0193458
2296,8042;0,0194807
2297,7683;0,0196117
2298,7327;0,019732
2299,6968;0,0198348
2300,6611;0,019918
2301,6252;0,0199875
2302,5896;0,0200567
2303,5537;0,0201417
2304,5181;0,0202548
2305,4822;0,0203985
2306,4465;0,0205627
2307,4106;0,0207256
2308,3750;0,0208588
2309,3391;0,0209359
2310,3035;0,0209429
2311,2676;0,0208855
2312,2319;0,0207896
2313,1960;0,0206908
2314,1604;0,0206186
2315,1245;0,0205835
2316,0889;0,0205761
2317,0530;0,0205761
2318,0173;0,0205654
2318,9814;0,0205375
2319,9458;0,0204974
2320,9099;0,0204556
2321,8743;0,0204188
2322,8384;0,0203852
2323,8027;0,0203456
2324,7668;0,0202877
2325,7312;0,020203
2326,6953;0,0200911
2327,6597;0,0199591
2328,6238;0,0198159
2329,5881;0,0196666
2330,5522;0,0195131
2331,5166;0,0193584
2332,4807;0,0192073
2333,4451;0,0190609
2334,4092;0,0189149
2335,3735;0,0187674
2336,3376;0,0186305
2337,3020;0,0185347
2338,2661;0,0185178
2339,2305;0,0185984
2340,1946;0,0187491
2341,1589;0,0188909
2342,1230;0,0189279
2343,0874;0,0188327
2344,0515;0,0187277
2345,0159;0,0188255
2345,9800;0,0192327
2346,9443;0,0198526
2347,9084;0,0204761
2348,8728;0,0209187
2349,8369;0,0210946
2350,8013;0,0210292
2351,7654;0,0208306
2352,7297;0,0206323
2353,6938;0,020529
2354,6582;0,0205441
2355,6223;0,0206416
2356,5867;0,020749
2357,5508;0,0207782
2358,5151;0,0206652
2359,4792;0,020418
2360,4436;0,0201213
2361,4077;0,0198727
2362,3721;0,0197081
2363,3362;0,0195877
2364,3005;0,0194452
2365,2646;0,019247
2366,2290;0,0190132
2367,1931;0,0187939
2368,1575;0,0186321
2369,1216;0,0185397
2370,0859;0,018498
2371,0500;0,0184733
2372,0144;0,0184386
2372,9785;0,0183888
2373,9429;0,0183437
2374,9070;0,0183365
2375,8713;0,0183955
2376,8354;0,018528
2377,7998;0,0187139
2378,7639;0,0189129
2379,7283;0,0190782
2380,6924;0,0191724
2381,6567;0,0191779
2382,6208;0,0191002
2383,5852;0,0189629
2384,5493;0,0187985
2385,5137;0,0186383
2386,4778;0,0185033
2387,4421;0,0184007
2388,4063;0,0183266
2389,3706;0,0182717
2390,3347;0,018229
2391,2991;0,0181965
2392,2632;0,0181758
2393,2275;0,0181675
2394,1917;0,0181689
2395,1560;0,0181746
2396,1201;0,0181801
2397,0845;0,0181856
2398,0486;0,0181956
2399,0129;0,0182144
2399,9771;0,0182418
2400,9414;0,0182734
2401,9055;0,0183029
2402,8699;0,0183275
2403,8340;0,0183495
2404,7983;0,0183736
2405,7625;0,0184024
2406,7268;0,0184324
2407,6909;0,0184561
2408,6553;0,0184674
2409,6194;0,0184676
2410,5837;0,0184661
2411,5479;0,0184758
2412,5122;0,0185046
2413,4763;0,0185496
2414,4407;0,0185971
2415,4048;0,01863
2416,3691;0,0186368
2417,3333;0,0186189
2418,2976;0,0185896
2419,2617;0,0185674
2420,2261;0,018566
2421,1902;0,0185877
2422,1545;0,0186238
2423,1187;0,0186604
2424,0830;0,0186868
2425,0471;0,0187015
2426,0115;0,0187124
2426,9756;0,0187309
2427,9399;0,0187657
2428,9041;0,0188161
2429,8684;0,0188727
2430,8325;0,0189208
2431,7969;0,0189486
2432,7610;0,0189524
2433,7253;0,0189385
2434,6895;0,0189189
2435,6538;0,0189049
2436,6179;0,0189016
2437,5823;0,0189069
2438,5464;0,018916
2439,5107;0,018926
2440,4749;0,0189392
2441,4392;0,0189617
2442,4033;0,0189981
2443,3677;0,0190473
2444,3318;0,0191015
2445,2961;0,0191491
2446,2603;0,0191805
2447,2246;0,0191933
2448,1887;0,0191928
2449,1531;0,0191898
2450,1172;0,0191946
2451,0815;0,0192123
2452,0457;0,0192401
2453,0100;0,0192698
2453,9741;0,0192917
2454,9385;0,0193001
2455,9026;0,0192952
2456,8669;0,0192819
2457,8311;0,0192664
2458,7954;0,0192535
2459,7595;0,0192459
2460,7239;0,0192457
2461,6880;0,0192554
2462,6523;0,0192776
2463,6165;0,0193131
2464,5808;0,0193591
2465,5449;0,0194101
2466,5093;0,0194596
2467,4734;0,0195033
2468,4377;0,0195393
2469,4019;0,0195667
2470,3662;0,0195838
2471,3303;0,0195885
2472,2947;0,0195803
2473,2588;0,0195628
2474,2231;0,0195438
2475,1873;0,0195323
2476,1516;0,0195338
2477,1157;0,0195482
2478,0801;0,0195707
2479,0442;0,0195956
2480,0085;0,0196198
2480,9727;0,0196441
2481,9370;0,0196707
2482,9011;0,0196995
2483,8655;0,0197266
2484,8296;0,0197452
2485,7939;0,0197483
2486,7581;0,0197328
2487,7224;0,0197012
2488,6865;0,0196622
2489,6509;0,0196276
2490,6150;0,0196097
2491,5793;0,019617
2492,5435;0,0196511
2493,5078;0,0197052
2494,4719;0,0197657
2495,4363;0,0198166
2496,4004;0,0198454
2497,3647;0,0198475
2498,3289;0,0198286
2499,2932;0,0198015
2500,2573;0,0197815
2501,2217;0,0197808
2502,1858;0,0198045
2503,1501;0,0198496
2504,1143;0,019907
2505,0786;0,0199644
2506,0427;0,0200102
2507,0071;0,0200366
2507,9712;0,020041
2508,9355;0,0200275
2509,8997;0,0200052
2510,8640;0,019986
2511,8281;0,0199806
2512,7925;0,0199939
2513,7566;0,0200222
2514,7209;0,0200542
2515,6851;0,0200746
2516,6494;0,0200719
2517,6135;0,0200436
2518,5779;0,019998
2519,5420;0,0199506
2520,5063;0,0199166
2521,4705;0,0199049
2522,4348;0,0199153
2523,3989;0,019941
2524,3633;0,0199728
2525,3274;0,0200024
2526,2917;0,0200238
2527,2559;0,0200328
2528,2202;0,0200277
2529,1843;0,0200107
2530,1487;0,0199884
2531,1128;0,0199706
2532,0771;0,019966
2533,0413;0,0199782
2534,0056;0,020004
2534,9697;0,0200358
2535,9341;0,0200656
2536,8982;0,0200883
2537,8625;0,0201022
2538,8267;0,0201072
2539,7910;0,0201042
2540,7551;0,0200947
2541,7195;0,0200829
2542,6836;0,0200746
2543,6479;0,020076
2544,6121;0,0200902
2545,5764;0,0201158
2546,5405;0,020148
2547,5049;0,0201821
2548,4690;0,020215
2549,4333;0,0202463
2550,3975;0,0202756
2551,3618;0,0203003
2552,3259;0,0203159
2553,2903;0,0203173
2554,2544;0,0203022
2555,2188;0,0202726
2556,1829;0,0202351
2557,1472;0,0201988
2558,1113;0,0201729
2559,0757;0,0201637
2560,0398;0,0201732
2561,0042;0,0201978
2561,9683;0,0202294
2562,9326;0,0202568
2563,8967;0,0202693
2564,8611;0,0202604
2565,8252;0,0202316
2566,7896;0,020193
2567,7537;0,0201604
2568,7180;0,0201495
2569,6821;0,0201697
2570,6465;0,0202189
2571,6106;0,0202849
2572,5750;0,0203494
2573,5391;0,0203952
2574,5034;0,0204117
2575,4675;0,0203977
2576,4319;0,0203606
2577,3960;0,0203144
2578,3604;0,0202747
2579,3245;0,0202545
2580,2888;0,0202597
2581,2529;0,0202868
2582,2173;0,0203244
2583,1814;0,020359
2584,1458;0,0203818
2585,1099;0,0203921
2586,0742;0,0203964
2587,0383;0,0204025
2588,0027;0,0204146
2588,9668;0,0204316
2589,9312;0,0204499
2590,8953;0,0204679
2591,8596;0,0204868
2592,8237;0,0205089
2593,7881;0,0205334
2594,7522;0,0205554
2595,7166;0,0205683
2596,6807;0,0205683
2597,6450;0,0205573
2598,6091;0,0205419
2599,5735;0,0205295
2600,5376;0,0205245
2601,5020;0,0205275
2602,4661;0,0205366
2603,4304;0,02055
2604,3945;0,0205677
2605,3589;0,020591
2606,3230;0,0206211
2607,2874;0,0206578
2608,2515;0,0206991
2609,2158;0,0207405
2610,1799;0,0207761
2611,1443;0,0207995
2612,1084;0,020806
2613,0728;0,0207942
2614,0369;0,0207681
2615,0012;0,0207361
2615,9653;0,0207092
2616,9297;0,0206971
2617,8938;0,0207046
2618,8582;0,0207294
2619,8223;0,0207633
2620,7866;0,0207962
2621,7507;0,0208207
2622,7151;0,0208356
2623,6792;0,0208458
2624,6436;0,0208591
2625,6077;0,0208814
2626,5720;0,020913
2627,5361;0,0209495
2628,5005;0,020984
2629,4646;0,0210108
2630,4290;0,0210279
2631,3931;0,0210367
2632,3574;0,0210399
2633,3215;0,0210402
2634,2859;0,0210395
2635,2500;0,0210394
2636,2144;0,0210422
2637,1785;0,0210514
2638,1428;0,0210704
2639,1069;0,0211005
2640,0713;0,02114
2641,0354;0,0211831
2641,9998;0,0212226
2642,9639;0,0212521
2643,9282;0,021269
2644,8923;0,0212753
2645,8567;0,0212755
2646,8208;0,0212746
2647,7852;0,0212758
2648,7493;0,0212802
2649,7136;0,0212883
2650,6777;0,0213009
2651,6421;0,0213192
2652,6062;0,0213434
2653,5706;0,021372
2654,5347;0,0214019
2655,4990;0,02143
2656,4631;0,0214548
2657,4275;0,0214765
2658,3916;0,0214962
2659,3560;0,0215143
2660,3201;0,0215298
2661,2844;0,0215417
2662,2485;0,0215499
2663,2129;0,0215563
2664,1770;0,0215643
2665,1414;0,0215776
2666,1055;0,0215985
2667,0698;0,0216266
2668,0339;0,021659
2668,9983;0,0216909
2669,9624;0,0217173
2670,9268;0,0217351
2671,8909;0,0217447
2672,8552;0,0217499
2673,8193;0,0217562
2674,7837;0,0217677
2675,7478;0,0217856
2676,7122;0,0218077
2677,6763;0,0218303
2678,6406;0,0218512
2679,6047;0,0218713
2680,5691;0,0218935
2681,5332;0,0219202
2682,4976;0,0219517
2683,4617;0,0219856
2684,4260;0,0220182
2685,3901;0,0220473
2686,3545;0,0220736
2687,3186;0,0220996
2688,2830;0,0221282
2689,2471;0,0221595
2690,2114;0,0221914
2691,1755;0,0222207
2692,1399;0,0222454
2693,1040;0,0222663
2694,0684;0,0222864
2695,0325;0,0223082
2695,9968;0,0223321
2696,9609;0,0223561
2697,9253;0,0223787
2698,8894;0,0224002
2699,8538;0,0224243
2700,8179;0,022455
2701,7822;0,0224934
2702,7463;0,0225357
2703,7107;0,0225746
2704,6748;0,0226037
2705,6392;0,0226211
2706,6033;0,0226313
2707,5676;0,0226419
2708,5317;0,0226597
2709,4961;0,0226872
2710,4602;0,0227217
2711,4246;0,0227583
2712,3887;0,022793
2713,3530;0,0228246
2714,3171;0,0228539
2715,2815;0,0228824
2716,2456;0,0229103
2717,2100;0,0229364
2718,1741;0,0229592
2719,1384;0,0229782
2720,1025;0,0229947
2721,0669;0,0230108
2722,0310;0,0230281
2722,9954;0,0230471
2723,9595;0,0230669
2724,9238;0,0230866
2725,8879;0,0231067
2726,8523;0,0231291
2727,8164;0,0231561
2728,7808;0,0231896
2729,7449;0,0232285
2730,7092;0,0232695
2731,6733;0,0233077
2732,6377;0,023339
2733,6018;0,0233614
2734,5662;0,0233753
2735,5303;0,0233832
2736,4946;0,0233874
2737,4587;0,0233898
2738,4231;0,0233917
2739,3872;0,0233949
2740,3516;0,0234025
2741,3157;0,0234183
2742,2800;0,0234451
2743,2441;0,0234814
2744,2085;0,023521
2745,1726;0,0235547
2746,1370;0,0235742
2747,1011;0,0235768
2748,0654;0,0235675
2749,0295;0,0235568
2749,9939;0,0235561
2750,9580;0,0235721
2751,9224;0,023605
2752,8865;0,0236494
2753,8508;0,0236988
2754,8149;0,0237478
2755,7793;0,0237938
2756,7434;0,0238356
2757,7078;0,023872
2758,6719;0,0239015
2759,6362;0,023924
2760,6003;0,0239415
2761,5647;0,0239586
2762,5288;0,0239796
2763,4932;0,0240065
2764,4573;0,0240379
2765,4216;0,0240703
2766,3857;0,0241006
2767,3501;0,0241282
2768,3142;0,0241548
2769,2786;0,0241825
2770,2427;0,0242127
2771,2070;0,0242448
2772,1711;0,0242776
2773,1355;0,0243101
2774,0996;0,0243421
2775,0640;0,0243743
2776,0281;0,0244076
2776,9924;0,024443
2777,9565;0,0244817
2778,9209;0,0245248
2779,8850;0,0245729
2780,8494;0,0246249
2781,8135;0,0246783
2782,7778;0,0247298
2783,7419;0,0247762
2784,7063;0,0248155
2785,6704;0,0248472
2786,6348;0,0248725
2787,5989;0,0248944
2788,5632;0,0249178
2789,5273;0,0249484
2790,4917;0,0249912
2791,4558;0,0250475
2792,4202;0,0251142
2793,3843;0,0251847
2794,3486;0,0252526
2795,3127;0,0253145
2796,2771;0,0253712
2797,2412;0,0254263
2798,2056;0,0254831
2799,1697;0,0255427
2800,1340;0,0256037
2801,0981;0,0256651
2802,0625;0,0257273
2803,0266;0,0257927
2803,9910;0,0258637
2804,9551;0,0259405
2805,9194;0,0260211
2806,8835;0,0261022
2807,8479;0,0261822
2808,8120;0,0262626
2809,7764;0,0263471
2810,7405;0,0264395
2811,7048;0,026541
2812,6689;0,0266492
2813,6333;0,0267599
2814,5974;0,0268692
2815,5618;0,0269751
2816,5259;0,0270782
2817,4902;0,0271808
2818,4543;0,0272855
2819,4187;0,0273946
2820,3828;0,0275096
2821,3472;0,027631
2822,3113;0,0277581
2823,2756;0,0278885
2824,2397;0,0280191
2825,2041;0,0281482
2826,1682;0,0282768
2827,1326;0,0284095
2828,0967;0,0285523
2829,0610;0,0287102
2830,0251;0,0288847
2830,9895;0,0290735
2831,9536;0,0292725
2832,9180;0,029478
2833,8821;0,0296885
2834,8464;0,0299043
2835,8105;0,0301276
2836,7749;0,0303625
2837,7390;0,0306144
2838,7034;0,030891
2839,6675;0,0312005
2840,6318;0,0315509
2841,5959;0,0319473
2842,5603;0,0323913
2843,5244;0,0328792
2844,4888;0,0334001
2845,4529;0,0339331
2846,4172;0,0344464
2847,3813;0,0348999
2848,3457;0,0352532
2849,3098;0,0354764
2850,2742;0,0355596
2851,2383;0,0355173
2852,2026;0,0353833
2853,1667;0,0352007
2854,1311;0,035009
2855,0952;0,0348355
2856,0596;0,0346914
2857,0237;0,0345757
2857,9880;0,0344824
2858,9521;0,0344076
2859,9165;0,0343538
2860,8806;0,0343291
2861,8450;0,0343423
2862,8091;0,0343967
2863,7734;0,0344871
2864,7375;0,0346009
2865,7019;0,0347228
2866,6660;0,0348403
2867,6304;0,0349465
2868,5945;0,0350389
2869,5588;0,0351178
2870,5229;0,0351836
2871,4873;0,0352375
2872,4514;0,0352828
2873,4158;0,0353252
2874,3799;0,0353717
2875,3442;0,0354271
2876,3083;0,0354919
2877,2727;0,0355619
2878,2368;0,0356314
2879,2012;0,0356961
2880,1653;0,0357555
2881,1296;0,0358125
2882,0938;0,0358713
2883,0581;0,0359351
2884,0222;0,0360048
2884,9866;0,0360796
2885,9507;0,0361582
2886,9150;0,0362399
2887,8792;0,0363249
2888,8435;0,0364132
2889,8076;0,0365036
2890,7720;0,0365937
2891,7361;0,0366806
2892,7004;0,0367628
2893,6646;0,0368418
2894,6289;0,0369218
2895,5930;0,0370079
2896,5574;0,0371029
2897,5215;0,0372059
2898,4858;0,0373116
2899,4500;0,0374128
2900,4143;0,0375038
2901,3784;0,037583
2902,3428;0,0376534
2903,3069;0,0377228
2904,2712;0,0378012
2905,2354;0,0378988
2906,1997;0,0380244
2907,1638;0,0381843
2908,1282;0,0383822
2909,0923;0,03862
2910,0566;0,0388965
2911,0208;0,0392064
2911,9851;0,0395373
2912,9492;0,0398679
2913,9136;0,0401699
2914,8777;0,0404126
2915,8420;0,0405709
2916,8062;0,0406323
2917,7705;0,0405985
2918,7346;0,0404835
2919,6990;0,0403065
2920,6631;0,0400861
2921,6274;0,0398361
2922,5916;0,0395662
2923,5559;0,0392826
2924,5200;0,0389905
2925,4844;0,0386943
2926,4485;0,038398
2927,4128;0,0381052
2928,3770;0,0378196
2929,3413;0,0375446
2930,3054;0,0372831
2931,2698;0,0370369
2932,2339;0,0368057
2933,1982;0,0365874
2934,1624;0,0363778
2935,1267;0,0361719
2936,0908;0,0359644
2937,0552;0,0357513
2938,0193;0,0355309
2938,9836;0,0353046
2939,9478;0,0350754
2940,9121;0,0348472
2941,8762;0,0346223
2942,8406;0,0344015
2943,8047;0,0341844
2944,7690;0,0339714
2945,7332;0,0337646
2946,6975;0,033567
2947,6616;0,0333818
2948,6260;0,0332108
2949,5901;0,0330539
2950,5544;0,032909
2951,5186;0,0327724
2952,4829;0,0326393
2953,4470;0,0325044
2954,4114;0,0323629
2955,3755;0,0322118
2956,3398;0,0320511
2957,3040;0,0318831
2958,2683;0,0317115
2959,2324;0,0315398
2960,1968;0,0313704
2961,1609;0,0312051
2962,1252;0,0310459
2963,0894;0,0308951
2964,0537;0,0307545
2965,0178;0,0306237
2965,9822;0,0304995
2966,9463;0,0303764
2967,9106;0,0302489
2968,8748;0,0301139
2969,8391;0,0299716
2970,8032;0,0298251
2971,7676;0,0296777
2972,7317;0,0295319
2973,6960;0,0293879
2974,6602;0,0292449
2975,6245;0,0291034
2976,5886;0,0289656
2977,5530;0,0288361
2978,5171;0,0287199
2979,4814;0,0286202
2980,4456;0,0285372
2981,4099;0,0284682
2982,3740;0,0284082
2983,3384;0,0283525
2984,3025;0,0282976
2985,2668;0,0282421
2986,2310;0,0281864
2987,1953;0,0281318
2988,1594;0,02808
2989,1238;0,0280323
2990,0879;0,0279898
2991,0522;0,0279533
2992,0164;0,027924
2992,9807;0,0279038
2993,9448;0,0278948
2994,9092;0,0278992
2995,8733;0,0279177
2996,8376;0,0279487
2997,8018;0,0279879
2998,7661;0,0280283
2999,7302;0,0280623
3000,6946;0,0280846
3001,6587;0,0280946
3002,6230;0,0280973
3003,5872;0,0281019
3004,5515;0,0281174
3005,5156;0,0281479
3006,4800;0,0281904
3007,4441;0,028236
3008,4084;0,028275
3009,3726;0,0283026
3010,3369;0,0283216
3011,3010;0,028341
3012,2654;0,0283706
3013,2295;0,0284153
3014,1938;0,0284728
3015,1580;0,0285356
3016,1223;0,0285958
3017,0864;0,0286496
3018,0508;0,0286979
3019,0149;0,0287449
3019,9792;0,0287946
3020,9434;0,0288491
3021,9077;0,0289093
3022,8718;0,0289756
3023,8362;0,0290486
3024,8003;0,0291287
3025,7646;0,0292141
3026,7288;0,0293008
3027,6931;0,0293828
3028,6572;0,0294549
3029,6216;0,0295143
3030,5857;0,0295615
3031,5500;0,0296002
3032,5142;0,0296357
3033,4785;0,0296742
3034,4426;0,0297212
3035,4070;0,0297809
3036,3711;0,0298548
3037,3354;0,0299409
3038,2996;0,0300349
3039,2639;0,0301316
3040,2280;0,0302278
3041,1924;0,0303228
3042,1565;0,0304175
3043,1208;0,0305124
3044,0850;0,0306053
3045,0493;0,0306926
3046,0134;0,0307718
3046,9778;0,0308451
3047,9419;0,0309195
3048,9063;0,0310046
3049,8704;0,0311064
3050,8347;0,0312229
3051,7988;0,0313436
3052,7632;0,0314538
3053,7273;0,0315429
3054,6917;0,0316095
3055,6558;0,0316634
3056,6201;0,0317203
3057,5842;0,031794
3058,5486;0,0318899
3059,5127;0,0320036
3060,4771;0,0321249
3061,4412;0,0322433
3062,4055;0,0323526
3063,3696;0,0324517
3064,3340;0,0325433
3065,2981;0,0326311
3066,2625;0,0327188
3067,2266;0,0328087
3068,1909;0,0329021
3069,1550;0,0329989
3070,1194;0,0330981
3071,0835;0,0331983
3072,0479;0,0332981
3073,0120;0,0333972
3073,9763;0,0334957
3074,9404;0,0335934
3075,9048;0,0336895
3076,8689;0,0337826
3077,8333;0,0338712
3078,7974;0,0339544
3079,7617;0,0340325
3080,7258;0,0341066
3081,6902;0,0341791
3082,6543;0,0342535
3083,6187;0,0343336
3084,5828;0,0344222
3085,5471;0,0345194
3086,5112;0,0346221
3087,4756;0,0347252
3088,4397;0,0348242
3089,4041;0,0349173
3090,3682;0,0350064
3091,3325;0,0350952
3092,2966;0,0351875
3093,2610;0,0352849
3094,2251;0,0353869
3095,1895;0,0354909
3096,1536;0,0355934
3097,1179;0,0356911
3098,0820;0,035782
3099,0464;0,0358665
3100,0105;0,0359479
3100,9749;0,0360316
3101,9390;0,0361232
3102,9033;0,0362263
3103,8674;0,0363404
3104,8318;0,0364613
3105,7959;0,0365828
3106,7603;0,0366991
3107,7244;0,036807
3108,6887;0,0369071
3109,6528;0,0370036
3110,6172;0,0371031
3111,5813;0,0372114
3112,5457;0,0373314
3113,5098;0,0374609
3114,4741;0,0375934
3115,4382;0,0377206
3116,4026;0,0378364
3117,3667;0,0379392
3118,3311;0,0380332
3119,2952;0,0381258
3120,2595;0,0382246
3121,2236;0,038334
3122,1880;0,0384536
3123,1521;0,038579
3124,1165;0,038703
3125,0806;0,0388196
3126,0449;0,0389271
3127,0090;0,039029
3127,9734;0,039133
3128,9375;0,0392473
3129,9019;0,0393759
3130,8660;0,0395159
3131,8303;0,0396586
3132,7944;0,0397943
3133,7588;0,0399184
3134,7229;0,0400342
3135,6873;0,0401511
3136,6514;0,0402787
3137,6157;0,0404207
3138,5798;0,0405724
3139,5442;0,0407241
3140,5083;0,0408662
3141,4727;0,0409947
3142,4368;0,0411126
3143,4011;0,041227
3144,3652;0,0413449
3145,3296;0,0414704
3146,2937;0,0416045
3147,2581;0,0417459
3148,2222;0,0418921
3149,1865;0,0420398
3150,1506;0,0421851
3151,1150;0,0423242
3152,0791;0,0424561
3153,0435;0,0425835
3154,0076;0,0427124
3154,9719;0,0428493
3155,9360;0,0429982
3156,9004;0,0431585
3157,8645;0,0433265
3158,8289;0,0434969
3159,7930;0,043665
3160,7573;0,0438268
3161,7214;0,04398
3162,6858;0,0441242
3163,6499;0,0442619
3164,6143;0,0443974
3165,5784;0,0445348
3166,5427;0,0446751
3167,5068;0,0448154
3168,4712;0,0449514
3169,4353;0,0450469
3170,3997;0,0451786
3171,3638;0,0453199
3172,3281;0,0454766
3173,2922;0,0456455
3174,2566;0,0458145
3175,2207;0,045969
3176,1851;0,0461012
3177,1492;0,0462149
3178,1135;0,0463236
3179,0776;0,0464416
3180,0420;0,0465755
3181,0061;0,0467231
3181,9705;0,0468777
3182,9346;0,0470345
3183,8989;0,0471939
3184,8630;0,0473588
3185,8274;0,0475286
3186,7915;0,0476969
3187,7559;0,0478532
3188,7200;0,0479895
3189,6843;0,0481057
3190,6484;0,0482101
3191,6128;0,0483158
3192,5769;0,048434
3193,5413;0,04857
3194,5054;0,0487216
3195,4697;0,048882
3196,4338;0,0490428
3197,3982;0,0491967
3198,3623;0,04934
3199,3267;0,0494729
3200,2908;0,0495989
3201,2551;0,0497229
3202,2192;0,0498489
3203,1836;0,0499783
3204,1477;0,0501092
3205,1121;0,0502384
3206,0762;0,0503636
3207,0405;0,0504854
3208,0046;0,0506065
3208,9690;0,0507297
3209,9331;0,0508564
3210,8975;0,0509859
3211,8616;0,0511163
3212,8259;0,0512468
3213,7900;0,0513779
3214,7544;0,0515108
3215,7185;0,0516463
3216,6829;0,0517836
3217,6470;0,0519211
3218,6113;0,0520572
3219,5754;0,0521913
3220,5398;0,052324
3221,5039;0,0524562
3222,4683;0,0525891
3223,4324;0,0527234
3224,3967;0,0528599
3225,3608;0,052999
3226,3252;0,0531402
3227,2893;0,0532816
3228,2537;0,0534204
3229,2178;0,0535544
3230,1821;0,0536831
3231,1462;0,0538086
3232,1106;0,0539342
3233,0747;0,0540621
3234,0391;0,0541921
3235,0032;0,0543218
3235,9675;0,0544489
3236,9316;0,0545739
3237,8960;0,0547014
3238,8601;0,0548368
3239,8245;0,0549831
3240,7886;0,0551371
3241,7529;0,0552902
3242,7170;0,0554332
3243,6814;0,0555618
3244,6455;0,0556808
3245,6099;0,055802
3246,5740;0,055937
3247,5383;0,056091
3248,5024;0,0562592
3249,4668;0,056431
3250,4309;0,0565965
3251,3953;0,0567518
3252,3594;0,0569003
3253,3237;0,0570488
3254,2878;0,0572012
3255,2522;0,057356
3256,2163;0,0575081
3257,1807;0,0576531
3258,1448;0,0577922
3259,1091;0,0579321
3260,0732;0,0580809
3261,0376;0,0582424
3262,0017;0,0584135
3262,9661;0,0585855
3263,9302;0,0587485
3264,8945;0,0588968
3265,8586;0,0590299
3266,8230;0,0591518
3267,7871;0,0592668
3268,7515;0,0593775
3269,7156;0,0594841
3270,6799;0,0595869
3271,6440;0,059687
3272,6084;0,0597873
3273,5725;0,0598902
3274,5369;0,0599955
3275,5010;0,0600997
3276,4653;0,060197
3277,4294;0,0602822
3278,3938;0,060353
3279,3579;0,0604104
3280,3223;0,0604577
3281,2864;0,0604984
3282,2507;0,060536
3283,2148;0,0605734
3284,1792;0,0606134
3285,1433;0,0606589
3286,1077;0,0607107
3287,0718;0,0607664
3288,0361;0,0608196
3289,0002;0,0608622
3289,9646;0,0608878
3290,9287;0,060895
3291,8931;0,060889
3292,8572;0,0608784
3293,8215;0,0608718
3294,7856;0,0608736
3295,7500;0,0608833
3296,7141;0,0608969
3297,6785;0,0609097
3298,6426;0,0609186
3299,6069;0,0609232
3300,5710;0,0609253
3301,5354;0,0609272
3302,4995;0,0609297
3303,4639;0,0609318
3304,4280;0,0609309
3305,3923;0,0609242
3306,3564;0,0609114
3307,3208;0,0608947
3308,2849;0,0608788
3309,2493;0,0608677
3310,2134;0,0608636
3311,1777;0,0608665
3312,1418;0,0608754
3313,1062;0,0608911
3314,0703;0,060916
3315,0347;0,0609534
3315,9988;0,0610058
3316,9631;0,0610745
3317,9272;0,0611589
3318,8916;0,0612573
3319,8557;0,0613664
3320,8201;0,0614805
3321,7842;0,0615913
3322,7485;0,0616904
3323,7126;0,0617722
3324,6770;0,0618371
3325,6411;0,0618909
3326,6055;0,0619426
3327,5696;0,0619988
3328,5339;0,0620608
3329,4980;0,0621239
3330,4624;0,0621792
3331,4265;0,0622168
3332,3909;0,0622301
3333,3550;0,0622176
3334,3193;0,0621842
3335,2834;0,0621399
3336,2478;0,0620955
3337,2119;0,0620574
3338,1763;0,0620233
3339,1404;0,061983
3340,1047;0,0619234
3341,0688;0,0618356
3342,0332;0,0617208
3342,9973;0,0615903
3343,9617;0,0614604
3344,9258;0,0613449
3345,8901;0,061249
3346,8542;0,061168
3347,8186;0,0610902
3348,7827;0,0610027
3349,7471;0,060897
3350,7112;0,060772
3351,6755;0,0606333
3352,6396;0,0604898
3353,6040;0,0603498
3354,5681;0,0602167
3355,5325;0,0600894
3356,4966;0,0599644
3357,4609;0,0598387
3358,4250;0,0597126
3359,3894;0,0595885
3360,3535;0,0594679
3361,3179;0,0593494
3362,2820;0,0592286
3363,2463;0,0591016
3364,2104;0,0589682
3365,1748;0,0588333
3366,1389;0,0587036
3367,1033;0,058583
3368,0674;0,0584689
3369,0317;0,0583533
3369,9958;0,0582278
3370,9602;0,0580882
3371,9243;0,0579372
3372,8887;0,0577829
3373,8528;0,0576346
3374,8171;0,0574988
3375,7813;0,0573775
3376,7456;0,0572688
3377,7097;0,0571679
3378,6741;0,0570688
3379,6382;0,056964
3380,6025;0,0568468
3381,5667;0,0567128
3382,5310;0,0565632
3383,4951;0,0564058
3384,4595;0,0562529
3385,4236;0,0561165
3386,3879;0,0560018
3387,3521;0,0559044
3388,3164;0,0558121
3389,2805;0,0557108
3390,2449;0,055591
3391,2090;0,0554512
3392,1733;0,0552981
3393,1375;0,0551415
3394,1018;0,0549902
3395,0659;0,0548486
3396,0303;0,0547179
3396,9944;0,0545974
3397,9587;0,0544853
3398,9229;0,0543783
3399,8872;0,054271
3400,8513;0,0541577
3401,8157;0,0540343
3402,7798;0,0539011
3403,7441;0,0537616
3404,7083;0,05362
3405,6726;0,0534779
3406,6367;0,0533325
3407,6011;0,0531791
3408,5652;0,0530146
3409,5295;0,0528407
3410,4937;0,0526642
3411,4580;0,0524944
3412,4221;0,0523395
3413,3865;0,0522022
3414,3506;0,0520778
3415,3149;0,051955
3416,2791;0,0518199
3417,2434;0,0516604
3418,2075;0,0514718
3419,1719;0,051259
3420,1360;0,0510349
3421,1003;0,0508152
3422,0645;0,0506113
3423,0288;0,0504268
3423,9929;0,0502581
3424,9573;0,0500983
3425,9214;0,0499418
3426,8857;0,0497852
3427,8499;0,0496269
3428,8142;0,0494656
3429,7783;0,0492993
3430,7427;0,0491258
3431,7068;0,0489436
3432,6711;0,0487532
3433,6353;0,0485572
3434,5996;0,0483585
3435,5637;0,0481586
3436,5281;0,0479569
3437,4922;0,047752
3438,4565;0,0475452
3439,4207;0,0473436
3440,3850;0,0471576
3441,3491;0,0469942
3442,3135;0,0468499
3443,2776;0,0467078
3444,2419;0,046544
3445,2061;0,0463402
3446,1704;0,046096
3447,1345;0,045832
3448,0989;0,0455792
3449,0630;0,0453611
3450,0273;0,0451826
3450,9915;0,0450309
3451,9558;0,0448864
3452,9199;0,0447335
3453,8843;0,0445665
3454,8484;0,0443878
3455,8127;0,0442023
3456,7769;0,0440115
3457,7412;0,0438127
3458,7053;0,0436024
3459,6697;0,0433812
3460,6338;0,0431564
3461,5981;0,0429397
3462,5623;0,0427406
3463,5266;0,0425612
3464,4907;0,0423937
3465,4551;0,0422248
3466,4192;0,0420437
3467,3835;0,0418483
3468,3477;0,0416456
3469,3120;0,041446
3470,2761;0,0412551
3471,2405;0,0410706
3472,2046;0,0408858
3473,1689;0,0406982
3474,1331;0,0405136
3475,0974;0,0403437
3476,0615;0,040195
3477,0259;0,0400603
3477,9900;0,0399192
3478,9543;0,039749
3479,9185;0,0395398
3480,8828;0,0393022
3481,8469;0,0390626
3482,8113;0,0388455
3483,7754;0,0386578
3484,7397;0,0384871
3485,7039;0,038313
3486,6682;0,0381231
3487,6323;0,0379219
3488,5967;0,037728
3489,5608;0,0375601
3490,5251;0,0374226
3491,4893;0,0373007
3492,4536;0,0371683
3493,4177;0,0370038
3494,3821;0,0368062
3495,3462;0,0365996
3496,3105;0,0364211
3497,2747;0,0362963
3498,2390;0,0362189
3499,2031;0,0361494
3500,1675;0,036034
3501,1316;0,0358356
3502,0959;0,0355608
3503,0601;0,0352615
3504,0244;0,0350025
3504,9885;0,0348184
3505,9529;0,0346945
3506,9170;0,034583
3507,8813;0,0344362
3508,8455;0,0342352
3509,8098;0,0339973
3510,7739;0,0337609
3511,7383;0,0335561
3512,7024;0,0333882
3513,6667;0,0332419
3514,6309;0,0330995
3515,5952;0,0329552
3516,5593;0,032817
3517,5237;0,0326971
3518,4878;0,0326001
3519,4521;0,0325168
3520,4163;0,0324293
3521,3806;0,0323192
3522,3447;0,0321763
3523,3091;0,0319989
3524,2732;0,0317902
3525,2375;0,0315528
3526,2017;0,0312902
3527,1660;0,0310127
3528,1301;0,0307427
3529,0945;0,0305101
3530,0586;0,0303376
3531,0229;0,0302273
3531,9871;0,030158
3532,9514;0,0300937
3533,9155;0,029999
3534,8799;0,029854
3535,8440;0,0296644
3536,8083;0,02946
3537,7725;0,0292804
3538,7368;0,0291551
3539,7009;0,0290899
3540,6653;0,0290636
3541,6294;0,0290335
3542,5938;0,0289474
3543,5579;0,0287643
3544,5222;0,028479
3545,4863;0,0281359
3546,4507;0,0278076
3547,4148;0,0275501
3548,3792;0,0273721
3549,3433;0,0272383
3550,3076;0,0270981
3551,2717;0,0269173
3552,2361;0,0266996
3553,2002;0,026484
3554,1646;0,0263155
3555,1287;0,0262125
3556,0930;0,0261562
3557,0571;0,0261085
3558,0215;0,0260397
3558,9856;0,0259522
3559,9500;0,0258814
3560,9141;0,0258687
3561,8784;0,0259224
3562,8425;0,0259936
3563,8069;0,0259776
3564,7710;0,0257504
3565,7354;0,0252504
3566,6995;0,0245695
3567,6638;0,0239307
3568,6279;0,0235198
3569,5923;0,0233653
3570,5564;0,0233789
3571,5208;0,0234465
3572,4849;0,0234843
3573,4492;0,0234553
3574,4133;0,0233644
3575,3777;0,023237
3576,3418;0,0230941
3577,3062;0,0229421
3578,2703;0,0227848
3579,2346;0,0226445
3580,1987;0,0225635
3581,1631;0,0225805
3582,1272;0,0226961
3583,0916;0,0228527
3584,0557;0,022939
3585,0200;0,0228252
3585,9841;0,0224407
3586,9485;0,0218673
3587,9126;0,0213271
3588,8770;0,021015
3589,8411;0,020961
3590,8054;0,021059
3591,7695;0,0211657
3592,7339;0,0211731
3593,6980;0,021047
3594,6624;0,0208322
3595,6265;0,0206077
3596,5908;0,0204174
3597,5549;0,0202424
3598,5193;0,0200382
3599,4834;0,0197947
3600,4478;0,0195634
3601,4119;0,0194239
3602,3762;0,0194177
3603,3403;0,0195126
3604,3047;0,0196188
3605,2688;0,0196334
3606,2332;0,019489
3607,1973;0,01919
3608,1616;0,0188115
3609,1257;0,018447
3610,0901;0,0181519
3611,0542;0,017936
3612,0186;0,0177955
3612,9827;0,0177336
3613,9470;0,0177483
3614,9111;0,0178049
3615,8755;0,017826
3616,8396;0,0177166
3617,8040;0,0174234
3618,7681;0,0170016
3619,7324;0,0166182
3620,6965;0,0164483
3621,6609;0,0165586
3622,6250;0,0168954
3623,5894;0,0173415
3624,5535;0,017756
3625,5178;0,0179768
3626,4819;0,0178342
3627,4463;0,0172448
3628,4104;0,0163676
3629,3748;0,0155715
3630,3389;0,0151135
3631,3032;0,0149685
3632,2673;0,0149724
3633,2317;0,0149838
3634,1958;0,0149366
3635,1602;0,0148333
3636,1243;0,0147118
3637,0886;0,0146067
3638,0527;0,0145267
3639,0171;0,0144631
3639,9812;0,014415
3640,9456;0,0144065
3641,9097;0,0144781
3642,8740;0,0146568
3643,8381;0,014924
3644,8025;0,0151924
3645,7666;0,0152902
3646,7310;0,0149816
3647,6951;0,0141168
3648,6594;0,0129231
3649,6235;0,0119779
3650,5879;0,0116355
3651,5520;0,0117799
3652,5164;0,012118
3653,4805;0,0124095
3654,4448;0,0125172
3655,4089;0,012417
3656,3733;0,0122001
3657,3374;0,0120109
3658,3018;0,0119382
3659,2659;0,0119684
3660,2302;0,0120347
3661,1943;0,0120918
3662,1587;0,0121511
3663,1228;0,0122624
3664,0872;0,0124582
3665,0513;0,0127073
3666,0156;0,0129101
3666,9797;0,0129394
3667,9441;0,0127248
3668,9082;0,0123528
3669,8726;0,0120532
3670,8367;0,0120033
3671,8010;0,0121655
3672,7651;0,0123338
3673,7295;0,0122788
3674,6936;0,0119009
3675,6580;0,0113442
3676,6221;0,0109017
3677,5864;0,0107427
3678,5505;0,0108227
3679,5149;0,0110175
3680,4790;0,0112422
3681,4434;0,0114781
3682,4075;0,0117463
3683,3718;0,0120626
3684,3359;0,0123997
3685,3003;0,0126724
3686,2644;0,0127512
3687,2288;0,0125178
3688,1929;0,0119779
3689,1572;0,0113471
3690,1213;0,0109243
3691,0857;0,0108389
3692,0498;0,0110113
3693,0142;0,011302
3693,9783;0,0116161
3694,9426;0,0119154
3695,9067;0,0121911
3696,8711;0,012432
3697,8352;0,0126054
3698,7996;0,0126618
3699,7637;0,0125665
3700,7280;0,0123445
3701,6921;0,0120996
3702,6565;0,0119681
3703,6206;0,0120339
3704,5850;0,0122873
3705,5491;0,012645
3706,5134;0,0129848
3707,4775;0,0131629
3708,4419;0,013035
3709,4060;0,0125266
3710,3704;0,0117503
3711,3345;0,0110179
3712,2988;0,0106199
3713,2629;0,0106199
3714,2273;0,0109037
3715,1914;0,0113217
3716,1558;0,0117589
3717,1199;0,0121425
3718,0842;0,0124375
3719,0483;0,0126437
3720,0127;0,0127859
3720,9768;0,012892
3721,9412;0,0129707
3722,9053;0,0130108
3723,8696;0,0130055
3724,8337;0,0129777
3725,7981;0,0129777
3726,7622;0,0130529
3727,7266;0,0132187
3728,6907;0,0134547
3729,6550;0,0137156
3730,6191;0,0139394
3731,5835;0,0140461
3732,5476;0,0139416
3733,5120;0,0135564
3734,4761;0,0129327
3735,4404;0,0122706
3736,4045;0,0118161
3737,3689;0,0116963
3738,3330;0,0118893
3739,2974;0,0122874
3740,2615;0,0127437
3741,2258;0,0130836
3742,1899;0,0131336
3743,1543;0,0128224
3744,1184;0,0123086
3745,0828;0,0119063
3746,0469;0,0117919
3747,0112;0,0118709
3747,9753;0,0118964
3748,9397;0,0116317
3749,9038;0,0110225
3750,8682;0,0103244
3751,8323;0,00992148
3752,7966;0,00995598
3753,7607;0,0102855
3754,7251;0,0106904
3755,6892;0,0109975
3756,6536;0,0111104
3757,6177;0,0110291
3758,5820;0,0108572
3759,5461;0,0107401
3760,5105;0,0107645
3761,4746;0,0109176
3762,4390;0,0111269
3763,4031;0,011314
3764,3674;0,0114243
3765,3315;0,0114349
3766,2959;0,0113481
3767,2600;0,0111804
3768,2244;0,0109589
3769,1885;0,0107298
3770,1528;0,0105604
3771,1169;0,0105167
3772,0813;0,010626
3773,0454;0,0108605
3774,0098;0,0111481
3774,9739;0,0113972
3775,9382;0,011522
3776,9023;0,0114759
3777,8667;0,0112866
3778,8308;0,0110553
3779,7952;0,0108926
3780,7593;0,0108438
3781,7236;0,0108772
3782,6877;0,0109297
3783,6521;0,010954
3784,6162;0,0109387
3785,5806;0,0109037
3786,5447;0,0108803
3787,5090;0,0108939
3788,4731;0,0109565
3789,4375;0,0110669
3790,4016;0,0112103
3791,3660;0,0113585
3792,3301;0,0114772
3793,2944;0,011544
3794,2585;0,0115665
3795,2229;0,0115832
3796,1870;0,0116311
3797,1514;0,011701
3798,1155;0,0117228
3799,0798;0,0116061
3800,0439;0,0113265
3801,0083;0,0109874
3801,9724;0,0107578
3802,9368;0,0107179
3803,9009;0,0107956
3804,8652;0,0108442
3805,8293;0,0107608
3806,7937;0,0105713
3807,7578;0,0104254
3808,7222;0,0104768
3809,6863;0,0107642
3810,6506;0,011206
3811,6147;0,0116655
3812,5791;0,0120046
3813,5432;0,0121313
3814,5076;0,0120523
3815,4717;0,0118818
3816,4360;0,0117449
3817,4001;0,0116586
3818,3645;0,0115287
3819,3286;0,0112595
3820,2930;0,0108731
3821,2571;0,0105241
3822,2214;0,0103686
3823,1855;0,0104375
3824,1499;0,0106528
3825,1140;0,0109136
3826,0784;0,0111497
3827,0425;0,0113315
3828,0068;0,0114607
3828,9709;0,011553
3829,9353;0,0116257
3830,8994;0,0116943
3831,8638;0,0117727
3832,8279;0,0118668
3833,7922;0,0119606
3834,7563;0,0120067
3835,7207;0,0119415
3836,6848;0,0117289
3837,6492;0,0114088
3838,6133;0,0110917
3839,5776;0,0108813
3840,5417;0,010802
3841,5061;0,0108087
3842,4702;0,0108465
3843,4346;0,0108977
3844,3987;0,0109913
3845,3630;0,0111809
3846,3271;0,0115099
3847,2915;0,0119862
3848,2556;0,012568
3849,2200;0,0131485
3850,1841;0,0135314
3851,1484;0,0134414
3852,1125;0,0126949
3853,0769;0,0115391
3854,0410;0,0105953
3855,0054;0,0102239
3855,9695;0,0103366
3856,9338;0,0107173
3857,8979;0,0112009
3858,8623;0,0116703
3859,8264;0,0120275
3860,7908;0,0121954
3861,7549;0,0121556
3862,7192;0,0119831
3863,6833;0,0118197
3864,6477;0,0117774
3865,6118;0,0118692
3866,5762;0,0120222
3867,5403;0,0121341
3868,5046;0,0121217
3869,4688;0,0119561
3870,4331;0,0116772
3871,3972;0,0113754
3872,3616;0,0111481
3873,3257;0,0110618
3874,2900;0,0111371
3875,2542;0,0113504
3876,2185;0,0116416
3877,1826;0,0119305
3878,1470;0,0121407
3879,1111;0,0122328
3880,0754;0,0122221
3881,0396;0,0121577
3882,0039;0,0120728
3882,9680;0,0119638
3883,9324;0,0118215
3884,8965;0,0116767
3885,8608;0,0115976
3886,8250;0,0116328
3887,7893;0,0117582
3888,7534;0,0118799
3889,7178;0,0118902
3890,6819;0,0117474
3891,6462;0,0115332
3892,6104;0,0114091
3893,5747;0,0114909
3894,5388;0,0117766
3895,5032;0,0121772
3896,4673;0,012577
3897,4316;0,0128754
3898,3958;0,0130149
3899,3601;0,0129926
3900,3242;0,0128376
3901,2886;0,0125741
3902,2527;0,0122171
3903,2170;0,0118078
3904,1812;0,0114271
3905,1455;0,0111572
3906,1096;0,0110323
3907,0740;0,0110324
3908,0381;0,0111114
3909,0024;0,0112287
3909,9666;0,0113655
3910,9309;0,0115243
3911,8950;0,0117129
3912,8594;0,0119215
3913,8235;0,0121103
3914,7878;0,0122195
3915,7520;0,0122024
3916,7163;0,0120652
3917,6804;0,0118783
3918,6448;0,0117339
3919,6089;0,0116843
3920,5732;0,0117155
3921,5374;0,0117693
3922,5017;0,0117873
3923,4658;0,0117512
3924,4302;0,0116968
3925,3943;0,0116858
3926,3586;0,011756
3927,3228;0,0118913
3928,2871;0,0120286
3929,2512;0,0120909
3930,2156;0,0120277
3931,1797;0,0118482
3932,1440;0,0116202
3933,1082;0,0114291
3934,0725;0,011331
3935,0366;0,0113379
3936,0010;0,0114311
3936,9651;0,0115778
3937,9294;0,0117393
3938,8936;0,0118755
3939,8579;0,0119524
3940,8220;0,0119564
3941,7864;0,0119065
3942,7505;0,011849
3943,7148;0,0118297
3944,6790;0,0118649
3945,6433;0,0119313
3946,6074;0,0119812
3947,5718;0,0119708
3948,5359;0,0118871
3949,5002;0,0117564
3950,4644;0,0116264
3951,4287;0,0115363
3952,3928;0,0114994
3953,3572;0,0115066
3954,3213;0,0115409
3955,2856;0,0115894
3956,2498;0,0116455
3957,2141;0,0117031
3958,1782;0,011752
3959,1426;0,0117778
3960,1067;0,0117697
3961,0710;0,0117288
3962,0352;0,0116705
3962,9995;0,0116172
3963,9636;0,0115873
3964,9280;0,0115863
3965,8921;0,0116066
3966,8564;0,0116343
3967,8206;0,0116571
3968,7849;0,0116697
3969,7490;0,0116741
3970,7134;0,0116749
3971,6775;0,0116746
3972,6418;0,0116715
3973,6060;0,011662
3974,5703;0,0116448
3975,5344;0,0116223
3976,4988;0,0116007
3977,4629;0,0115853
3978,4272;0,011578
3979,3914;0,0115759
3980,3557;0,0115739
3981,3198;0,011569
3982,2842;0,0115625
3983,2483;0,0115599
3984,2126;0,0115676
3985,1768;0,0115882
3986,1411;0,0116185
3987,1052;0,0116499
3988,0696;0,0116732
3989,0337;0,0116828
3989,9980;0,0116794
3990,9622;0,011669
3991,9265;0,0116588
3992,8906;0,0116532
3993,8550;0,0116525
3994,8191;0,0116535
3995,7834;0,011652
3996,7476;0,0116444
3997,7119;0,0116298
3998,6760;0,0116109
3999,6404;0,0115943
4000,6045;0,011482

##### Extended Information
[Comments]
Sample name
Comment
Username
Division
Organization;UNIVERSIDAD INDUSTRIAL DE SANTANDER

[Detailed Information]
Creation date;18/03/2025 10:48 a.m.

Data array type;Linear data array
Horizontal axis;Wavenumber [cm-1]
Vertical axis;Abs
Start;399,193 cm-1
End;4000,6 cm-1
Data interval;0,964233 cm-1
Data points;3736    

[Measurement Information]
Model name;FT/IR-4X1typeA
Serial No.;A035162111

Accessory;ATR PRO 4X
Accessory S/N;A021162126
Incident angle;45 deg

Measurement date;18/03/2025 10:47 a.m.

Light source;Standard
Detector;TGS
Accumulation;40
Resolution;4 cm-1
Zero filling;On
Apodization;Cosine
Gain;Auto (8)
Aperture;Auto (7 mm)
Scan speed;Auto (2 mm/sec)
Filter;Auto (12800 Hz)

