TITLE;
DATA TYPE;INFRARED SPECTRUM
ORIGIN;JASCO
OWNER;
DATE;25/03/17
TIME;14:14:02
SPECTROMETER/DATA SYSTEM;
LOCALE;9226
RESOLUTION;
DELTAX;0,964233
XUNITS;1/CM
YUNITS;ABSORBANCE
FIRSTX;  399,1927
LASTX; 4000,6047
NPOINTS;    3736
FIRSTY;     0,16740
MAXY;     0,21708
MINY;     0,01458
XYDATA
399,1927;0,167395
400,1569;0,167887
401,1211;0,167427
402,0854;0,166314
403,0496;0,165056
404,0138;0,164102
404,9781;0,163723
405,9423;0,163942
406,9065;0,164518
407,8708;0,165065
408,8350;0,165261
409,7992;0,16503
410,7635;0,164592
411,7277;0,164347
412,6919;0,164635
413,6562;0,165549
414,6204;0,166931
415,5846;0,168483
416,5489;0,169857
417,5131;0,170717
418,4773;0,17092
419,4416;0,170722
420,4058;0,170607
421,3700;0,170797
422,3343;0,17116
423,2985;0,171439
424,2627;0,171446
425,2270;0,17115
426,1912;0,17068
427,1554;0,17023
428,1197;0,169932
429,0839;0,169795
430,0481;0,169734
431,0124;0,169664
431,9766;0,169581
432,9408;0,169574
433,9051;0,169752
434,8693;0,17014
435,8335;0,170612
436,7978;0,170946
437,7620;0,170953
438,7262;0,170589
439,6905;0,16997
440,6547;0,169306
441,6189;0,168801
442,5832;0,168565
443,5474;0,168569
444,5116;0,168685
445,4759;0,168769
446,4401;0,168735
447,4043;0,168557
448,3686;0,168239
449,3328;0,167798
450,2970;0,167281
451,2613;0,166787
452,2255;0,16645
453,1897;0,166385
454,1540;0,166625
455,1182;0,167085
456,0824;0,167569
457,0467;0,167843
458,0109;0,167756
458,9751;0,167352
459,9394;0,166834
460,9036;0,166413
461,8678;0,166182
462,8321;0,166116
463,7963;0,166113
464,7605;0,166048
465,7248;0,165821
466,6890;0,165397
467,6532;0,164831
468,6175;0,164247
469,5817;0,163802
470,5459;0,16363
471,5102;0,163783
472,4744;0,16418
473,4386;0,164642
474,4029;0,16499
475,3671;0,165141
476,3313;0,165112
477,2956;0,16497
478,2598;0,164788
479,2240;0,164627
480,1883;0,164539
481,1525;0,164563
482,1167;0,164714
483,0810;0,164964
484,0452;0,165244
485,0094;0,165481
485,9737;0,165659
486,9379;0,165841
487,9021;0,166132
488,8664;0,166598
489,8306;0,167211
490,7948;0,167832
491,7591;0,168272
492,7233;0,168395
493,6875;0,168214
494,6518;0,167882
495,6160;0,167612
496,5802;0,16756
497,5445;0,167767
498,5087;0,168162
499,4729;0,168606
500,4372;0,168964
501,4014;0,169159
502,3656;0,169204
503,3299;0,16918
504,2941;0,169171
505,2583;0,169225
506,2226;0,16934
507,1868;0,1695
508,1510;0,169702
509,1153;0,169967
510,0795;0,17033
511,0437;0,170807
512,0080;0,171383
512,9722;0,17202
513,9365;0,172671
514,9007;0,173297
515,8649;0,173863
516,8292;0,174332
517,7934;0,174676
518,7576;0,174885
519,7219;0,174989
520,6861;0,175046
521,6503;0,175115
522,6146;0,17523
523,5788;0,175376
524,5430;0,175502
525,5073;0,175537
526,4715;0,175428
527,4357;0,175173
528,4000;0,174815
529,3642;0,17441
530,3284;0,174005
531,2927;0,173622
532,2569;0,173269
533,2211;0,172949
534,1854;0,17267
535,1496;0,172446
536,1138;0,172289
537,0781;0,172198
538,0423;0,172149
539,0065;0,172109
539,9708;0,172053
540,9350;0,171983
541,8992;0,171927
542,8635;0,171926
543,8277;0,172008
544,7919;0,172175
545,7562;0,17241
546,7204;0,172697
547,6846;0,173032
548,6489;0,173412
549,6131;0,173821
550,5773;0,174222
551,5416;0,174574
552,5058;0,17486
553,4700;0,175097
554,4343;0,175329
555,3985;0,175583
556,3627;0,175841
557,3270;0,176037
558,2912;0,17608
559,2554;0,175897
560,2197;0,175452
561,1839;0,174751
562,1481;0,173841
563,1124;0,172801
564,0766;0,171742
565,0408;0,17078
566,0051;0,17001
566,9693;0,169458
567,9335;0,169073
568,8978;0,168747
569,8620;0,168377
570,8262;0,167923
571,7905;0,167424
572,7547;0,166958
573,7189;0,166593
574,6832;0,166348
575,6474;0,166189
576,6116;0,166063
577,5759;0,165936
578,5401;0,165812
579,5043;0,165717
580,4686;0,16567
581,4328;0,165654
582,3970;0,165624
583,3613;0,165536
584,3255;0,165376
585,2897;0,165172
586,2540;0,164973
587,2182;0,164819
588,1824;0,164715
589,1467;0,164633
590,1109;0,164536
591,0751;0,164401
592,0394;0,164238
593,0036;0,164082
593,9678;0,163961
594,9321;0,163875
595,8963;0,16379
596,8605;0,16365
597,8248;0,163411
598,7890;0,163056
599,7532;0,162612
600,7175;0,162128
601,6817;0,161654
602,6459;0,161215
603,6102;0,160803
604,5744;0,160393
605,5386;0,159957
606,5029;0,159477
607,4671;0,158951
608,4313;0,158384
609,3956;0,15779
610,3598;0,157198
611,3240;0,156658
612,2883;0,156234
613,2525;0,155966
614,2167;0,155833
615,1810;0,155725
616,1452;0,15546
617,1094;0,154863
618,0737;0,153867
619,0379;0,152565
620,0021;0,151157
620,9664;0,149841
621,9306;0,148732
622,8948;0,147835
623,8591;0,147079
624,8233;0,146348
625,7875;0,145657
626,7518;0,145004
627,7160;0,144416
628,6802;0,143907
629,6445;0,143463
630,6087;0,143046
631,5729;0,142618
632,5372;0,142152
633,5014;0,141654
634,4656;0,14115
635,4299;0,14068
636,3941;0,140273
637,3583;0,139941
638,3226;0,139672
639,2868;0,139441
640,2510;0,139222
641,2153;0,139005
642,1795;0,138793
643,1437;0,138603
644,1080;0,13845
645,0722;0,138334
646,0364;0,13824
647,0007;0,138134
647,9649;0,137977
648,9291;0,137744
649,8934;0,137442
650,8576;0,137112
651,8218;0,136823
652,7861;0,136639
653,7503;0,1366
654,7145;0,136698
655,6788;0,136888
656,6430;0,137106
657,6072;0,137312
658,5715;0,137491
659,5357;0,137635
660,4999;0,137703
661,4642;0,137604
662,4284;0,13723
663,3926;0,136503
664,3569;0,135444
665,3211;0,134277
666,2853;0,13347
667,2496;0,13347
668,2138;0,134037
669,1780;0,134282
670,1423;0,133882
671,1065;0,133125
672,0707;0,132151
673,0350;0,130936
673,9992;0,129515
674,9634;0,128007
675,9277;0,126534
676,8919;0,125153
677,8561;0,123852
678,8204;0,122608
679,7846;0,121425
680,7488;0,120331
681,7131;0,119344
682,6773;0,118441
683,6415;0,11758
684,6058;0,11673
685,5700;0,115898
686,5342;0,115128
687,4985;0,114466
688,4627;0,11394
689,4269;0,113531
690,3912;0,113191
691,3554;0,112862
692,3196;0,112492
693,2839;0,112043
694,2481;0,111505
695,2123;0,110894
696,1766;0,110247
697,1408;0,109609
698,1050;0,109011
699,0693;0,108472
700,0335;0,107994
700,9977;0,107577
701,9620;0,107217
702,9262;0,106896
703,8904;0,106571
704,8547;0,1062
705,8189;0,105746
706,7831;0,105198
707,7474;0,104576
708,7116;0,103924
709,6758;0,103281
710,6401;0,102665
711,6043;0,102065
712,5685;0,101459
713,5328;0,10084
714,4970;0,100231
715,4612;0,0990098
716,4255;0,0986844
717,3897;0,0984898
718,3539;0,0983134
719,3182;0,0979859
720,2824;0,0973657
721,2466;0,0964249
722,2109;0,0952684
723,1751;0,0940693
724,1393;0,0929771
725,1036;0,092061
726,0678;0,091308
727,0320;0,0906581
727,9963;0,0900482
728,9605;0,0894415
729,9247;0,0888326
730,8890;0,0882351
731,8532;0,0876661
732,8174;0,0871381
733,7817;0,0866568
734,7459;0,0862215
735,7101;0,0858241
736,6744;0,085448
737,6386;0,0850723
738,6028;0,0846786
739,5671;0,0842589
740,5313;0,0838196
741,4955;0,0833778
742,4598;0,0829527
743,4240;0,0825562
744,3882;0,0821871
745,3525;0,0818316
746,3167;0,0814697
747,2809;0,0810834
748,2452;0,0806653
749,2094;0,0802217
750,1736;0,07977
751,1379;0,0793308
752,1021;0,0789181
753,0663;0,0785326
754,0306;0,078162
754,9948;0,0777899
755,9590;0,0774065
756,9233;0,077017
757,8875;0,0766394
758,8517;0,0762954
759,8160;0,0759974
760,7802;0,075742
761,7444;0,0755112
762,7087;0,0752809
763,6729;0,0750314
764,6371;0,0747527
765,6014;0,0744459
766,5656;0,0741215
767,5298;0,0737959
768,4941;0,0734874
769,4583;0,073211
770,4225;0,0729724
771,3868;0,0727648
772,3510;0,0725709
773,3152;0,0723698
774,2795;0,0721447
775,2437;0,0718884
776,2079;0,0716036
777,1722;0,0712997
778,1364;0,0709888
779,1006;0,070683
780,0649;0,0703909
781,0291;0,070115
781,9933;0,0698496
782,9576;0,0695822
783,9218;0,0692992
784,8860;0,0689926
785,8503;0,0686651
786,8145;0,0683286
787,7787;0,0679979
788,7430;0,0676838
789,7072;0,0673903
790,6714;0,0671174
791,6357;0,066866
792,5999;0,0666411
793,5641;0,0664493
794,5284;0,0662929
795,4926;0,0661642
796,4568;0,0660454
797,4211;0,0659143
798,3853;0,0657554
799,3495;0,0655679
800,3138;0,0653674
801,2780;0,0651788
802,2422;0,0650243
803,2065;0,0649135
804,1707;0,0648396
805,1349;0,0647838
806,0992;0,0647244
807,0634;0,0646458
808,0276;0,0645436
808,9919;0,064424
809,9561;0,064301
810,9203;0,0641894
811,8846;0,0640991
812,8488;0,064029
813,8130;0,0639669
814,7773;0,0638938
815,7415;0,0637948
816,7057;0,0636681
817,6700;0,0635285
818,6342;0,0634001
819,5984;0,0633024
820,5627;0,0632385
821,5269;0,0631922
822,4911;0,0631386
823,4554;0,0630595
824,4196;0,0629559
825,3839;0,0628483
826,3481;0,0627655
827,3123;0,0627276
828,2766;0,0627338
829,2408;0,0627615
830,2050;0,0627751
831,1693;0,0627407
832,1335;0,0626378
833,0977;0,0624641
834,0620;0,0622339
835,0262;0,061972
835,9904;0,0617073
836,9547;0,0614654
837,9189;0,0612623
838,8831;0,0611
839,8474;0,0609661
840,8116;0,0608397
841,7758;0,0607013
842,7401;0,0605426
843,7043;0,0603701
844,6685;0,0602005
845,6328;0,0600509
846,5970;0,0599308
847,5612;0,0598393
848,5255;0,0597689
849,4897;0,0597118
850,4539;0,0596635
851,4182;0,0596225
852,3824;0,0595877
853,3466;0,0595557
854,3109;0,0595205
855,2751;0,0594773
856,2393;0,0594256
857,2036;0,059373
858,1678;0,0593343
859,1320;0,0593267
860,0963;0,0593623
861,0605;0,0594413
862,0247;0,0595498
862,9890;0,0596663
863,9532;0,0597713
864,9174;0,0598581
865,8817;0,0599354
866,8459;0,0600227
867,8101;0,0601396
868,7744;0,0602971
869,7386;0,0604919
870,7028;0,0607072
871,6671;0,0609177
872,6313;0,0610964
873,5955;0,061223
874,5598;0,061292
875,5240;0,0613173
876,4882;0,0613294
877,4525;0,0613658
878,4167;0,0614572
879,3809;0,0616172
880,3452;0,0618401
881,3094;0,0621096
882,2736;0,0624105
883,2379;0,0627394
884,2021;0,0631065
885,1663;0,0635309
886,1306;0,0640318
887,0948;0,0646192
888,0590;0,0652898
889,0233;0,066026
889,9875;0,0667996
890,9517;0,0675764
891,9160;0,0683215
892,8802;0,069003
893,8444;0,0695942
894,8087;0,0700741
895,7729;0,070428
896,7371;0,0706478
897,7014;0,0707324
898,6656;0,0706873
899,6298;0,0705231
900,5941;0,0702538
901,5583;0,0698957
902,5225;0,0694686
903,4868;0,0689974
904,4510;0,0685131
905,4152;0,0680507
906,3795;0,0676441
907,3437;0,0673183
908,3079;0,0670853
909,2722;0,0669441
910,2364;0,0668858
911,2007;0,0669007
912,1649;0,0669826
913,1292;0,067128
914,0934;0,0673316
915,0576;0,0675827
916,0219;0,0678664
916,9861;0,0681686
917,9503;0,0684828
918,9146;0,0688106
919,8788;0,0691572
920,8430;0,0695221
921,8073;0,0698938
922,7715;0,0702505
923,7357;0,070568
924,7000;0,0708287
925,6642;0,0710278
926,6284;0,0711736
927,5927;0,071284
928,5569;0,0713802
929,5211;0,0714816
930,4854;0,0716012
931,4496;0,0717429
932,4138;0,0719012
933,3781;0,0720662
934,3423;0,0722309
935,3065;0,0723983
936,2708;0,072582
937,2350;0,0728008
938,1992;0,0730695
939,1635;0,0733929
940,1277;0,0737674
941,0919;0,0741887
942,0562;0,0746584
943,0204;0,0751856
943,9846;0,0757802
944,9489;0,0764446
945,9131;0,0771705
946,8773;0,077944
947,8416;0,0787555
948,8058;0,079607
949,7700;0,0805116
950,7343;0,0814841
951,6985;0,0825315
952,6627;0,0836491
953,6270;0,0848259
954,5912;0,0860541
955,5554;0,0873365
956,5197;0,0886844
957,4839;0,0901082
958,4481;0,0916075
959,4124;0,0931668
960,3766;0,0947613
961,3408;0,0963677
962,3051;0,0979735
963,2693;0,0995801
964,2335;0,101199
965,1978;0,102845
966,1620;0,104534
967,1262;0,106277
968,0905;0,108089
969,0547;0,109987
970,0189;0,111993
970,9832;0,114133
971,9474;0,116432
972,9116;0,118914
973,8759;0,121596
974,8401;0,124484
975,8043;0,127576
976,7686;0,130861
977,7328;0,134321
978,6970;0,137922
979,6613;0,141611
980,6255;0,145308
981,5897;0,148905
982,5540;0,152289
983,5182;0,155361
984,4824;0,15806
985,4467;0,160376
986,4109;0,16234
987,3751;0,164008
988,3394;0,165435
989,3036;0,166669
990,2678;0,16774
991,2321;0,16867
992,1963;0,169479
993,1605;0,170187
994,1248;0,170819
995,0890;0,171402
996,0532;0,171956
997,0175;0,172493
997,9817;0,173016
998,9459;0,173519
999,9102;0,174004
1000,8744;0,174485
1001,8386;0,174999
1002,8029;0,1756
1003,7671;0,176347
1004,7313;0,177288
1005,6956;0,178447
1006,6598;0,179825
1007,6240;0,181403
1008,5883;0,18316
1009,5525;0,185072
1010,5167;0,18712
1011,4810;0,189278
1012,4452;0,191505
1013,4094;0,193742
1014,3737;0,19592
1015,3379;0,197975
1016,3021;0,199868
1017,2664;0,20159
1018,2306;0,203161
1019,1948;0,204616
1020,1591;0,205988
1021,1233;0,207297
1022,0875;0,208554
1023,0518;0,209767
1024,0160;0,210945
1024,9802;0,212095
1025,9445;0,213218
1026,9087;0,214293
1027,8729;0,215278
1028,8372;0,216116
1029,8014;0,216738
1030,7656;0,217078
1031,7299;0,217074
1032,6941;0,216673
1033,6583;0,215846
1034,6226;0,214605
1035,5868;0,21301
1036,5510;0,211182
1037,5153;0,209276
1038,4795;0,207456
1039,4437;0,205858
1040,4080;0,204564
1041,3722;0,203599
1042,3364;0,202936
1043,3007;0,202513
1044,2649;0,202253
1045,2291;0,202072
1046,1934;0,201899
1047,1576;0,201673
1048,1218;0,201352
1049,0861;0,200901
1050,0503;0,200292
1051,0145;0,199494
1051,9788;0,198484
1052,9430;0,197251
1053,9072;0,195801
1054,8715;0,194153
1055,8357;0,192322
1056,7999;0,190297
1057,7642;0,188039
1058,7284;0,185499
1059,6926;0,182649
1060,6569;0,179512
1061,6211;0,176169
1062,5853;0,172745
1063,5496;0,169372
1064,5138;0,166161
1065,4780;0,163181
1066,4423;0,160457
1067,4065;0,157979
1068,3707;0,155711
1069,3350;0,153599
1070,2992;0,151589
1071,2634;0,149629
1072,2277;0,147682
1073,1919;0,145729
1074,1561;0,14376
1075,1204;0,141767
1076,0846;0,139743
1077,0488;0,137688
1078,0131;0,135616
1078,9773;0,133563
1079,9415;0,131581
1080,9058;0,129725
1081,8700;0,128037
1082,8342;0,126538
1083,7985;0,125229
1084,7627;0,124099
1085,7269;0,123129
1086,6912;0,122299
1087,6554;0,121588
1088,6196;0,12098
1089,5839;0,120468
1090,5481;0,120057
1091,5123;0,11976
1092,4766;0,119583
1093,4408;0,11952
1094,4050;0,11955
1095,3693;0,119649
1096,3335;0,119799
1097,2977;0,119997
1098,2620;0,12024
1099,2262;0,120521
1100,1904;0,120812
1101,1547;0,121072
1102,1189;0,121258
1103,0831;0,121337
1104,0474;0,121301
1105,0116;0,121159
1105,9758;0,120931
1106,9401;0,120634
1107,9043;0,12027
1108,8685;0,119824
1109,8328;0,119258
1110,7970;0,118526
1111,7612;0,117587
1112,7255;0,116429
1113,6897;0,115079
1114,6539;0,113606
1115,6182;0,112108
1116,5824;0,11068
1117,5466;0,109393
1118,5109;0,108269
1119,4751;0,10728
1120,4393;0,106359
1121,4036;0,105418
1122,3678;0,104377
1123,3320;0,103176
1124,2963;0,101795
1125,2605;0,100245
1126,2247;0,0985602
1127,1890;0,0967852
1128,1532;0,094958
1129,1174;0,0931056
1130,0817;0,0912445
1131,0459;0,0893883
1132,0101;0,0875555
1132,9744;0,085775
1133,9386;0,084086
1134,9028;0,082534
1135,8671;0,0811623
1136,8313;0,0800036
1137,7955;0,0790737
1138,7598;0,0783693
1139,7240;0,077871
1140,6882;0,0775491
1141,6525;0,0773714
1142,6167;0,0773087
1143,5809;0,0773387
1144,5452;0,0774471
1145,5094;0,0776274
1146,4736;0,0778789
1147,4379;0,0782041
1148,4021;0,0786045
1149,3663;0,0790756
1150,3306;0,0796046
1151,2948;0,0801693
1152,2590;0,0807409
1153,2233;0,0812876
1154,1875;0,0817775
1155,1517;0,0821789
1156,1160;0,0824571
1157,0802;0,0825714
1158,0444;0,0824725
1159,0087;0,0821042
1159,9729;0,0814099
1160,9371;0,0803445
1161,9014;0,078886
1162,8656;0,0770464
1163,8298;0,0748749
1164,7941;0,0724533
1165,7583;0,0698837
1166,7225;0,0672728
1167,6868;0,0647164
1168,6510;0,0622889
1169,6152;0,0600393
1170,5795;0,0579933
1171,5437;0,0561599
1172,5079;0,0545381
1173,4722;0,0531214
1174,4364;0,051899
1175,4006;0,0508548
1176,3649;0,0499685
1177,3291;0,0492175
1178,2933;0,0485814
1179,2576;0,0480448
1180,2218;0,0475975
1181,1860;0,047232
1182,1503;0,0469402
1183,1145;0,0467129
1184,0787;0,0465416
1185,0430;0,0464224
1186,0072;0,0463576
1186,9714;0,046355
1187,9357;0,0464244
1188,8999;0,0465721
1189,8641;0,0467991
1190,8284;0,0471009
1191,7926;0,0474707
1192,7568;0,0479018
1193,7211;0,0483895
1194,6853;0,0489295
1195,6495;0,0495143
1196,6138;0,050131
1197,5780;0,0507616
1198,5422;0,0513866
1199,5065;0,0518565
1200,4707;0,0524477
1201,4349;0,0530125
1202,3992;0,0535558
1203,3634;0,054082
1204,3276;0,054591
1205,2919;0,0550786
1206,2561;0,055541
1207,2203;0,05598
1208,1846;0,0564076
1209,1488;0,0568459
1210,1130;0,0573236
1211,0773;0,0578681
1212,0415;0,0584965
1213,0057;0,0592102
1213,9700;0,0599938
1214,9342;0,0608207
1215,8984;0,0616631
1216,8627;0,0624991
1217,8269;0,0633179
1218,7911;0,064119
1219,7554;0,064906
1220,7196;0,0656801
1221,6838;0,0664358
1222,6481;0,0671623
1223,6123;0,0678469
1224,5765;0,0684803
1225,5408;0,0690599
1226,5050;0,0695895
1227,4692;0,0700777
1228,4335;0,0705338
1229,3977;0,0709642
1230,3619;0,0713695
1231,3262;0,0717443
1232,2904;0,0720786
1233,2546;0,0723619
1234,2189;0,0725875
1235,1831;0,0727563
1236,1473;0,0728768
1237,1116;0,0729622
1238,0758;0,073025
1239,0400;0,0730717
1240,0043;0,0731016
1240,9685;0,0731075
1241,9327;0,0730797
1242,8970;0,0730097
1243,8612;0,0728916
1244,8254;0,0727238
1245,7897;0,0725085
1246,7539;0,0722524
1247,7181;0,0719654
1248,6824;0,0716577
1249,6466;0,0713365
1250,6108;0,0710029
1251,5751;0,0706535
1252,5393;0,0702856
1253,5035;0,0699026
1254,4678;0,0695162
1255,4320;0,0691404
1256,3962;0,0687829
1257,3605;0,0684385
1258,3247;0,0680896
1259,2889;0,0677141
1260,2532;0,0672955
1261,2174;0,0668298
1262,1816;0,0663245
1263,1459;0,0657921
1264,1101;0,0652431
1265,0743;0,0646833
1266,0386;0,0641133
1267,0028;0,0635305
1267,9670;0,0629302
1268,9313;0,0623073
1269,8955;0,0616584
1270,8597;0,0609843
1271,8240;0,0602918
1272,7882;0,0595921
1273,7524;0,0588985
1274,7167;0,0582226
1275,6809;0,0575733
1276,6451;0,0569565
1277,6094;0,0563744
1278,5736;0,0558249
1279,5378;0,055301
1280,5021;0,0547926
1281,4663;0,0542909
1282,4305;0,0537927
1283,3948;0,0533017
1284,3590;0,0528278
1285,3232;0,0523832
1286,2875;0,0519791
1287,2517;0,0516238
1288,2159;0,0513223
1289,1802;0,0510773
1290,1444;0,0508897
1291,1086;0,0507587
1292,0729;0,050683
1293,0371;0,0506611
1294,0013;0,0506916
1294,9656;0,0507732
1295,9298;0,050905
1296,8940;0,0510867
1297,8583;0,0513207
1298,8225;0,0516112
1299,7867;0,0519621
1300,7510;0,0523732
1301,7152;0,0528392
1302,6794;0,0533479
1303,6437;0,0538853
1304,6079;0,0544425
1305,5721;0,055018
1306,5364;0,0556165
1307,5006;0,0562433
1308,4648;0,0568988
1309,4291;0,0575739
1310,3933;0,0582505
1311,3575;0,0589044
1312,3218;0,0595101
1313,2860;0,0600455
1314,2502;0,0604941
1315,2145;0,0608427
1316,1787;0,0610773
1317,1429;0,0611842
1318,1072;0,0611571
1319,0714;0,0610081
1320,0356;0,0607721
1320,9999;0,060497
1321,9641;0,060226
1322,9283;0,0599848
1323,8926;0,05978
1324,8568;0,0596067
1325,8210;0,059457
1326,7853;0,0593258
1327,7495;0,0592107
1328,7137;0,0591092
1329,6780;0,0590152
1330,6422;0,05892
1331,6064;0,0588158
1332,5707;0,0586981
1333,5349;0,0585672
1334,4991;0,0584211
1335,4634;0,0582478
1336,4276;0,0580195
1337,3918;0,0576953
1338,3561;0,057242
1339,3203;0,0566688
1340,2845;0,0560426
1341,2488;0,0554544
1342,2130;0,0549654
1343,1772;0,0545884
1344,1415;0,0543066
1345,1057;0,0540999
1346,0699;0,0539588
1347,0342;0,0538843
1347,9984;0,0538834
1348,9626;0,0539616
1349,9269;0,0541173
1350,8911;0,0543388
1351,8553;0,0546068
1352,8196;0,054901
1353,7838;0,0552095
1354,7480;0,0555341
1355,7123;0,0558885
1356,6765;0,056288
1357,6407;0,0567383
1358,6050;0,057232
1359,5692;0,0577492
1360,5334;0,0582561
1361,4977;0,0587071
1362,4619;0,0590694
1363,4261;0,0593533
1364,3904;0,0596038
1365,3546;0,0598582
1366,3188;0,0601219
1367,2831;0,0603767
1368,2473;0,0605981
1369,2115;0,0607658
1370,1758;0,0608642
1371,1400;0,0608774
1372,1042;0,0607834
1373,0685;0,0605576
1374,0327;0,0601919
1374,9969;0,0597138
1375,9612;0,0591739
1376,9254;0,0586022
1377,8896;0,0579869
1378,8539;0,0572987
1379,8181;0,0565348
1380,7823;0,0557388
1381,7466;0,0549764
1382,7108;0,0542883
1383,6750;0,0536613
1384,6393;0,0530401
1385,6035;0,0523675
1386,5677;0,0516357
1387,5320;0,0509181
1388,4962;0,050329
1389,4604;0,0499312
1390,4247;0,0496982
1391,3889;0,0495616
1392,3531;0,0494696
1393,3174;0,0494048
1394,2816;0,0493662
1395,2458;0,0493457
1396,2101;0,0493245
1397,1743;0,0492915
1398,1385;0,0492599
1399,1028;0,0492649
1400,0670;0,0493405
1401,0313;0,0494962
1401,9955;0,0497128
1402,9597;0,049957
1403,9240;0,0502013
1404,8882;0,0504388
1405,8524;0,0506858
1406,8167;0,0509657
1407,7809;0,051288
1408,7451;0,0516423
1409,7094;0,0520161
1410,6736;0,0524119
1411,6378;0,0528464
1412,6021;0,0533303
1413,5663;0,0538486
1414,5305;0,054362
1415,4948;0,0548259
1416,4590;0,0552041
1417,4232;0,0554692
1418,3875;0,0556194
1419,3517;0,0557166
1420,3159;0,0558504
1421,2802;0,0560355
1422,2444;0,056193
1423,2086;0,0562289
1424,1729;0,0561029
1425,1371;0,0558366
1426,1013;0,0554731
1427,0656;0,0550326
1428,0298;0,0545038
1428,9940;0,053879
1429,9583;0,0531947
1430,9225;0,0525241
1431,8867;0,0519121
1432,8510;0,0513282
1433,8152;0,0506858
1434,7794;0,0499064
1435,7437;0,0489954
1436,7079;0,048102
1437,6721;0,0474564
1438,6364;0,047175
1439,6006;0,0471764
1440,5648;0,0472983
1441,5291;0,0474282
1442,4933;0,0475392
1443,4575;0,0476595
1444,4218;0,0478212
1445,3860;0,0480276
1446,3502;0,0482532
1447,3145;0,0484714
1448,2787;0,0486841
1449,2429;0,0489215
1450,2072;0,0492053
1451,1714;0,0495113
1452,1356;0,0497776
1453,0999;0,0499453
1454,0641;0,0499903
1455,0283;0,0499009
1455,9926;0,049598
1456,9568;0,0489884
1457,9210;0,0482889
1458,8853;0,0479143
1459,8495;0,0479305
1460,8137;0,0480851
1461,7780;0,048115
1462,7422;0,0478622
1463,7064;0,0472769
1464,6707;0,0464339
1465,6349;0,0455346
1466,5991;0,0447747
1467,5634;0,0441844
1468,5276;0,0436439
1469,4918;0,043001
1470,4561;0,0421373
1471,4203;0,0409714
1472,3845;0,0394927
1473,3488;0,03787
1474,3130;0,0364236
1475,2772;0,0353599
1476,2415;0,0346496
1477,2057;0,0341584
1478,1699;0,0337734
1479,1342;0,033433
1480,0984;0,0331151
1481,0626;0,0328251
1482,0269;0,0325887
1482,9911;0,032438
1483,9553;0,0323923
1484,9196;0,0324485
1485,8838;0,0325848
1486,8480;0,0327605
1487,8123;0,0329006
1488,7765;0,0329234
1489,7407;0,0328533
1490,7050;0,032847
1491,6692;0,0330229
1492,6334;0,0333646
1493,5977;0,0337982
1494,5619;0,0342773
1495,5261;0,0347943
1496,4904;0,035345
1497,4546;0,0359162
1498,4188;0,0365254
1499,3831;0,0372081
1500,3473;0,037935
1501,3115;0,0386034
1502,2758;0,0391142
1503,2400;0,0394466
1504,2042;0,0396887
1505,1685;0,0399767
1506,1327;0,0402592
1507,0969;0,0401856
1508,0612;0,0397093
1509,0254;0,0392641
1509,9896;0,0390445
1510,9539;0,0389354
1511,9181;0,0387999
1512,8823;0,0385795
1513,8466;0,0382694
1514,8108;0,0378768
1515,7750;0,0374037
1516,7393;0,0368549
1517,7035;0,0362462
1518,6677;0,0355991
1519,6320;0,0349381
1520,5962;0,0343032
1521,5604;0,03376
1522,5247;0,0333689
1523,4889;0,0331291
1524,4531;0,032975
1525,4174;0,0328387
1526,3816;0,0327066
1527,3458;0,0326135
1528,3101;0,0325893
1529,2743;0,0326223
1530,2385;0,0326745
1531,2028;0,0327171
1532,1670;0,0327491
1533,1312;0,0327944
1534,0955;0,0328845
1535,0597;0,0330207
1536,0239;0,0331591
1536,9882;0,0332639
1537,9524;0,0333741
1538,9166;0,0335821
1539,8809;0,0338545
1540,8451;0,0339424
1541,8093;0,0337911
1542,7736;0,0336637
1543,7378;0,033687
1544,7020;0,0338063
1545,6663;0,0339644
1546,6305;0,034147
1547,5947;0,0343479
1548,5590;0,0345453
1549,5232;0,0347129
1550,4874;0,0348455
1551,4517;0,034969
1552,4159;0,0351152
1553,3801;0,0352811
1554,3444;0,035416
1555,3086;0,0354507
1556,2728;0,0353167
1557,2371;0,0349021
1558,2013;0,0340908
1559,1655;0,0332152
1560,1298;0,0329867
1561,0940;0,0335192
1562,0582;0,0343926
1563,0225;0,0352335
1563,9867;0,0358751
1564,9509;0,0362974
1565,9152;0,0365514
1566,8794;0,0367085
1567,8436;0,0368326
1568,8079;0,0369774
1569,7721;0,0371927
1570,7363;0,0375018
1571,7006;0,0378716
1572,6648;0,038237
1573,6290;0,0385586
1574,5933;0,0388482
1575,5575;0,0391423
1576,5217;0,0394821
1577,4860;0,0399265
1578,4502;0,0405101
1579,4144;0,0411893
1580,3787;0,0418853
1581,3429;0,0425509
1582,3071;0,0431841
1583,2714;0,0438069
1584,2356;0,0444409
1585,1998;0,045097
1586,1641;0,0457723
1587,1283;0,0464525
1588,0925;0,0471152
1589,0568;0,0477346
1590,0210;0,0482874
1590,9852;0,0487547
1591,9495;0,0491196
1592,9137;0,0493656
1593,8779;0,0494814
1594,8422;0,0494726
1595,8064;0,0493676
1596,7706;0,0492083
1597,7349;0,0490322
1598,6991;0,0488574
1599,6633;0,0486829
1600,6276;0,0484988
1601,5918;0,048302
1602,5560;0,0481066
1603,5203;0,0479389
1604,4845;0,0478178
1605,4487;0,0477372
1606,4130;0,0476659
1607,3772;0,0475711
1608,3414;0,0474502
1609,3057;0,0473455
1610,2699;0,0473148
1611,2341;0,0473764
1612,1984;0,0474881
1613,1626;0,0475781
1614,1268;0,0475895
1615,0911;0,0475058
1616,0553;0,0473755
1617,0195;0,0473284
1617,9838;0,0474918
1618,9480;0,0478577
1619,9122;0,0482991
1620,8765;0,0486874
1621,8407;0,0489585
1622,8049;0,0491148
1623,7692;0,0492033
1624,7334;0,0492824
1625,6976;0,0493846
1626,6619;0,0495087
1627,6261;0,04965
1628,5903;0,0498202
1629,5546;0,0500292
1630,5188;0,0502552
1631,4830;0,0504485
1632,4473;0,0505679
1633,4115;0,0506031
1634,3757;0,0505445
1635,3400;0,0503568
1636,3042;0,050088
1637,2684;0,0499294
1638,2327;0,0499964
1639,1969;0,0502229
1640,1611;0,050487
1641,1254;0,0507069
1642,0896;0,0508505
1643,0538;0,0509168
1644,0181;0,0509168
1644,9823;0,0508453
1645,9465;0,0506769
1646,9108;0,0504429
1647,8750;0,0502474
1648,8392;0,0501111
1649,8035;0,0499159
1650,7677;0,0495076
1651,7319;0,0487496
1652,6962;0,047577
1653,6604;0,046322
1654,6246;0,0456745
1655,5889;0,0457844
1656,5531;0,0462236
1657,5173;0,0465826
1658,4816;0,0466708
1659,4458;0,0464547
1660,4100;0,0459769
1661,3743;0,0453239
1662,3385;0,0446347
1663,3027;0,0440692
1664,2670;0,0437048
1665,2312;0,0434908
1666,1954;0,043308
1667,1597;0,04304
1668,1239;0,0426061
1669,0881;0,0419944
1670,0524;0,0413004
1671,0166;0,0406659
1671,9808;0,0401342
1672,9451;0,0396237
1673,9093;0,0390444
1674,8735;0,0384125
1675,8378;0,0378696
1676,8020;0,0375718
1677,7662;0,0375422
1678,7305;0,0376498
1679,6947;0,03771
1680,6589;0,0375704
1681,6232;0,0371237
1682,5874;0,0362956
1683,5516;0,0351437
1684,5159;0,0340239
1685,4801;0,0333471
1686,4443;0,0331448
1687,4086;0,0331598
1688,3728;0,0331535
1689,3370;0,0330252
1690,3013;0,0327878
1691,2655;0,0325054
1692,2297;0,032245
1693,1940;0,0320553
1694,1582;0,0319557
1695,1224;0,0319182
1696,0867;0,031849
1697,0509;0,0316158
1698,0151;0,0311474
1698,9794;0,0305454
1699,9436;0,0300702
1700,9078;0,0299527
1701,8721;0,0302169
1702,8363;0,0306994
1703,8005;0,0311924
1704,7648;0,0315576
1705,7290;0,031771
1706,6932;0,0319111
1707,6575;0,0320955
1708,6217;0,0323998
1709,5859;0,0328228
1710,5502;0,0333157
1711,5144;0,0338261
1712,4786;0,0343195
1713,4429;0,0347742
1714,4071;0,035157
1715,3713;0,035393
1716,3356;0,035393
1717,2998;0,0352086
1718,2640;0,0350961
1719,2283;0,0352602
1720,1925;0,0356702
1721,1567;0,0361685
1722,1210;0,0366182
1723,0852;0,0369574
1724,0494;0,0371962
1725,0137;0,0373922
1725,9779;0,0376142
1726,9421;0,0379025
1727,9064;0,0382462
1728,8706;0,0385865
1729,8348;0,038837
1730,7991;0,0389044
1731,7633;0,0387056
1732,7275;0,0382178
1733,6918;0,0375771
1734,6560;0,0370589
1735,6202;0,0368288
1736,5845;0,0368024
1737,5487;0,0367796
1738,5129;0,0366104
1739,4772;0,0362578
1740,4414;0,0357863
1741,4056;0,0353044
1742,3699;0,0348879
1743,3341;0,0345385
1744,2983;0,0342062
1745,2626;0,0338345
1746,2268;0,0333749
1747,1910;0,0327691
1748,1553;0,0319411
1749,1195;0,0308586
1750,0837;0,0296322
1751,0480;0,0284957
1752,0122;0,0276261
1752,9764;0,0270282
1753,9407;0,0265891
1754,9049;0,0261883
1755,8691;0,0257616
1756,8334;0,0253072
1757,7976;0,024849
1758,7618;0,0243937
1759,7261;0,0239166
1760,6903;0,0233932
1761,6545;0,0228427
1762,6188;0,0223343
1763,5830;0,0219374
1764,5472;0,0216689
1765,5115;0,0214914
1766,4757;0,0213506
1767,4399;0,0212087
1768,4042;0,0210494
1769,3684;0,0208606
1770,3326;0,0206152
1771,2969;0,0202846
1772,2611;0,0198933
1773,2253;0,0195445
1774,1896;0,0193433
1775,1538;0,0193054
1776,1180;0,019363
1777,0823;0,0194315
1778,0465;0,0194566
1779,0107;0,0194223
1779,9750;0,0193368
1780,9392;0,0192136
1781,9034;0,0190618
1782,8677;0,0188909
1783,8319;0,018725
1784,7961;0,0186068
1785,7604;0,0185771
1786,7246;0,0186451
1787,6888;0,0187781
1788,6531;0,0189199
1789,6173;0,0190142
1790,5815;0,0190166
1791,5458;0,0189087
1792,5100;0,0187327
1793,4742;0,0185884
1794,4385;0,0185493
1795,4027;0,0186005
1796,3669;0,0186736
1797,3312;0,0187075
1798,2954;0,0186754
1799,2596;0,0185813
1800,2239;0,0184495
1801,1881;0,0183154
1802,1523;0,018213
1803,1166;0,0181607
1804,0808;0,0181573
1805,0450;0,018189
1806,0093;0,0182385
1806,9735;0,0182887
1807,9377;0,0183237
1808,9020;0,0183295
1809,8662;0,0182987
1810,8304;0,0182383
1811,7947;0,0181669
1812,7589;0,018102
1813,7231;0,0180473
1814,6874;0,0179951
1815,6516;0,0179387
1816,6158;0,017883
1817,5801;0,0178455
1818,5443;0,0178461
1819,5085;0,017893
1820,4728;0,0179741
1821,4370;0,0180645
1822,4012;0,0181405
1823,3655;0,0181919
1824,3297;0,0182248
1825,2939;0,0182525
1826,2582;0,0182778
1827,2224;0,0182812
1828,1866;0,0182298
1829,1509;0,018108
1830,1151;0,0179484
1831,0793;0,0178254
1832,0436;0,0177987
1833,0078;0,0178662
1833,9720;0,0179768
1834,9363;0,0180739
1835,9005;0,0181299
1836,8647;0,0181544
1837,8290;0,0181791
1838,7932;0,0182264
1839,7574;0,0182898
1840,7217;0,0183422
1841,6859;0,0183576
1842,6501;0,0183242
1843,6144;0,0182474
1844,5786;0,0181561
1845,5428;0,018093
1846,5071;0,0180781
1847,4713;0,0180886
1848,4355;0,0180838
1849,3998;0,0180399
1850,3640;0,0179636
1851,3282;0,0178835
1852,2925;0,0178308
1853,2567;0,0178243
1854,2209;0,0178646
1855,1852;0,0179364
1856,1494;0,0180139
1857,1136;0,0180699
1858,0779;0,0180852
1859,0421;0,0180597
1860,0063;0,0180175
1860,9706;0,0179994
1861,9348;0,0180433
1862,8990;0,0181632
1863,8633;0,0183424
1864,8275;0,0185406
1865,7917;0,0187048
1866,7560;0,0187761
1867,7202;0,0187087
1868,6844;0,0185088
1869,6487;0,0182555
1870,6129;0,0180494
1871,5771;0,0179405
1872,5414;0,0179166
1873,5056;0,0179382
1874,4698;0,0179704
1875,4341;0,0179934
1876,3983;0,018002
1877,3625;0,0180014
1878,3268;0,018002
1879,2910;0,0180138
1880,2552;0,0180429
1881,2195;0,0180907
1882,1837;0,0181539
1883,1479;0,0182253
1884,1122;0,0182939
1885,0764;0,018346
1886,0406;0,0183667
1887,0049;0,018345
1887,9691;0,0182807
1888,9333;0,0181915
1889,8976;0,0181143
1890,8618;0,0180891
1891,8260;0,0181359
1892,7903;0,0182414
1893,7545;0,0183657
1894,7188;0,0184596
1895,6830;0,0184869
1896,6472;0,0184419
1897,6115;0,0183502
1898,5757;0,0182513
1899,5399;0,0181758
1900,5042;0,0181335
1901,4684;0,0181165
1902,4326;0,0181112
1903,3969;0,0181118
1904,3611;0,0181261
1905,3253;0,0181693
1906,2896;0,0182512
1907,2538;0,0183638
1908,2180;0,0184792
1909,1823;0,0185619
1910,1465;0,018591
1911,1107;0,0185742
1912,0750;0,0185407
1913,0392;0,0185207
1914,0034;0,0185305
1914,9677;0,0185692
1915,9319;0,0186228
1916,8961;0,0186734
1917,8604;0,0187116
1918,8246;0,0187438
1919,7888;0,0187825
1920,7531;0,0188306
1921,7173;0,0188741
1922,6815;0,0188893
1923,6458;0,0188585
1924,6100;0,018783
1925,5742;0,0186835
1926,5385;0,0185875
1927,5027;0,0185148
1928,4669;0,01847
1929,4312;0,0184422
1930,3954;0,018411
1931,3596;0,0183594
1932,3239;0,0182867
1933,2881;0,018214
1934,2523;0,0181761
1935,2166;0,0182021
1936,1808;0,0182949
1937,1450;0,0184247
1938,1093;0,0185426
1939,0735;0,0186072
1940,0377;0,0186075
1941,0020;0,0185686
1941,9662;0,0185387
1942,9304;0,0185592
1943,8947;0,0186396
1944,8589;0,0187545
1945,8231;0,0188639
1946,7874;0,0189354
1947,7516;0,0189555
1948,7158;0,0189256
1949,6801;0,0188547
1950,6443;0,0187547
1951,6085;0,0186413
1952,5728;0,0185365
1953,5370;0,0184667
1954,5012;0,0184562
1955,4655;0,0185198
1956,4297;0,0186588
1957,3939;0,0188599
1958,3582;0,0190946
1959,3224;0,0193206
1960,2866;0,0194896
1961,2509;0,0195653
1962,2151;0,019543
1963,1793;0,0194551
1964,1436;0,0193547
1965,1078;0,019286
1966,0720;0,0192583
1967,0363;0,0192425
1968,0005;0,0191957
1968,9647;0,0190977
1969,9290;0,0189674
1970,8932;0,0188525
1971,8574;0,0188045
1972,8217;0,018858
1973,7859;0,0190194
1974,7501;0,0192622
1975,7144;0,019529
1976,6786;0,0197452
1977,6428;0,0198469
1978,6071;0,0198122
1979,5713;0,0196731
1980,5355;0,0194963
1981,4998;0,0193486
1982,4640;0,019271
1983,4282;0,0192729
1984,3925;0,0193422
1985,3567;0,019458
1986,3209;0,0195948
1987,2852;0,0197178
1988,2494;0,0197805
1989,2136;0,019736
1990,1779;0,0195644
1991,1421;0,0193002
1992,1063;0,0190308
1993,0706;0,018857
1994,0348;0,0188374
1994,9990;0,0189622
1995,9633;0,0191715
1996,9275;0,0193995
1997,8917;0,019612
1998,8560;0,0198189
1999,8202;0,0200545
2000,7844;0,0203412
2001,7487;0,0206613
2002,7129;0,0209552
2003,6771;0,0211472
2004,6414;0,0211823
2005,6056;0,021053
2006,5698;0,0208017
2007,5341;0,0204932
2008,4983;0,0201811
2009,4625;0,0198935
2010,4268;0,0196482
2011,3910;0,0194769
2012,3552;0,0194298
2013,3195;0,0195508
2014,2837;0,0198384
2015,2479;0,0202218
2016,2122;0,0205803
2017,1764;0,0208048
2018,1406;0,0208621
2019,1049;0,0208092
2020,0691;0,0207458
2021,0333;0,0207454
2021,9976;0,020816
2022,9618;0,020912
2023,9260;0,0209817
2024,8903;0,0210137
2025,8545;0,0210492
2026,8187;0,0211514
2027,7830;0,0213561
2028,7472;0,0216359
2029,7114;0,0219036
2030,6757;0,0220522
2031,6399;0,0220097
2032,6041;0,0217796
2033,5684;0,0214426
2034,5326;0,021115
2035,4968;0,0208883
2036,4611;0,0207867
2037,4253;0,020772
2038,3895;0,0207852
2039,3538;0,0207934
2040,3180;0,0208081
2041,2822;0,0208659
2042,2465;0,0209862
2043,2107;0,0211418
2044,1749;0,0212674
2045,1392;0,0212996
2046,1034;0,0212186
2047,0676;0,021062
2048,0320;0,0208982
2048,9961;0,02078
2049,9604;0,0207151
2050,9246;0,0206744
2051,8889;0,020623
2052,8530;0,0205473
2053,8174;0,0204625
2054,7815;0,0203998
2055,7458;0,020385
2056,7100;0,0204221
2057,6743;0,0204913
2058,6384;0,0205617
2059,6028;0,0206104
2060,5669;0,0206345
2061,5313;0,0206502
2062,4954;0,02068
2063,4597;0,0207369
2064,4238;0,0208138
2065,3882;0,0208882
2066,3523;0,0209366
2067,3167;0,020949
2068,2808;0,0209333
2069,2451;0,0209065
2070,2092;0,0208831
2071,1736;0,0208696
2072,1377;0,0208664
2073,1021;0,0208762
2074,0662;0,0209046
2075,0305;0,0209537
2075,9946;0,0210107
2076,9590;0,0210462
2077,9231;0,0210273
2078,8875;0,0209396
2079,8516;0,0208032
2080,8159;0,0206685
2081,7800;0,0205912
2082,7444;0,0206011
2083,7085;0,0206845
2084,6729;0,0207897
2085,6370;0,0208557
2086,6013;0,020845
2087,5654;0,0207628
2088,5298;0,020653
2089,4939;0,0205736
2090,4583;0,0205675
2091,4224;0,0206424
2092,3867;0,0207705
2093,3508;0,020904
2094,3152;0,020998
2095,2793;0,021029
2096,2437;0,0210019
2097,2078;0,0209422
2098,1721;0,0208803
2099,1362;0,0208371
2100,1006;0,0208189
2101,0647;0,0208178
2102,0291;0,0208255
2102,9932;0,0208355
2103,9575;0,0208447
2104,9216;0,0208515
2105,8860;0,0208524
2106,8501;0,0208438
2107,8145;0,0208255
2108,7786;0,0208046
2109,7429;0,0207928
2110,7070;0,020799
2111,6714;0,0208223
2112,6355;0,0208506
2113,5999;0,0208692
2114,5640;0,0208716
2115,5283;0,0208655
2116,4924;0,0208666
2117,4568;0,0208852
2118,4209;0,0209147
2119,3853;0,0209343
2120,3494;0,020924
2121,3137;0,0208848
2122,2778;0,0208447
2123,2422;0,0208465
2124,2063;0,0209197
2125,1707;0,0210593
2126,1348;0,0212255
2127,0991;0,0213673
2128,0632;0,0214549
2129,0276;0,0214966
2129,9917;0,0215293
2130,9561;0,0215888
2131,9202;0,0216818
2132,8845;0,0217818
2133,8486;0,0218531
2134,8130;0,0218843
2135,7771;0,021903
2136,7415;0,0219553
2137,7056;0,0220648
2138,6699;0,0222067
2139,6340;0,0223195
2140,5984;0,0223458
2141,5625;0,0222729
2142,5269;0,0221428
2143,4910;0,0220256
2144,4553;0,0219775
2145,4194;0,0220133
2146,3838;0,0221106
2147,3479;0,0222392
2148,3123;0,0223889
2149,2764;0,0225753
2150,2407;0,0228217
2151,2048;0,0231343
2152,1692;0,0234897
2153,1333;0,0238423
2154,0977;0,0241426
2155,0618;0,0243557
2156,0261;0,0244699
2156,9902;0,0244963
2157,9546;0,0244586
2158,9187;0,0243792
2159,8831;0,0242659
2160,8472;0,0241134
2161,8115;0,0239171
2162,7756;0,0236867
2163,7400;0,0234486
2164,7041;0,0232337
2165,6685;0,0230603
2166,6326;0,0229236
2167,5969;0,0228034
2168,5610;0,0226842
2169,5254;0,0225733
2170,4895;0,0225011
2171,4539;0,0225012
2172,4180;0,0225822
2173,3823;0,0227099
2174,3464;0,0228153
2175,3108;0,0228265
2176,2749;0,0227092
2177,2393;0,0224882
2178,2034;0,0222401
2179,1677;0,0220602
2180,1318;0,0220212
2181,0962;0,022141
2182,0603;0,022374
2183,0247;0,0226296
2183,9888;0,0228131
2184,9531;0,0228653
2185,9172;0,0227841
2186,8816;0,0226165
2187,8457;0,0224326
2188,8101;0,0222937
2189,7742;0,0222316
2190,7385;0,0222435
2191,7026;0,022303
2192,6670;0,0223756
2193,6311;0,0224305
2194,5955;0,0224472
2195,5596;0,0224182
2196,5239;0,0223511
2197,4880;0,0222682
2198,4524;0,0221994
2199,4165;0,0221681
2200,3809;0,0221759
2201,3450;0,0221978
2202,3093;0,0221954
2203,2734;0,0221425
2204,2378;0,0220467
2205,2019;0,0219508
2206,1663;0,0219083
2207,1304;0,0219494
2208,0947;0,0220578
2209,0588;0,0221768
2210,0232;0,0222394
2210,9873;0,0222059
2211,9517;0,0220847
2212,9158;0,0219258
2213,8801;0,021793
2214,8442;0,0217322
2215,8086;0,021752
2216,7727;0,0218236
2217,7371;0,0218971
2218,7012;0,0219252
2219,6655;0,0218842
2220,6296;0,0217845
2221,5940;0,0216663
2222,5581;0,0215809
2223,5225;0,0215651
2224,4866;0,0216217
2225,4509;0,0217165
2226,4150;0,0217957
2227,3794;0,0218121
2228,3435;0,0217496
2229,3079;0,0216277
2230,2720;0,0214895
2231,2363;0,0213807
2232,2004;0,0213318
2233,1648;0,0213498
2234,1289;0,0214201
2235,0933;0,0215127
2236,0574;0,0215909
2237,0217;0,0216213
2237,9858;0,0215844
2238,9502;0,0214838
2239,9143;0,021348
2240,8787;0,0212219
2241,8428;0,0211494
2242,8071;0,021154
2243,7712;0,0212289
2244,7356;0,021341
2245,6997;0,0214473
2246,6641;0,0215156
2247,6282;0,0215378
2248,5925;0,0215294
2249,5566;0,0215167
2250,5210;0,021522
2251,4851;0,0215536
2252,4495;0,021607
2253,4136;0,0216727
2254,3779;0,0217427
2255,3420;0,0218108
2256,3064;0,0218689
2257,2705;0,0219041
2258,2349;0,0219038
2259,1990;0,0218648
2260,1633;0,0218007
2261,1274;0,0217378
2262,0918;0,0217033
2263,0559;0,0217106
2264,0203;0,0217542
2264,9844;0,0218173
2265,9487;0,0218837
2266,9128;0,0219459
2267,8772;0,0220024
2268,8413;0,022048
2269,8057;0,0220692
2270,7698;0,0220501
2271,7341;0,0219843
2272,6982;0,0218845
2273,6626;0,0217794
2274,6267;0,0216993
2275,5911;0,0216594
2276,5552;0,0216527
2277,5195;0,0216559
2278,4836;0,0216458
2279,4480;0,0216146
2280,4121;0,0215756
2281,3765;0,0215567
2282,3406;0,0215854
2283,3049;0,0216738
2284,2690;0,0218117
2285,2334;0,0219715
2286,1975;0,0221227
2287,1619;0,022248
2288,1260;0,0223517
2289,0903;0,0224544
2290,0544;0,0225765
2291,0188;0,0227217
2291,9829;0,0228725
2292,9473;0,023002
2293,9114;0,023094
2294,8757;0,0231563
2295,8398;0,0232146
2296,8042;0,0232915
2297,7683;0,0233833
2298,7327;0,0234544
2299,6968;0,0234554
2300,6611;0,0233553
2301,6252;0,0231677
2302,5896;0,0229508
2303,5537;0,0227832
2304,5181;0,0227256
2305,4822;0,0227898
2306,4465;0,0229302
2307,4106;0,0230617
2308,3750;0,0230967
2309,3391;0,022984
2310,3035;0,0227307
2311,2676;0,0223966
2312,2319;0,0220627
2313,1960;0,0217916
2314,1604;0,0216004
2315,1245;0,0214603
2316,0889;0,021321
2317,0530;0,0211458
2318,0173;0,0209378
2318,9814;0,020747
2319,9458;0,0206529
2320,9099;0,0207289
2321,8743;0,0210036
2322,8384;0,0214395
2323,8027;0,0219386
2324,7668;0,0223744
2325,7312;0,0226367
2326,6953;0,0226722
2327,6597;0,0225058
2328,6238;0,0222325
2329,5881;0,0219832
2330,5522;0,0218758
2331,5166;0,0219692
2332,4807;0,0222407
2333,4451;0,0226009
2334,4092;0,0229399
2335,3735;0,0231817
2336,3376;0,0233201
2337,3020;0,0234189
2338,2661;0,0235729
2339,2305;0,0238411
2340,1946;0,0241774
2341,1589;0,0244012
2342,1230;0,0242598
2343,0874;0,0236434
2344,0515;0,0228459
2345,0159;0,0224643
2345,9800;0,0228628
2346,9443;0,0238483
2347,9084;0,0248912
2348,8728;0,0255159
2349,8369;0,0255314
2350,8013;0,0250676
2351,7654;0,0244697
2352,7297;0,0240914
2353,6938;0,0240914
2354,6582;0,0244021
2355,6223;0,0248798
2356,5867;0,0254125
2357,5508;0,0258885
2358,5151;0,0261662
2359,4792;0,0261413
2360,4436;0,0258275
2361,4077;0,0253306
2362,3721;0,0247447
2363,3362;0,0240947
2364,3005;0,0233664
2365,2646;0,0225606
2366,2290;0,02171
2367,1931;0,0208596
2368,1575;0,0200514
2369,1216;0,0193244
2370,0859;0,0187165
2371,0500;0,0182559
2372,0144;0,0179531
2372,9785;0,017805
2373,9429;0,017808
2374,9070;0,0179674
2375,8713;0,0182907
2376,8354;0,0187721
2377,7998;0,0193776
2378,7639;0,0200434
2379,7283;0,020689
2380,6924;0,0212391
2381,6567;0,0216438
2382,6208;0,0218893
2383,5852;0,0219958
2384,5493;0,0220051
2385,5137;0,0219647
2386,4778;0,021913
2387,4421;0,0218721
2388,4063;0,0218476
2389,3706;0,0218347
2390,3347;0,0218257
2391,2991;0,0218156
2392,2632;0,021804
2393,2275;0,0217945
2394,1917;0,0217926
2395,1560;0,021803
2396,1201;0,0218276
2397,0845;0,0218638
2398,0486;0,0219055
2399,0129;0,0219423
2399,9771;0,0219643
2400,9414;0,0219676
2401,9055;0,0219553
2402,8699;0,0219376
2403,8340;0,0219266
2404,7983;0,0219319
2405,7625;0,0219575
2406,7268;0,0220007
2407,6909;0,0220554
2408,6553;0,0221144
2409,6194;0,0221694
2410,5837;0,0222123
2411,5479;0,0222355
2412,5122;0,0222345
2413,4763;0,0222116
2414,4407;0,0221771
2415,4048;0,0221476
2416,3691;0,0221392
2417,3333;0,0221604
2418,2976;0,0222076
2419,2617;0,0222671
2420,2261;0,0223216
2421,1902;0,022358
2422,1545;0,0223731
2423,1187;0,0223727
2424,0830;0,0223667
2425,0471;0,0223635
2426,0115;0,0223679
2426,9756;0,0223814
2427,9399;0,0224055
2428,9041;0,0224421
2429,8684;0,0224923
2430,8325;0,0225533
2431,7969;0,0226177
2432,7610;0,0226749
2433,7253;0,0227161
2434,6895;0,0227385
2435,6538;0,0227469
2436,6179;0,0227504
2437,5823;0,0227578
2438,5464;0,0227721
2439,5107;0,0227899
2440,4749;0,0228042
2441,4392;0,022809
2442,4033;0,022804
2443,3677;0,0227958
2444,3318;0,0227944
2445,2961;0,022809
2446,2603;0,0228434
2447,2246;0,0228945
2448,1887;0,0229538
2449,1531;0,0230096
2450,1172;0,0230506
2451,0815;0,0230686
2452,0457;0,0230609
2453,0100;0,0230325
2453,9741;0,022995
2454,9385;0,0229632
2455,9026;0,0229488
2456,8669;0,0229562
2457,8311;0,0229813
2458,7954;0,0230161
2459,7595;0,0230545
2460,7239;0,0230943
2461,6880;0,0231362
2462,6523;0,0231794
2463,6165;0,023219
2464,5808;0,023249
2465,5449;0,0232665
2466,5093;0,0232754
2467,4734;0,0232834
2468,4377;0,023297
2469,4019;0,0233162
2470,3662;0,023336
2471,3303;0,0233517
2472,2947;0,0233639
2473,2588;0,0233791
2474,2231;0,0234046
2475,1873;0,0234413
2476,1516;0,0234808
2477,1157;0,0235093
2478,0801;0,0235144
2479,0442;0,0234921
2480,0085;0,0234492
2480,9727;0,0234009
2481,9370;0,0233646
2482,9011;0,0233539
2483,8655;0,0233731
2484,8296;0,0234153
2485,7939;0,0234654
2486,7581;0,0235069
2487,7224;0,0235301
2488,6865;0,0235372
2489,6509;0,0235404
2490,6150;0,0235536
2491,5793;0,0235834
2492,5435;0,0236243
2493,5078;0,0236632
2494,4719;0,0236886
2495,4363;0,0236989
2496,4004;0,0237025
2497,3647;0,0237113
2498,3289;0,0237311
2499,2932;0,0237568
2500,2573;0,0237758
2501,2217;0,0237771
2502,1858;0,0237596
2503,1501;0,0237345
2504,1143;0,023719
2505,0786;0,023727
2506,0427;0,0237607
2507,0071;0,0238103
2507,9712;0,0238593
2508,9355;0,0238933
2509,8997;0,0239061
2510,8640;0,0239016
2511,8281;0,0238893
2512,7925;0,0238793
2513,7566;0,0238775
2514,7209;0,0238841
2515,6851;0,0238947
2516,6494;0,0239034
2517,6135;0,0239057
2518,5779;0,0239007
2519,5420;0,0238916
2520,5063;0,0238839
2521,4705;0,0238833
2522,4348;0,0238932
2523,3989;0,0239136
2524,3633;0,0239414
2525,3274;0,0239724
2526,2917;0,0240021
2527,2559;0,0240263
2528,2202;0,0240411
2529,1843;0,0240438
2530,1487;0,0240342
2531,1128;0,0240162
2532,0771;0,0239972
2533,0413;0,0239854
2534,0056;0,023986
2534,9697;0,0239989
2535,9341;0,0240196
2536,8982;0,0240418
2537,8625;0,0240603
2538,8267;0,024073
2539,7910;0,0240793
2540,7551;0,0240802
2541,7195;0,0240768
2542,6836;0,0240716
2543,6479;0,0240691
2544,6121;0,0240746
2545,5764;0,0240925
2546,5405;0,0241234
2547,5049;0,024163
2548,4690;0,0242026
2549,4333;0,0242322
2550,3975;0,0242437
2551,3618;0,0242335
2552,3259;0,0242048
2553,2903;0,0241661
2554,2544;0,0241291
2555,2188;0,0241047
2556,1829;0,0240992
2557,1472;0,024113
2558,1113;0,0241415
2559,0757;0,0241778
2560,0398;0,0242151
2561,0042;0,0242479
2561,9683;0,0242715
2562,9326;0,0242823
2563,8967;0,0242789
2564,8611;0,0242635
2565,8252;0,0242428
2566,7896;0,0242258
2567,7537;0,0242202
2568,7180;0,024229
2569,6821;0,0242485
2570,6465;0,0242704
2571,6106;0,0242859
2572,5750;0,02429
2573,5391;0,0242838
2574,5034;0,0242745
2575,4675;0,0242713
2576,4319;0,0242818
2577,3960;0,0243078
2578,3604;0,0243444
2579,3245;0,0243821
2580,2888;0,0244116
2581,2529;0,0244283
2582,2173;0,0244344
2583,1814;0,0244367
2584,1458;0,024442
2585,1099;0,0244528
2586,0742;0,0244661
2587,0383;0,0244757
2588,0027;0,0244765
2588,9668;0,0244678
2589,9312;0,0244544
2590,8953;0,0244432
2591,8596;0,0244407
2592,8237;0,0244496
2593,7881;0,0244689
2594,7522;0,0244954
2595,7166;0,0245259
2596,6807;0,0245584
2597,6450;0,0245923
2598,6091;0,0246268
2599,5735;0,0246596
2600,5376;0,0246874
2601,5020;0,0247066
2602,4661;0,0247159
2603,4304;0,0247173
2604,3945;0,0247163
2605,3589;0,0247203
2606,3230;0,0247357
2607,2874;0,024765
2608,2515;0,0248047
2609,2158;0,0248463
2610,1799;0,024879
2611,1443;0,0248936
2612,1084;0,0248867
2613,0728;0,0248632
2614,0369;0,0248347
2615,0012;0,0248151
2615,9653;0,0248154
2616,9297;0,0248395
2617,8938;0,0248837
2618,8582;0,024939
2619,8223;0,0249947
2620,7866;0,0250418
2621,7507;0,0250754
2622,7151;0,0250944
2623,6792;0,0251017
2624,6436;0,0251029
2625,6077;0,0251049
2626,5720;0,0251134
2627,5361;0,0251308
2628,5005;0,0251554
2629,4646;0,0251824
2630,4290;0,025206
2631,3931;0,0252231
2632,3574;0,0252342
2633,3215;0,0252434
2634,2859;0,0252566
2635,2500;0,0252784
2636,2144;0,0253105
2637,1785;0,0253503
2638,1428;0,0253921
2639,1069;0,0254291
2640,0713;0,025456
2641,0354;0,0254715
2641,9998;0,0254787
2642,9639;0,0254834
2643,9282;0,025492
2644,8923;0,0255082
2645,8567;0,0255324
2646,8208;0,0255618
2647,7852;0,0255922
2648,7493;0,0256199
2649,7136;0,0256427
2650,6777;0,0256603
2651,6421;0,0256741
2652,6062;0,0256865
2653,5706;0,0257005
2654,5347;0,0257185
2655,4990;0,0257418
2656,4631;0,0257698
2657,4275;0,0258002
2658,3916;0,02583
2659,3560;0,0258566
2660,3201;0,0258787
2661,2844;0,0258972
2662,2485;0,0259143
2663,2129;0,0259329
2664,1770;0,0259552
2665,1414;0,0259813
2666,1055;0,0260097
2667,0698;0,0260368
2668,0339;0,0260594
2668,9983;0,0260753
2669,9624;0,0260855
2670,9268;0,0260934
2671,8909;0,0261039
2672,8552;0,0261211
2673,8193;0,0261457
2674,7837;0,0261749
2675,7478;0,0262037
2676,7122;0,0262275
2677,6763;0,0262448
2678,6406;0,0262577
2679,6047;0,0262712
2680,5691;0,02629
2681,5332;0,0263168
2682,4976;0,0263508
2683,4617;0,026389
2684,4260;0,0264275
2685,3901;0,0264629
2686,3545;0,0264928
2687,3186;0,026516
2688,2830;0,0265332
2689,2471;0,0265474
2690,2114;0,0265631
2691,1755;0,0265853
2692,1399;0,0266166
2693,1040;0,0266555
2694,0684;0,0266969
2695,0325;0,0267344
2695,9968;0,0267642
2696,9609;0,026787
2697,9253;0,0268068
2698,8894;0,0268282
2699,8538;0,0268535
2700,8179;0,0268823
2701,7822;0,0269129
2702,7463;0,0269448
2703,7107;0,0269787
2704,6748;0,0270154
2705,6392;0,0270537
2706,6033;0,0270906
2707,5676;0,0271228
2708,5317;0,027149
2709,4961;0,0271709
2710,4602;0,0271922
2711,4246;0,0272153
2712,3887;0,0272409
2713,3530;0,0272674
2714,3171;0,0272938
2715,2815;0,0273201
2716,2456;0,027348
2717,2100;0,0273781
2718,1741;0,0274086
2719,1384;0,0274358
2720,1025;0,0274553
2721,0669;0,0274654
2722,0310;0,0274681
2722,9954;0,027469
2723,9595;0,0274748
2724,9238;0,027491
2725,8879;0,02752
2726,8523;0,0275602
2727,8164;0,0276074
2728,7808;0,0276566
2729,7449;0,0277042
2730,7092;0,0277487
2731,6733;0,0277895
2732,6377;0,0278256
2733,6018;0,0278547
2734,5662;0,0278746
2735,5303;0,0278847
2736,4946;0,0278886
2737,4587;0,0278931
2738,4231;0,027905
2739,3872;0,0279278
2740,3516;0,0279596
2741,3157;0,0279945
2742,2800;0,0280256
2743,2441;0,0280485
2744,2085;0,0280618
2745,1726;0,0280669
2746,1370;0,0280666
2747,1011;0,0280646
2748,0654;0,0280655
2749,0295;0,0280745
2749,9939;0,0280957
2750,9580;0,0281302
2751,9224;0,0281744
2752,8865;0,0282216
2753,8508;0,0282641
2754,8149;0,0282974
2755,7793;0,0283215
2756,7434;0,0283408
2757,7078;0,0283613
2758,6719;0,0283877
2759,6362;0,0284208
2760,6003;0,0284576
2761,5647;0,0284928
2762,5288;0,028522
2763,4932;0,0285442
2764,4573;0,0285625
2765,4216;0,0285828
2766,3857;0,0286106
2767,3501;0,0286484
2768,3142;0,0286947
2769,2786;0,0287449
2770,2427;0,0287938
2771,2070;0,0288378
2772,1711;0,0288766
2773,1355;0,0289126
2774,0996;0,0289494
2775,0640;0,0289904
2776,0281;0,0290362
2776,9924;0,0290852
2777,9565;0,0291332
2778,9209;0,029176
2779,8850;0,0292115
2780,8494;0,0292409
2781,8135;0,0292687
2782,7778;0,0293008
2783,7419;0,0293418
2784,7063;0,0293931
2785,6704;0,0294524
2786,6348;0,0295151
2787,5989;0,029576
2788,5632;0,0296314
2789,5273;0,0296809
2790,4917;0,0297269
2791,4558;0,0297734
2792,4202;0,029824
2793,3843;0,0298796
2794,3486;0,0299387
2795,3127;0,0299982
2796,2771;0,0300565
2797,2412;0,0301141
2798,2056;0,0301737
2799,1697;0,0302379
2800,1340;0,0303077
2801,0981;0,0303823
2802,0625;0,0304597
2803,0266;0,0305386
2803,9910;0,0306183
2804,9551;0,0306979
2805,9194;0,0307752
2806,8835;0,030848
2807,8479;0,0309156
2808,8120;0,0309812
2809,7764;0,031051
2810,7405;0,0311315
2811,7048;0,0312255
2812,6689;0,0313301
2813,6333;0,0314385
2814,5974;0,0315437
2815,5618;0,0316425
2816,5259;0,0317371
2817,4902;0,0318331
2818,4543;0,031936
2819,4187;0,0320483
2820,3828;0,0321685
2821,3472;0,0322929
2822,3113;0,0324181
2823,2756;0,0325427
2824,2397;0,0326684
2825,2041;0,0327983
2826,1682;0,0329359
2827,1326;0,0330829
2828,0967;0,0332393
2829,0610;0,0334033
2830,0251;0,0335732
2830,9895;0,033748
2831,9536;0,033928
2832,9180;0,0341138
2833,8821;0,0343049
2834,8464;0,0344994
2835,8105;0,0346948
2836,7749;0,0348906
2837,7390;0,0350906
2838,7034;0,0353027
2839,6675;0,0355372
2840,6318;0,0358025
2841,5959;0,0361011
2842,5603;0,0364289
2843,5244;0,0367755
2844,4888;0,037128
2845,4529;0,0374736
2846,4172;0,0378002
2847,3813;0,0380964
2848,3457;0,0383501
2849,3098;0,0385498
2850,2742;0,0386868
2851,2383;0,038759
2852,2026;0,0387735
2853,1667;0,0387464
2854,1311;0,038699
2855,0952;0,0386518
2856,0596;0,0386199
2857,0237;0,0386106
2857,9880;0,0386246
2858,9521;0,0386597
2859,9165;0,0387135
2860,8806;0,0387849
2861,8450;0,0388738
2862,8091;0,0389797
2863,7734;0,0391016
2864,7375;0,0392378
2865,7019;0,0393859
2866,6660;0,0395412
2867,6304;0,0396961
2868,5945;0,0398404
2869,5588;0,0399643
2870,5229;0,0400627
2871,4873;0,0401381
2872,4514;0,0402002
2873,4158;0,0402617
2874,3799;0,0403326
2875,3442;0,0404165
2876,3083;0,0405103
2877,2727;0,0406064
2878,2368;0,040697
2879,2012;0,0407767
2880,1653;0,0408442
2881,1296;0,0409021
2882,0938;0,0409558
2883,0581;0,0410115
2884,0222;0,0410735
2884,9866;0,0411432
2885,9507;0,041219
2886,9150;0,0412983
2887,8792;0,0413795
2888,8435;0,0414621
2889,8076;0,0415455
2890,7720;0,0416271
2891,7361;0,0417022
2892,7004;0,0417658
2893,6646;0,0418168
2894,6289;0,0418589
2895,5930;0,0418998
2896,5574;0,0419465
2897,5215;0,0420017
2898,4858;0,0420622
2899,4500;0,0421214
2900,4143;0,0421735
2901,3784;0,0422174
2902,3428;0,0422571
2903,3069;0,0422994
2904,2712;0,04235
2905,2354;0,0424099
2906,1997;0,0424758
2907,1638;0,0425426
2908,1282;0,0426087
2909,0923;0,0426786
2910,0566;0,0427619
2911,0208;0,0428679
2911,9851;0,0429991
2912,9492;0,0431468
2913,9136;0,0432936
2914,8777;0,0434197
2915,8420;0,0435103
2916,8062;0,0435591
2917,7705;0,0435667
2918,7346;0,0435355
2919,6990;0,0434667
2920,6631;0,0433599
2921,6274;0,0432163
2922,5916;0,0430415
2923,5559;0,0428461
2924,5200;0,0426423
2925,4844;0,0424405
2926,4485;0,0422473
2927,4128;0,0420656
2928,3770;0,0418964
2929,3413;0,0417398
2930,3054;0,0415952
2931,2698;0,0414598
2932,2339;0,0413285
2933,1982;0,0411943
2934,1624;0,0410502
2935,1267;0,0408914
2936,0908;0,0407168
2937,0552;0,0405294
2938,0193;0,0403352
2938,9836;0,04014
2939,9478;0,0399467
2940,9121;0,0397539
2941,8762;0,0395567
2942,8406;0,0393505
2943,8047;0,039135
2944,7690;0,0389153
2945,7332;0,0387007
2946,6975;0,0384991
2947,6616;0,0383137
2948,6260;0,0381416
2949,5901;0,0379756
2950,5544;0,0378093
2951,5186;0,0376395
2952,4829;0,0374677
2953,4470;0,0372988
2954,4114;0,0371384
2955,3755;0,036991
2956,3398;0,036858
2957,3040;0,0367368
2958,2683;0,0366218
2959,2324;0,0365063
2960,1968;0,0363855
2961,1609;0,0362593
2962,1252;0,0361318
2963,0894;0,0360079
2964,0537;0,035889
2965,0178;0,0357714
2965,9822;0,0356478
2966,9463;0,0355122
2967,9106;0,0353646
2968,8748;0,035211
2969,8391;0,0350607
2970,8032;0,0349211
2971,7676;0,0347954
2972,7317;0,0346829
2973,6960;0,0345808
2974,6602;0,0344861
2975,6245;0,0343953
2976,5886;0,0343034
2977,5530;0,034205
2978,5171;0,0340962
2979,4814;0,0339781
2980,4456;0,0338579
2981,4099;0,0337468
2982,3740;0,0336556
2983,3384;0,0335895
2984,3025;0,0335469
2985,2668;0,0335201
2986,2310;0,0334993
2987,1953;0,0334767
2988,1594;0,0334489
2989,1238;0,0334174
2990,0879;0,0333866
2991,0522;0,0333614
2992,0164;0,0333443
2992,9807;0,0333353
2993,9448;0,0333328
2994,9092;0,0333355
2995,8733;0,0333444
2996,8376;0,0333617
2997,8018;0,0333892
2998,7661;0,0334255
2999,7302;0,0334657
3000,6946;0,0335035
3001,6587;0,0335352
3002,6230;0,0335623
3003,5872;0,0335914
3004,5515;0,0336305
3005,5156;0,0336847
3006,4800;0,0337527
3007,4441;0,0338272
3008,4084;0,0338975
3009,3726;0,0339539
3010,3369;0,0339908
3011,3010;0,0340086
3012,2654;0,0340137
3013,2295;0,0340166
3014,1938;0,0340292
3015,1580;0,0340611
3016,1223;0,034117
3017,0864;0,0341951
3018,0508;0,0342871
3019,0149;0,0343816
3019,9792;0,0344677
3020,9434;0,034539
3021,9077;0,0345952
3022,8718;0,0346422
3023,8362;0,0346894
3024,8003;0,0347462
3025,7646;0,0348191
3026,7288;0,034909
3027,6931;0,0350114
3028,6572;0,0351172
3029,6216;0,0352162
3030,5857;0,0352999
3031,5500;0,0353661
3032,5142;0,0354189
3033,4785;0,0354683
3034,4426;0,0355248
3035,4070;0,0355961
3036,3711;0,0356831
3037,3354;0,0357807
3038,2996;0,0358801
3039,2639;0,0359727
3040,2280;0,0360548
3041,1924;0,0361286
3042,1565;0,0362017
3043,1208;0,0362838
3044,0850;0,0363809
3045,0493;0,0364934
3046,0134;0,0366151
3046,9778;0,0367376
3047,9419;0,0368546
3048,9063;0,0369657
3049,8704;0,0370749
3050,8347;0,0371867
3051,7988;0,0373019
3052,7632;0,0374161
3053,7273;0,037523
3054,6917;0,0376191
3055,6558;0,0377076
3056,6201;0,037797
3057,5842;0,0378966
3058,5486;0,0380104
3059,5127;0,0381356
3060,4771;0,0382647
3061,4412;0,0383902
3062,4055;0,038509
3063,3696;0,0386219
3064,3340;0,0387316
3065,2981;0,0388392
3066,2625;0,0389428
3067,2266;0,0390396
3068,1909;0,0391287
3069,1550;0,0392124
3070,1194;0,0392957
3071,0835;0,0393833
3072,0479;0,0394776
3073,0120;0,0395785
3073,9763;0,0396842
3074,9404;0,0397941
3075,9048;0,0399085
3076,8689;0,0400279
3077,8333;0,0401507
3078,7974;0,0402723
3079,7617;0,0403866
3080,7258;0,0404895
3081,6902;0,040581
3082,6543;0,0406655
3083,6187;0,0407491
3084,5828;0,0408361
3085,5471;0,0409275
3086,5112;0,0410215
3087,4756;0,0411167
3088,4397;0,0412154
3089,4041;0,0413229
3090,3682;0,0414447
3091,3325;0,0415823
3092,2966;0,0417305
3093,2610;0,0418792
3094,2251;0,0420177
3095,1895;0,0421399
3096,1536;0,042247
3097,1179;0,0423461
3098,0820;0,0424454
3099,0464;0,0425499
3100,0105;0,0426603
3100,9749;0,0427739
3101,9390;0,0428874
3102,9033;0,042999
3103,8674;0,0431084
3104,8318;0,0432163
3105,7959;0,0433234
3106,7603;0,0434311
3107,7244;0,0435425
3108,6887;0,0436617
3109,6528;0,0437927
3110,6172;0,0439365
3111,5813;0,0440901
3112,5457;0,0442466
3113,5098;0,0443973
3114,4741;0,0445348
3115,4382;0,044655
3116,4026;0,044758
3117,3667;0,0448484
3118,3311;0,0449336
3119,2952;0,0450227
3120,2595;0,0451241
3121,2236;0,0452435
3122,1880;0,0453811
3123,1521;0,0455324
3124,1165;0,0456892
3125,0806;0,0458442
3126,0449;0,0459932
3127,0090;0,0461365
3127,9734;0,0462767
3128,9375;0,046416
3129,9019;0,0465542
3130,8660;0,0466894
3131,8303;0,0468201
3132,7944;0,0469472
3133,7588;0,0470748
3134,7229;0,0472077
3135,6873;0,047349
3136,6514;0,0474974
3137,6157;0,0476478
3138,5798;0,0477938
3139,5442;0,0479309
3140,5083;0,0480593
3141,4727;0,0481842
3142,4368;0,048313
3143,4011;0,0484522
3144,3652;0,0486034
3145,3296;0,0487634
3146,2937;0,0489255
3147,2581;0,0490838
3148,2222;0,0492355
3149,1865;0,0493821
3150,1506;0,0495275
3151,1150;0,0496749
3152,0791;0,0498252
3153,0435;0,0499765
3154,0076;0,0501261
3154,9719;0,050273
3155,9360;0,0504192
3156,9004;0,0505687
3157,8645;0,0507258
3158,8289;0,0508918
3159,7930;0,0510637
3160,7573;0,0512349
3161,7214;0,0513982
3162,6858;0,0515496
3163,6499;0,0516905
3164,6143;0,0518271
3165,5784;0,0519669
3166,5427;0,0521147
3167,5068;0,0522711
3168,4712;0,0524327
3169,4353;0,0525041
3170,3997;0,0526703
3171,3638;0,0528412
3172,3281;0,0530179
3173,2922;0,0531983
3174,2566;0,0533764
3175,2207;0,0535452
3176,1851;0,0537012
3177,1492;0,0538463
3178,1135;0,0539872
3179,0776;0,0541311
3180,0420;0,0542811
3181,0061;0,0544349
3181,9705;0,0545872
3182,9346;0,0547332
3183,8989;0,0548719
3184,8630;0,0550068
3185,8274;0,0551438
3186,7915;0,055288
3187,7559;0,0554415
3188,7200;0,0556022
3189,6843;0,0557652
3190,6484;0,0559242
3191,6128;0,0560737
3192,5769;0,0562116
3193,5413;0,05634
3194,5054;0,0564639
3195,4697;0,0565889
3196,4338;0,0567179
3197,3982;0,0568503
3198,3623;0,0569834
3199,3267;0,0571166
3200,2908;0,057253
3201,2551;0,0573987
3202,2192;0,0575576
3203,1836;0,0577274
3204,1477;0,0578992
3205,1121;0,0580615
3206,0762;0,0582074
3207,0405;0,0583386
3208,0046;0,0584643
3208,9690;0,0585949
3209,9331;0,0587352
3210,8975;0,0588824
3211,8616;0,0590282
3212,8259;0,0591655
3213,7900;0,0592922
3214,7544;0,0594114
3215,7185;0,0595285
3216,6829;0,0596471
3217,6470;0,0597681
3218,6113;0,0598906
3219,5754;0,0600142
3220,5398;0,0601401
3221,5039;0,06027
3222,4683;0,0604049
3223,4324;0,0605436
3224,3967;0,0606838
3225,3608;0,0608228
3226,3252;0,0609591
3227,2893;0,0610925
3228,2537;0,0612241
3229,2178;0,0613551
3230,1821;0,0614859
3231,1462;0,0616162
3232,1106;0,0617449
3233,0747;0,0618709
3234,0391;0,061994
3235,0032;0,0621149
3235,9675;0,0622349
3236,9316;0,062356
3237,8960;0,0624805
3238,8601;0,0626113
3239,8245;0,0627508
3240,7886;0,0628999
3241,7529;0,0630566
3242,7170;0,0632156
3243,6814;0,0633702
3244,6455;0,0635153
3245,6099;0,0636511
3246,5740;0,0637837
3247,5383;0,0639221
3248,5024;0,0640732
3249,4668;0,0642381
3250,4309;0,0644109
3251,3953;0,0645826
3252,3594;0,0647444
3253,3237;0,0648923
3254,2878;0,0650278
3255,2522;0,0651564
3256,2163;0,0652849
3257,1807;0,0654191
3258,1448;0,065563
3259,1091;0,0657192
3260,0732;0,065889
3261,0376;0,0660714
3262,0017;0,0662612
3262,9661;0,0664496
3263,9302;0,0666257
3264,8945;0,0667814
3265,8586;0,0669159
3266,8230;0,0670357
3267,7871;0,0671521
3268,7515;0,0672738
3269,7156;0,0674016
3270,6799;0,0675279
3271,6440;0,0676412
3272,6084;0,0677333
3273,5725;0,0678046
3274,5369;0,0678637
3275,5010;0,0679222
3276,4653;0,0679878
3277,4294;0,0680613
3278,3938;0,0681381
3279,3579;0,0682113
3280,3223;0,0682766
3281,2864;0,0683328
3282,2507;0,0683817
3283,2148;0,0684262
3284,1792;0,0684684
3285,1433;0,0685093
3286,1077;0,0685485
3287,0718;0,0685847
3288,0361;0,0686158
3289,0002;0,0686391
3289,9646;0,0686524
3290,9287;0,0686545
3291,8931;0,068646
3292,8572;0,0686296
3293,8215;0,0686098
3294,7856;0,0685915
3295,7500;0,0685785
3296,7141;0,0685722
3297,6785;0,0685723
3298,6426;0,0685771
3299,6069;0,0685858
3300,5710;0,0685982
3301,5354;0,0686138
3302,4995;0,0686303
3303,4639;0,0686431
3304,4280;0,0686476
3305,3923;0,0686419
3306,3564;0,0686291
3307,3208;0,068616
3308,2849;0,0686102
3309,2493;0,0686156
3310,2134;0,068631
3311,1777;0,0686514
3312,1418;0,0686714
3313,1062;0,0686881
3314,0703;0,0687022
3315,0347;0,0687175
3315,9988;0,0687391
3316,9631;0,0687725
3317,9272;0,0688222
3318,8916;0,0688904
3319,8557;0,0689758
3320,8201;0,0690729
3321,7842;0,0691741
3322,7485;0,0692714
3323,7126;0,0693591
3324,6770;0,0694354
3325,6411;0,0695012
3326,6055;0,0695587
3327,5696;0,0696103
3328,5339;0,0696581
3329,4980;0,0697046
3330,4624;0,0697516
3331,4265;0,0697996
3332,3909;0,0698462
3333,3550;0,0698863
3334,3193;0,0699127
3335,2834;0,069919
3336,2478;0,0699017
3337,2119;0,0698605
3338,1763;0,0697984
3339,1404;0,0697198
3340,1047;0,06963
3341,0688;0,0695334
3342,0332;0,069433
3342,9973;0,069329
3343,9617;0,06922
3344,9258;0,0691046
3345,8901;0,068984
3346,8542;0,0688625
3347,8186;0,0687448
3348,7827;0,0686319
3349,7471;0,0685183
3350,7112;0,0683934
3351,6755;0,0682487
3352,6396;0,0680844
3353,6040;0,0679109
3354,5681;0,0677449
3355,5325;0,0675998
3356,4966;0,0674789
3357,4609;0,0673752
3358,4250;0,0672766
3359,3894;0,0671738
3360,3535;0,0670636
3361,3179;0,0669469
3362,2820;0,0668246
3363,2463;0,0666943
3364,2104;0,0665517
3365,1748;0,0663945
3366,1389;0,0662257
3367,1033;0,0660531
3368,0674;0,0658853
3369,0317;0,0657267
3369,9958;0,0655766
3370,9602;0,0654305
3371,9243;0,0652849
3372,8887;0,0651397
3373,8528;0,0649976
3374,8171;0,0648617
3375,7813;0,0647318
3376,7456;0,0646043
3377,7097;0,064474
3378,6741;0,0643374
3379,6382;0,0641952
3380,6025;0,0640505
3381,5667;0,063907
3382,5310;0,0637659
3383,4951;0,0636268
3384,4595;0,0634897
3385,4236;0,0633566
3386,3879;0,0632311
3387,3521;0,0631148
3388,3164;0,0630048
3389,2805;0,0628934
3390,2449;0,0627725
3391,2090;0,0626383
3392,1733;0,0624943
3393,1375;0,0623495
3394,1018;0,0622124
3395,0659;0,0620855
3396,0303;0,0619637
3396,9944;0,0618374
3397,9587;0,0616984
3398,9229;0,0615442
3399,8872;0,0613788
3400,8513;0,0612096
3401,8157;0,0610424
3402,7798;0,0608785
3403,7441;0,0607147
3404,7083;0,0605469
3405,6726;0,060375
3406,6367;0,0602036
3407,6011;0,060039
3408,5652;0,0598835
3409,5295;0,0597315
3410,4937;0,0595709
3411,4580;0,0593923
3412,4221;0,0591972
3413,3865;0,0590007
3414,3506;0,058823
3415,3149;0,0586765
3416,2791;0,058556
3417,2434;0,0584381
3418,2075;0,0582922
3419,1719;0,0580958
3420,1360;0,0578468
3421,1003;0,0575648
3422,0645;0,0572816
3423,0288;0,0570253
3423,9929;0,0568098
3424,9573;0,0566323
3425,9214;0,0564775
3426,8857;0,0563255
3427,8499;0,0561587
3428,8142;0,0559666
3429,7783;0,0557486
3430,7427;0,0555118
3431,7068;0,0552676
3432,6711;0,0550279
3433,6353;0,054803
3434,5996;0,0545999
3435,5637;0,0544209
3436,5281;0,0542614
3437,4922;0,0541104
3438,4565;0,0539547
3439,4207;0,0537856
3440,3850;0,0536037
3441,3491;0,0534166
3442,3135;0,0532305
3443,2776;0,0530415
3444,2419;0,0528345
3445,2061;0,0525919
3446,1704;0,0523083
3447,1345;0,051999
3448,0989;0,0516946
3449,0630;0,0514227
3450,0273;0,051192
3450,9915;0,0509916
3451,9558;0,0508015
3452,9199;0,0506067
3453,8843;0,050404
3454,8484;0,0501998
3455,8127;0,0500022
3456,7769;0,0498131
3457,7412;0,0496264
3458,7053;0,0494322
3459,6697;0,049224
3460,6338;0,0490025
3461,5981;0,0487755
3462,5623;0,0485522
3463,5266;0,0483371
3464,4907;0,0481271
3465,4551;0,0479139
3466,4192;0,047691
3467,3835;0,0474597
3468,3477;0,0472292
3469,3120;0,04701
3470,2761;0,046805
3471,2405;0,0466065
3472,2046;0,0464023
3473,1689;0,0461868
3474,1331;0,0459685
3475,0974;0,0457659
3476,0615;0,0455932
3477,0259;0,045447
3477,9900;0,0453052
3478,9543;0,0451388
3479,9185;0,0449307
3480,8828;0,0446871
3481,8469;0,0444341
3482,8113;0,0442001
3483,7754;0,0439972
3484,7397;0,043816
3485,7039;0,043637
3486,6682;0,0434458
3487,6323;0,0432423
3488,5967;0,0430387
3489,5608;0,0428482
3490,5251;0,0426744
3491,4893;0,0425074
3492,4536;0,042331
3493,4177;0,0421337
3494,3821;0,0419196
3495,3462;0,0417101
3496,3105;0,0415344
3497,2747;0,0414108
3498,2390;0,0413313
3499,2031;0,0412601
3500,1675;0,0411482
3501,1316;0,0409577
3502,0959;0,0406866
3503,0601;0,040376
3504,0244;0,0400871
3504,9885;0,0398598
3505,9529;0,0396893
3506,9170;0,0395369
3507,8813;0,0393595
3508,8455;0,0391371
3509,8098;0,0388825
3510,7739;0,03863
3511,7383;0,0384089
3512,7024;0,038226
3513,6667;0,0380676
3514,6309;0,0379166
3515,5952;0,0377667
3516,5593;0,0376244
3517,5237;0,0375009
3518,4878;0,0374004
3519,4521;0,0373165
3520,4163;0,0372357
3521,3806;0,0371452
3522,3447;0,0370368
3523,3091;0,0369062
3524,2732;0,0367477
3525,2375;0,0365517
3526,2017;0,0363087
3527,1660;0,03602
3528,1301;0,0357054
3529,0945;0,0353996
3530,0586;0,0351365
3531,0229;0,0349294
3531,9871;0,0347657
3532,9514;0,0346159
3533,9155;0,0344496
3534,8799;0,0342514
3535,8440;0,0340304
3536,8083;0,0338186
3537,7725;0,0336568
3538,7368;0,0335727
3539,7009;0,0335659
3540,6653;0,0336056
3541,6294;0,0336389
3542,5938;0,0336045
3543,5579;0,0334539
3544,5222;0,0331793
3545,4863;0,0328312
3546,4507;0,0324964
3547,4148;0,0322415
3548,3792;0,0320721
3549,3433;0,0319405
3550,3076;0,0317849
3551,2717;0,0315695
3552,2361;0,0313057
3553,2002;0,0310442
3554,1646;0,0308378
3555,1287;0,0307056
3556,0930;0,030627
3557,0571;0,0305673
3558,0215;0,0305087
3558,9856;0,0304654
3559,9500;0,0304725
3560,9141;0,0305552
3561,8784;0,030699
3562,8425;0,0308409
3563,8069;0,0308792
3564,7710;0,0306965
3565,7354;0,030217
3566,6995;0,0295057
3567,6638;0,0287897
3568,6279;0,0282935
3569,5923;0,0280706
3570,5564;0,0280238
3571,5208;0,0280237
3572,4849;0,0279885
3573,4492;0,0279
3574,4133;0,0277838
3575,3777;0,0276736
3576,3418;0,0275835
3577,3062;0,0275053
3578,2703;0,02743
3579,2346;0,02737
3580,1987;0,0273592
3581,1631;0,0274259
3582,1272;0,0275621
3583,0916;0,0277124
3584,0557;0,0277863
3585,0200;0,0276851
3585,9841;0,0273563
3586,9485;0,0268734
3587,9126;0,0264486
3588,8770;0,0262796
3589,8411;0,0263911
3590,8054;0,0266526
3591,7695;0,0268958
3592,7339;0,0270021
3593,6980;0,0269405
3594,6624;0,0267679
3595,6265;0,0265836
3596,5908;0,0264507
3597,5549;0,0263543
3598,5193;0,0262314
3599,4834;0,0260399
3600,4478;0,0258029
3601,4119;0,0255926
3602,3762;0,0254654
3603,3403;0,0254125
3604,3047;0,0253665
3605,2688;0,0252417
3606,2332;0,0249785
3607,1973;0,0245794
3608,1616;0,0241177
3609,1257;0,0237005
3610,0901;0,0234055
3611,0542;0,0232527
3612,0186;0,0232213
3612,9827;0,0232754
3613,9470;0,0233705
3614,9111;0,0234488
3615,8755;0,0234409
3616,8396;0,0232888
3617,8040;0,0229888
3618,7681;0,022637
3619,7324;0,0224171
3620,6965;0,0224868
3621,6609;0,0228567
3622,6250;0,0233916
3623,5894;0,0239023
3624,5535;0,0242221
3625,5178;0,0242304
3626,4819;0,0238539
3627,4463;0,0231036
3628,4104;0,0221721
3629,3748;0,021413
3630,3389;0,0210538
3631,3032;0,0210149
3632,2673;0,0210679
3633,2317;0,0210397
3634,1958;0,0208803
3635,1602;0,0206341
3636,1243;0,0203749
3637,0886;0,0201487
3638,0527;0,0199588
3639,0171;0,0197933
3639,9812;0,0196612
3640,9456;0,0195997
3641,9097;0,0196467
3642,8740;0,019806
3643,8381;0,0200337
3644,8025;0,0202498
3645,7666;0,0203422
3646,7310;0,0201477
3647,6951;0,0194853
3648,6594;0,0184046
3649,6235;0,0173889
3650,5879;0,0169143
3651,5520;0,0169754
3652,5164;0,0172628
3653,4805;0,0174833
3654,4448;0,0174832
3655,4089;0,0172616
3656,3733;0,0169429
3657,3374;0,0166926
3658,3018;0,0165996
3659,2659;0,0166353
3660,2302;0,0167196
3661,1943;0,0168069
3662,1587;0,016913
3663,1228;0,017078
3664,0872;0,017307
3665,0513;0,0175477
3666,0156;0,0177166
3666,9797;0,0177462
3667,9441;0,0176261
3668,9082;0,0174292
3669,8726;0,0172907
3670,8367;0,0173018
3671,8010;0,0174173
3672,7651;0,0174907
3673,7295;0,0173788
3674,6936;0,0170354
3675,6580;0,0165833
3676,6221;0,0162636
3677,5864;0,0162197
3678,5505;0,0163938
3679,5149;0,0166491
3680,4790;0,0169029
3681,4434;0,0171518
3682,4075;0,0174237
3683,3718;0,0177222
3684,3359;0,018007
3685,3003;0,0182162
3686,2644;0,0182987
3687,2288;0,0182315
3688,1929;0,0180306
3689,1572;0,0177767
3690,1213;0,0176076
3691,0857;0,0176159
3692,0498;0,0177816
3693,0142;0,018027
3693,9783;0,0182904
3694,9426;0,0185433
3695,9067;0,0187705
3696,8711;0,01895
3697,8352;0,0190513
3698,7996;0,0190513
3699,7637;0,018957
3700,7280;0,0188197
3701,6921;0,0187267
3702,6565;0,0187598
3703,6206;0,0189449
3704,5850;0,0192391
3705,5491;0,0195611
3706,5134;0,0198246
3707,4775;0,0199449
3708,4419;0,0198221
3709,4060;0,0193494
3710,3704;0,0185188
3711,3345;0,0175608
3712,2988;0,0168492
3713,2629;0,0166031
3714,2273;0,0167835
3715,1914;0,0172263
3716,1558;0,0177782
3717,1199;0,0183449
3718,0842;0,0188843
3719,0483;0,0193821
3720,0127;0,0198304
3720,9768;0,0202144
3721,9412;0,020512
3722,9053;0,0207037
3723,8696;0,0207912
3724,8337;0,0208111
3725,7981;0,0208246
3726,7622;0,0208822
3727,7266;0,0209935
3728,6907;0,0211319
3729,6550;0,02126
3730,6191;0,0213448
3731,5835;0,0213446
3732,5476;0,0211789
3733,5120;0,0207371
3734,4761;0,0200002
3735,4404;0,0191847
3736,4045;0,0186304
3737,3689;0,0185002
3738,3330;0,0186834
3739,2974;0,0189352
3740,2615;0,0190233
3741,2258;0,0188015
3742,1899;0,0182502
3743,1543;0,0175225
3744,1184;0,0169339
3745,0828;0,0167685
3746,0469;0,0170235
3747,0112;0,0174206
3747,9753;0,0176213
3748,9397;0,0173886
3749,9038;0,0167028
3750,8682;0,0158692
3751,8323;0,0153627
3752,7966;0,0153993
3753,7607;0,0158114
3754,7251;0,0162975
3755,6892;0,0166296
3756,6536;0,0167063
3757,6177;0,0165474
3758,5820;0,016275
3759,5461;0,016052
3760,5105;0,0159838
3761,4746;0,0160699
3762,4390;0,0162411
3763,4031;0,0164195
3764,3674;0,016551
3765,3315;0,0166046
3766,2959;0,0165622
3767,2600;0,0164131
3768,2244;0,0161651
3769,1885;0,0158658
3770,1528;0,0156074
3771,1169;0,0154895
3772,0813;0,0155593
3773,0454;0,0157819
3774,0098;0,0160648
3774,9739;0,0163053
3775,9382;0,0164277
3776,9023;0,0164049
3777,8667;0,0162696
3778,8308;0,0161061
3779,7952;0,016005
3780,7593;0,0160041
3781,7236;0,0160715
3782,6877;0,0161406
3783,6521;0,016155
3784,6162;0,0160957
3785,5806;0,0159853
3786,5447;0,0158741
3787,5090;0,0158141
3788,4731;0,0158366
3789,4375;0,0159413
3790,4016;0,016101
3791,3660;0,0162771
3792,3301;0,0164407
3793,2944;0,0165865
3794,2585;0,0167321
3795,2229;0,0168973
3796,1870;0,017075
3797,1514;0,0172163
3798,1155;0,0172458
3799,0798;0,0171058
3800,0439;0,0168107
3801,0083;0,0164745
3801,9724;0,0162462
3802,9368;0,0161787
3803,9009;0,0161798
3804,8652;0,016102
3805,8293;0,0158729
3806,7937;0,0155724
3807,7578;0,0153944
3808,7222;0,0154901
3809,6863;0,0158393
3810,6506;0,0162861
3811,6147;0,0166623
3812,5791;0,0168749
3813,5432;0,0169308
3814,5076;0,0169158
3815,4717;0,0169338
3816,4360;0,0170213
3817,4001;0,017105
3818,3645;0,0170521
3819,3286;0,0167773
3820,2930;0,0163397
3821,2571;0,015943
3822,2214;0,0157852
3823,1855;0,0158986
3824,1499;0,0161595
3825,1140;0,0164126
3826,0784;0,0165632
3827,0425;0,0166003
3828,0068;0,0165737
3828,9709;0,0165526
3829,9353;0,0165886
3830,8994;0,016699
3831,8638;0,0168691
3832,8279;0,0170621
3833,7922;0,0172292
3834,7563;0,0173189
3835,7207;0,01729
3836,6848;0,017129
3837,6492;0,0168707
3838,6133;0,0165948
3839,5776;0,0163777
3840,5417;0,0162379
3841,5061;0,0161416
3842,4702;0,0160603
3843,4346;0,0160167
3844,3987;0,0160788
3845,3630;0,0163081
3846,3271;0,016706
3847,2915;0,0172001
3848,2556;0,0176696
3849,2200;0,0179766
3850,1841;0,0179766
3851,1484;0,017522
3852,1125;0,0165531
3853,0769;0,0153609
3854,0410;0,0145837
3855,0054;0,0145753
3855,9695;0,0151279
3856,9338;0,0158566
3857,8979;0,0164955
3858,8623;0,0169321
3859,8264;0,0171533
3860,7908;0,0171956
3861,7549;0,0171168
3862,7192;0,0169871
3863,6833;0,0168811
3864,6477;0,0168493
3865,6118;0,0168915
3866,5762;0,0169633
3867,5403;0,0170066
3868,5046;0,0169744
3869,4688;0,0168444
3870,4331;0,0166328
3871,3972;0,0163997
3872,3616;0,0162256
3873,3257;0,0161691
3874,2900;0,016239
3875,2542;0,0163987
3876,2185;0,01659
3877,1826;0,0167592
3878,1470;0,0168758
3879,1111;0,0169358
3880,0754;0,0169518
3881,0396;0,016929
3882,0039;0,0168497
3882,9680;0,0166885
3883,9324;0,0164574
3884,8965;0,016234
3885,8608;0,0161264
3886,8250;0,0161882
3887,7893;0,016368
3888,7534;0,0165418
3889,7178;0,0165933
3890,6819;0,0164921
3891,6462;0,0163303
3892,6104;0,0162671
3893,5747;0,0163986
3894,5388;0,016691
3895,5032;0,0170332
3896,4673;0,0173212
3897,4316;0,0174985
3898,3958;0,0175534
3899,3601;0,0174985
3900,3242;0,0173475
3901,2886;0,0171039
3902,2527;0,0167755
3903,2170;0,0164055
3904,1812;0,0160792
3905,1455;0,0158768
3906,1096;0,0158202
3907,0740;0,0158702
3908,0381;0,0159697
3909,0024;0,0160817
3909,9666;0,0162009
3910,9309;0,0163395
3911,8950;0,0165028
3912,8594;0,0166715
3913,8235;0,0168032
3914,7878;0,0168512
3915,7520;0,0167932
3916,7163;0,0166578
3917,6804;0,0165214
3918,6448;0,0164634
3919,6089;0,0165096
3920,5732;0,016618
3921,5374;0,0167127
3922,5017;0,0167347
3923,4658;0,0166785
3924,4302;0,016598
3925,3943;0,0165688
3926,3586;0,0166319
3927,3228;0,0167651
3928,2871;0,0168991
3929,2512;0,0169569
3930,2156;0,0168927
3931,1797;0,0167175
3932,1440;0,0164977
3933,1082;0,0163162
3934,0725;0,0162255
3935,0366;0,016232
3936,0010;0,0163124
3936,9651;0,0164356
3937,9294;0,0165714
3938,8936;0,0166899
3939,8579;0,0167638
3940,8220;0,016778
3941,7864;0,0167431
3942,7505;0,0166958
3943,7148;0,0166779
3944,6790;0,0167054
3945,6433;0,0167577
3946,6074;0,016792
3947,5718;0,0167711
3948,5359;0,0166886
3949,5002;0,0165734
3950,4644;0,0164705
3951,4287;0,0164106
3952,3928;0,0163953
3953,3572;0,0164065
3954,3213;0,0164248
3955,2856;0,016442
3956,2498;0,0164599
3957,2141;0,016482
3958,1782;0,0165052
3959,1426;0,0165199
3960,1067;0,0165159
3961,0710;0,01649
3962,0352;0,0164487
3962,9995;0,0164048
3963,9636;0,0163703
3964,9280;0,0163528
3965,8921;0,0163547
3966,8564;0,0163761
3967,8206;0,0164147
3968,7849;0,0164654
3969,7490;0,0165192
3970,7134;0,0165636
3971,6775;0,0165869
3972,6418;0,0165826
3973,6060;0,0165526
3974,5703;0,016507
3975,5344;0,0164601
3976,4988;0,0164241
3977,4629;0,0164053
3978,4272;0,0164026
3979,3914;0,0164104
3980,3557;0,0164221
3981,3198;0,0164328
3982,2842;0,0164412
3983,2483;0,0164478
3984,2126;0,016454
3985,1768;0,0164595
3986,1411;0,016463
3987,1052;0,0164631
3988,0696;0,0164603
3989,0337;0,0164579
3989,9980;0,0164601
3990,9622;0,0164692
3991,9265;0,0164827
3992,8906;0,0164938
3993,8550;0,0164953
3994,8191;0,0164841
3995,7834;0,0164639
3996,7476;0,0164427
3997,7119;0,0164282
3998,6760;0,0164234
3999,6404;0,0164261
4000,6045;0,0165798

##### Extended Information
[Comments]
Sample name
Comment
Username
Division
Organization;UNIVERSIDAD INDUSTRIAL DE SANTANDER

[Detailed Information]
Creation date;17/03/2025 2:14 p.m.

Data array type;Linear data array
Horizontal axis;Wavenumber [cm-1]
Vertical axis;Abs
Start;399,193 cm-1
End;4000,6 cm-1
Data interval;0,964233 cm-1
Data points;3736    

[Measurement Information]
Model name;FT/IR-4X1typeA
Serial No.;A035162111

Accessory;ATR PRO 4X
Accessory S/N;A021162126
Incident angle;45 deg

Measurement date;17/03/2025 2:13 p.m.

Light source;Standard
Detector;TGS
Accumulation;40
Resolution;4 cm-1
Zero filling;On
Apodization;Cosine
Gain;Auto (8)
Aperture;Auto (7 mm)
Scan speed;Auto (2 mm/sec)
Filter;Auto (12800 Hz)

