TITLE;
DATA TYPE;INFRARED SPECTRUM
ORIGIN;JASCO
OWNER;
DATE;25/03/17
TIME;14:20:57
SPECTROMETER/DATA SYSTEM;
LOCALE;9226
RESOLUTION;
DELTAX;0,964233
XUNITS;1/CM
YUNITS;ABSORBANCE
FIRSTX;  399,1927
LASTX; 4000,6047
NPOINTS;    3736
FIRSTY;     0,15027
MAXY;     0,18650
MINY;     0,01129
XYDATA
399,1927;0,150272
400,1569;0,149558
401,1211;0,148173
402,0854;0,146501
403,0496;0,144883
404,0138;0,14358
404,9781;0,142735
405,9423;0,142329
406,9065;0,142192
407,8708;0,142114
408,8350;0,141992
409,7992;0,141896
410,7635;0,142023
411,7277;0,142548
412,6919;0,143496
413,6562;0,144721
414,6204;0,145989
415,5846;0,147037
416,5489;0,147583
417,5131;0,147384
418,4773;0,146489
419,4416;0,145483
420,4058;0,145102
421,3700;0,145583
422,3343;0,146654
423,2985;0,147901
424,2627;0,148969
425,2270;0,149633
426,1912;0,14983
427,1554;0,149655
428,1197;0,149287
429,0839;0,148905
430,0481;0,148652
431,0124;0,148613
431,9766;0,148806
432,9408;0,149158
433,9051;0,149521
434,8693;0,149712
435,8335;0,149603
436,7978;0,14918
437,7620;0,148528
438,7262;0,147766
439,6905;0,146982
440,6547;0,146219
441,6189;0,145513
442,5832;0,14492
443,5474;0,144507
444,5116;0,144311
445,4759;0,144299
446,4401;0,144369
447,4043;0,144389
448,3686;0,14423
449,3328;0,143799
450,2970;0,14308
451,2613;0,142171
452,2255;0,141273
453,1897;0,140613
454,1540;0,140338
455,1182;0,140421
456,0824;0,140639
457,0467;0,14066
458,0109;0,140256
458,9751;0,139492
459,9394;0,138677
460,9036;0,138099
461,8678;0,137825
462,8321;0,13771
463,7963;0,13754
464,7605;0,137188
465,7248;0,136713
466,6890;0,136326
467,6532;0,136234
468,6175;0,136482
469,5817;0,136923
470,5459;0,137306
471,5102;0,137444
472,4744;0,137352
473,4386;0,137232
474,4029;0,137299
475,3671;0,137614
476,3313;0,138069
477,2956;0,138493
478,2598;0,138759
479,2240;0,138844
480,1883;0,138813
481,1525;0,138769
482,1167;0,138792
483,0810;0,138919
484,0452;0,139155
485,0094;0,139494
485,9737;0,139927
486,9379;0,140434
487,9021;0,140978
488,8664;0,1415
489,8306;0,14193
490,7948;0,142203
491,7591;0,142288
492,7233;0,142214
493,6875;0,142073
494,6518;0,141981
495,6160;0,142035
496,5802;0,142275
497,5445;0,142674
498,5087;0,14317
499,4729;0,1437
500,4372;0,144238
501,4014;0,14479
502,3656;0,145376
503,3299;0,145981
504,2941;0,146546
505,2583;0,146985
506,2226;0,147242
507,1868;0,147331
508,1510;0,147348
509,1153;0,147434
510,0795;0,147715
511,0437;0,148244
512,0080;0,148986
512,9722;0,149847
513,9365;0,150712
514,9007;0,151487
515,8649;0,152107
516,8292;0,152542
517,7934;0,152779
518,7576;0,152824
519,7219;0,152702
520,6861;0,152468
521,6503;0,152201
522,6146;0,151991
523,5788;0,151917
524,5430;0,152013
525,5073;0,152239
526,4715;0,15248
527,4357;0,152602
528,4000;0,152525
529,3642;0,152257
530,3284;0,151877
531,2927;0,151492
532,2569;0,151189
533,2211;0,151015
534,1854;0,150962
535,1496;0,150981
536,1138;0,151011
537,0781;0,151005
538,0423;0,150949
539,0065;0,150867
539,9708;0,150804
540,9350;0,150802
541,8992;0,150887
542,8635;0,151056
543,8277;0,151288
544,7919;0,151561
545,7562;0,151876
546,7204;0,152253
547,6846;0,152714
548,6489;0,153254
549,6131;0,153824
550,5773;0,154352
551,5416;0,154789
552,5058;0,155146
553,4700;0,155503
554,4343;0,155954
555,3985;0,156528
556,3627;0,157136
557,3270;0,157578
558,2912;0,157631
559,2554;0,15717
560,2197;0,156234
561,1839;0,155014
562,1481;0,153763
563,1124;0,152682
564,0766;0,151855
565,0408;0,151251
566,0051;0,150782
566,9693;0,150361
567,9335;0,149946
568,8978;0,149532
569,8620;0,149139
570,8262;0,148786
571,7905;0,14849
572,7547;0,148262
573,7189;0,14811
574,6832;0,148027
575,6474;0,147988
576,6116;0,147954
577,5759;0,14788
578,5401;0,14774
579,5043;0,147527
580,4686;0,147262
581,4328;0,146979
582,3970;0,146721
583,3613;0,146527
584,3255;0,14642
585,2897;0,146396
586,2540;0,146426
587,2182;0,146463
588,1824;0,146466
589,1467;0,146408
590,1109;0,146285
591,0751;0,146112
592,0394;0,145909
593,0036;0,145698
593,9678;0,145489
594,9321;0,145285
595,8963;0,145074
596,8605;0,144837
597,8248;0,144549
598,7890;0,144194
599,7532;0,143778
600,7175;0,143332
601,6817;0,142899
602,6459;0,142509
603,6102;0,142165
604,5744;0,141838
605,5386;0,141491
606,5029;0,141102
607,4671;0,140679
608,4313;0,140254
609,3956;0,139849
610,3598;0,139461
611,3240;0,139055
612,2883;0,138589
613,2525;0,138043
614,2167;0,137434
615,1810;0,136807
616,1452;0,136197
617,1094;0,135602
618,0737;0,13497
619,0379;0,134235
620,0021;0,133359
620,9664;0,132355
621,9306;0,131285
622,8948;0,130229
623,8591;0,129263
624,8233;0,12844
625,7875;0,12776
626,7518;0,127205
627,7160;0,126741
628,6802;0,126326
629,6445;0,125908
630,6087;0,125436
631,5729;0,124874
632,5372;0,124213
633,5014;0,123486
634,4656;0,122759
635,4299;0,122098
636,3941;0,121545
637,3583;0,121094
638,3226;0,120698
639,2868;0,120296
640,2510;0,119837
641,2153;0,119299
642,1795;0,1187
643,1437;0,118079
644,1080;0,117489
645,0722;0,116967
646,0364;0,11653
647,0007;0,116169
647,9649;0,115863
648,9291;0,1156
649,8934;0,115382
650,8576;0,115235
651,8218;0,115182
652,7861;0,115228
653,7503;0,115361
654,7145;0,115557
655,6788;0,115803
656,6430;0,116106
657,6072;0,116477
658,5715;0,116901
659,5357;0,117312
660,4999;0,117617
661,4642;0,11775
662,4284;0,117737
663,3926;0,117671
664,3569;0,117642
665,3211;0,117642
666,2853;0,117507
667,2496;0,116949
668,2138;0,115825
669,1780;0,114403
670,1423;0,113065
671,1065;0,111906
672,0707;0,110833
673,0350;0,109726
673,9992;0,108495
674,9634;0,107119
675,9277;0,105665
676,8919;0,104253
677,8561;0,102968
678,8204;0,10182
679,7846;0,100772
680,7488;0,0997955
681,7131;0,0988945
682,6773;0,0980958
683,6415;0,0974227
684,6058;0,0968831
685,5700;0,09647
686,5342;0,0961661
687,4985;0,0959438
688,4627;0,095766
689,4269;0,0955975
690,3912;0,0954144
691,3554;0,095211
692,3196;0,0949973
693,2839;0,0947876
694,2481;0,094589
695,2123;0,0943952
696,1766;0,0941908
697,1408;0,0939616
698,1050;0,0937042
699,0693;0,0934289
700,0335;0,0931529
700,9977;0,0928872
701,9620;0,0926281
702,9262;0,0923563
703,8904;0,0920507
704,8547;0,0916952
705,8189;0,0912916
706,7831;0,0908575
707,7474;0,0904155
708,7116;0,0899796
709,6758;0,0895489
710,6401;0,0891093
711,6043;0,0886421
712,5685;0,088133
713,5328;0,087578
714,4970;0,0869824
715,4612;0,0865287
716,4255;0,0858358
717,3897;0,0850985
718,3539;0,0843217
719,3182;0,0835211
720,2824;0,0827229
721,2466;0,0819553
722,2109;0,0812351
723,1751;0,0805603
724,1393;0,0799132
725,1036;0,0792716
726,0678;0,0786204
727,0320;0,0779595
727,9963;0,0773035
728,9605;0,0766745
729,9247;0,0760908
730,8890;0,0755589
731,8532;0,075072
732,8174;0,0746151
733,7817;0,0741742
734,7459;0,0737431
735,7101;0,0733254
736,6744;0,0729299
737,6386;0,0725621
738,6028;0,072219
739,5671;0,0718895
740,5313;0,07156
741,4955;0,0712217
742,4598;0,0708737
743,4240;0,0705202
744,3882;0,0701659
745,3525;0,0698127
746,3167;0,0694603
747,2809;0,0691082
748,2452;0,0687558
749,2094;0,0684004
750,1736;0,0680357
751,1379;0,0676537
752,1021;0,0672508
753,0663;0,0668329
754,0306;0,0664165
754,9948;0,0660229
755,9590;0,0656686
756,9233;0,0653591
757,8875;0,0650883
758,8517;0,0648439
759,8160;0,0646135
760,7802;0,0643894
761,7444;0,0641682
762,7087;0,0639479
763,6729;0,0637252
764,6371;0,0634951
765,6014;0,0632531
766,5656;0,0629986
767,5298;0,0627378
768,4941;0,0624817
769,4583;0,0622411
770,4225;0,06202
771,3868;0,0618123
772,3510;0,0616045
773,3152;0,0613837
774,2795;0,0611456
775,2437;0,060897
776,2079;0,0606499
777,1722;0,0604126
778,1364;0,0601835
779,1006;0,0599541
780,0649;0,0597179
781,0291;0,0594782
781,9933;0,059248
782,9576;0,05904
783,9218;0,0588555
784,8860;0,0586797
785,8503;0,0584884
786,8145;0,0582625
787,7787;0,0579998
788,7430;0,0577163
789,7072;0,0574363
790,6714;0,0571799
791,6357;0,0569542
792,5999;0,0567556
793,5641;0,0565764
794,5284;0,0564126
795,4926;0,056264
796,4568;0,0561308
797,4211;0,0560086
798,3853;0,0558877
799,3495;0,0557559
800,3138;0,0556046
801,2780;0,0554321
802,2422;0,055245
803,2065;0,0550559
804,1707;0,05488
805,1349;0,0547302
806,0992;0,0546123
807,0634;0,054521
808,0276;0,0544421
808,9919;0,0543576
809,9561;0,0542555
810,9203;0,0541367
811,8846;0,0540149
812,8488;0,0539089
813,8130;0,0538317
814,7773;0,0537831
815,7415;0,0537498
816,7057;0,0537128
817,6700;0,0536564
818,6342;0,0535752
819,5984;0,053474
820,5627;0,0533649
821,5269;0,0532619
822,4911;0,0531759
823,4554;0,0531116
824,4196;0,0530656
825,3839;0,0530283
826,3481;0,0529882
827,3123;0,0529379
828,2766;0,0528761
829,2408;0,0528062
830,2050;0,052729
831,1693;0,0526389
832,1335;0,0525247
833,0977;0,0523767
834,0620;0,0521943
835,0262;0,0519874
835,9904;0,0517715
836,9547;0,051559
837,9189;0,0513552
838,8831;0,0511615
839,8474;0,0509816
840,8116;0,0508245
841,7758;0,0506996
842,7401;0,0506087
843,7043;0,0505412
844,6685;0,0504776
845,6328;0,0503998
846,5970;0,0503
847,5612;0,0501818
848,5255;0,0500555
849,4897;0,0499303
850,4539;0,0498122
851,4182;0,0497054
852,3824;0,0496159
853,3466;0,0495493
854,3109;0,0495069
855,2751;0,0494811
856,2393;0,0494575
857,2036;0,0494228
858,1678;0,0493741
859,1320;0,049322
860,0963;0,0492862
861,0605;0,0492855
862,0247;0,0493296
862,9890;0,0494166
863,9532;0,0495366
864,9174;0,0496778
865,8817;0,0498305
866,8459;0,0499891
867,8101;0,0501512
868,7744;0,050317
869,7386;0,0504889
870,7028;0,0506702
871,6671;0,0508626
872,6313;0,0510626
873,5955;0,0512602
874,5598;0,0514413
875,5240;0,0515933
876,4882;0,0517125
877,4525;0,0518075
878,4167;0,0518988
879,3809;0,052013
880,3452;0,052175
881,3094;0,0524025
882,2736;0,052703
883,2379;0,053075
884,2021;0,0535122
885,1663;0,0540076
886,1306;0,0545568
887,0948;0,0551579
888,0590;0,0558099
889,0233;0,056508
889,9875;0,0572398
890,9517;0,0579833
891,9160;0,0587087
892,8802;0,0593821
893,8444;0,0599708
894,8087;0,0604479
895,7729;0,0607944
896,7371;0,0610005
897,7014;0,061065
898,6656;0,0609943
899,6298;0,0608009
900,5941;0,0605021
901,5583;0,0601191
902,5225;0,0596757
903,4868;0,0591979
904,4510;0,058712
905,4152;0,0582431
906,3795;0,0578124
907,3437;0,0574365
908,3079;0,0571273
909,2722;0,0568917
910,2364;0,0567324
911,2007;0,0566466
912,1649;0,0566262
913,1292;0,0566607
914,0934;0,0567399
915,0576;0,0568584
916,0219;0,0570146
916,9861;0,0572071
917,9503;0,0574298
918,9146;0,0576695
919,8788;0,0579101
920,8430;0,0581389
921,8073;0,0583523
922,7715;0,0585552
923,7357;0,0587555
924,7000;0,0589574
925,6642;0,0591581
926,6284;0,0593502
927,5927;0,0595272
928,5569;0,0596861
929,5211;0,0598278
930,4854;0,0599548
931,4496;0,0600701
932,4138;0,0601786
933,3781;0,0602897
934,3423;0,0604172
935,3065;0,0605762
936,2708;0,0607767
937,2350;0,0610213
938,1992;0,0613065
939,1635;0,0616275
940,1277;0,0619842
941,0919;0,0623813
942,0562;0,0628257
943,0204;0,0633215
943,9846;0,0638675
944,9489;0,0644591
945,9131;0,0650922
946,8773;0,0657672
947,8416;0,0664892
948,8058;0,0672651
949,7700;0,0681003
950,7343;0,0689957
951,6985;0,0699479
952,6627;0,0709504
953,6270;0,0719969
954,5912;0,0730836
955,5554;0,0742109
956,5197;0,075383
957,4839;0,0766054
958,4481;0,0778819
959,4124;0,0792109
960,3766;0,0805858
961,3408;0,0819971
962,3051;0,0834372
963,2693;0,0849023
964,2335;0,0863922
965,1978;0,0879075
966,1620;0,0894475
967,1262;0,0910129
968,0905;0,0926111
969,0547;0,0942618
970,0189;0,0959972
970,9832;0,0978565
971,9474;0,099877
972,9116;0,102086
973,8759;0,104498
974,8401;0,107119
975,8043;0,109943
976,7686;0,112958
977,7328;0,116135
978,6970;0,119421
979,6613;0,122737
980,6255;0,125985
981,5897;0,129057
982,5540;0,131857
983,5182;0,134324
984,4824;0,13644
985,4467;0,138236
986,4109;0,139778
987,3751;0,141142
988,3394;0,142394
989,3036;0,143568
990,2678;0,144666
991,2321;0,14567
992,1963;0,146565
993,1605;0,147345
994,1248;0,148027
995,0890;0,148637
996,0532;0,149198
997,0175;0,149719
997,9817;0,150197
998,9459;0,150628
999,9102;0,151019
1000,8744;0,151394
1001,8386;0,151797
1002,8029;0,152276
1003,7671;0,152872
1004,7313;0,153614
1005,6956;0,154521
1006,6598;0,1556
1007,6240;0,156858
1008,5883;0,158294
1009,5525;0,159899
1010,5167;0,161645
1011,4810;0,163487
1012,4452;0,165367
1013,4094;0,167229
1014,3737;0,169027
1015,3379;0,170736
1016,3021;0,172346
1017,2664;0,173853
1018,2306;0,175257
1019,1948;0,176555
1020,1591;0,177749
1021,1233;0,178853
1022,0875;0,179891
1023,0518;0,18089
1024,0160;0,181869
1024,9802;0,182828
1025,9445;0,183752
1026,9087;0,184609
1027,8729;0,185361
1028,8372;0,185965
1029,8014;0,186367
1030,7656;0,186504
1031,7299;0,186304
1032,6941;0,1857
1033,6583;0,18466
1034,6226;0,183199
1035,5868;0,181395
1036,5510;0,179378
1037,5153;0,17731
1038,4795;0,175352
1039,4437;0,173643
1040,4080;0,172276
1041,3722;0,171287
1042,3364;0,17066
1043,3007;0,170333
1044,2649;0,17022
1045,2291;0,170227
1046,1934;0,170271
1047,1576;0,170292
1048,1218;0,170248
1049,0861;0,170106
1050,0503;0,169832
1051,0145;0,16939
1051,9788;0,168748
1052,9430;0,167895
1053,9072;0,166836
1054,8715;0,165588
1055,8357;0,164153
1056,7999;0,162505
1057,7642;0,160587
1058,7284;0,158335
1059,6926;0,155723
1060,6569;0,152785
1061,6211;0,149627
1062,5853;0,146394
1063,5496;0,14323
1064,5138;0,140242
1065,4780;0,137483
1066,4423;0,134961
1067,4065;0,132653
1068,3707;0,13053
1069,3350;0,128564
1070,2992;0,126721
1071,2634;0,124967
1072,2277;0,123257
1073,1919;0,121543
1074,1561;0,119783
1075,1204;0,117953
1076,0846;0,116053
1077,0488;0,114114
1078,0131;0,112188
1078,9773;0,11034
1079,9415;0,108632
1080,9058;0,107108
1081,8700;0,10579
1082,8342;0,104678
1083,7985;0,103756
1084,7627;0,103
1085,7269;0,102381
1086,6912;0,101878
1087,6554;0,101473
1088,6196;0,101156
1089,5839;0,100929
1090,5481;0,100797
1091,5123;0,100765
1092,4766;0,100831
1093,4408;0,100985
1094,4050;0,101208
1095,3693;0,101477
1096,3335;0,101778
1097,2977;0,102102
1098,2620;0,102446
1099,2262;0,102801
1100,1904;0,103145
1101,1547;0,103443
1102,1189;0,103658
1103,0831;0,10376
1104,0474;0,103741
1105,0116;0,103613
1105,9758;0,103401
1106,9401;0,103129
1107,9043;0,102803
1108,8685;0,102406
1109,8328;0,101894
1110,7970;0,101211
1111,7612;0,100302
1112,7255;0,0991418
1113,6897;0,097752
1114,6539;0,0962037
1115,6182;0,0946041
1116,5824;0,0930654
1117,5466;0,0916716
1118,5109;0,0904557
1119,4751;0,0893954
1120,4393;0,0884259
1121,4036;0,0874627
1122,3678;0,0864251
1123,3320;0,085254
1124,2963;0,0839224
1125,2605;0,082437
1126,2247;0,0808323
1127,1890;0,0791588
1128,1532;0,0774675
1129,1174;0,0757974
1130,0817;0,074169
1131,0459;0,072588
1132,0101;0,0710547
1132,9744;0,0695745
1133,9386;0,0681648
1134,9028;0,0668558
1135,8671;0,0656857
1136,8313;0,0646938
1137,7955;0,0639128
1138,7598;0,0633618
1139,7240;0,0630417
1140,6882;0,0629335
1141,6525;0,0630005
1142,6167;0,0631966
1143,5809;0,063477
1144,5452;0,0638097
1145,5094;0,0641813
1146,4736;0,0645958
1147,4379;0,0650668
1148,4021;0,0656053
1149,3663;0,0662119
1150,3306;0,0668738
1151,2948;0,0675686
1152,2590;0,068271
1153,2233;0,0689574
1154,1875;0,0696057
1155,1517;0,0701908
1156,1160;0,0706777
1157,0802;0,071019
1158,0444;0,0711556
1159,0087;0,0710234
1159,9729;0,070562
1160,9371;0,0697241
1161,9014;0,0684835
1162,8656;0,0668429
1163,8298;0,0648381
1164,7941;0,0625389
1165,7583;0,0600431
1166,7225;0,0574646
1167,6868;0,0549161
1168,6510;0,0524925
1169,6152;0,0502588
1170,5795;0,0482476
1171,5437;0,0464645
1172,5079;0,0448977
1173,4722;0,0435284
1174,4364;0,0423372
1175,4006;0,0413063
1176,3649;0,0404203
1177,3291;0,0396646
1178,2933;0,0390249
1179,2576;0,0384864
1180,2218;0,0380337
1181,1860;0,0376523
1182,1503;0,0373301
1183,1145;0,0370603
1184,0787;0,0368425
1185,0430;0,0366811
1186,0072;0,0365833
1186,9714;0,0365561
1187,9357;0,0366053
1188,8999;0,0367347
1189,8641;0,0369454
1190,8284;0,0372338
1191,7926;0,0375912
1192,7568;0,0380038
1193,7211;0,0384568
1194,6853;0,0389381
1195,6495;0,03944
1196,6138;0,0399569
1197,5780;0,0404813
1198,5422;0,0410008
1199,5065;0,0415022
1200,4707;0,0419632
1201,4349;0,042377
1202,3992;0,0427395
1203,3634;0,0430509
1204,3276;0,0433123
1205,2919;0,0435245
1206,2561;0,04369
1207,2203;0,0438167
1208,1846;0,0439214
1209,1488;0,044029
1210,1130;0,04417
1211,0773;0,0443737
1212,0415;0,044662
1213,0057;0,0450443
1213,9700;0,0455148
1214,9342;0,0460554
1215,8984;0,0466411
1216,8627;0,0472481
1217,8269;0,0478599
1218,7911;0,0484696
1219,7554;0,0490777
1220,7196;0,049687
1221,6838;0,050297
1222,6481;0,0509017
1223,6123;0,0514904
1224,5765;0,0520517
1225,5408;0,0525773
1226,5050;0,0530649
1227,4692;0,053518
1228,4335;0,0539432
1229,3977;0,0543464
1230,3619;0,0547287
1231,3262;0,0550847
1232,2904;0,0554042
1233,2546;0,0556765
1234,2189;0,055896
1235,1831;0,0560653
1236,1473;0,0561941
1237,1116;0,0562949
1238,0758;0,0563765
1239,0400;0,0564417
1240,0043;0,0564868
1240,9685;0,0565062
1241,9327;0,0564954
1242,8970;0,0564523
1243,8612;0,0563765
1244,8254;0,0562682
1245,7897;0,0561272
1246,7539;0,0559545
1247,7181;0,0557527
1248,6824;0,0555259
1249,6466;0,0552793
1250,6108;0,0550178
1251,5751;0,0547476
1252,5393;0,0544766
1253,5035;0,0542137
1254,4678;0,0539659
1255,4320;0,0537349
1256,3962;0,0535162
1257,3605;0,0533003
1258,3247;0,053078
1259,2889;0,0528423
1260,2532;0,0525894
1261,2174;0,0523163
1262,1816;0,0520194
1263,1459;0,0516949
1264,1101;0,0513419
1265,0743;0,0509645
1266,0386;0,0505702
1267,0028;0,0501665
1267,9670;0,0497577
1268,9313;0,0493441
1269,8955;0,0489254
1270,8597;0,0485026
1271,8240;0,0480796
1272,7882;0,0476609
1273,7524;0,0472495
1274,7167;0,0468468
1275,6809;0,0464537
1276,6451;0,0460716
1277,6094;0,0457013
1278,5736;0,0453398
1279,5378;0,0449797
1280,5021;0,0446116
1281,4663;0,0442296
1282,4305;0,0438364
1283,3948;0,0434429
1284,3590;0,0430642
1285,3232;0,0427134
1286,2875;0,0423985
1287,2517;0,0421236
1288,2159;0,0418917
1289,1802;0,0417076
1290,1444;0,0415766
1291,1086;0,0415013
1292,0729;0,0414806
1293,0371;0,0415101
1294,0013;0,0415863
1294,9656;0,0417091
1295,9298;0,0418828
1296,8940;0,042114
1297,8583;0,0424078
1298,8225;0,0427652
1299,7867;0,0431813
1300,7510;0,0436462
1301,7152;0,0441476
1302,6794;0,0446749
1303,6437;0,0452224
1304,6079;0,0457907
1305,5721;0,0463841
1306,5364;0,0470051
1307,5006;0,04765
1308,4648;0,0483073
1309,4291;0,0489604
1310,3933;0,0495915
1311,3575;0,0501848
1312,3218;0,0507255
1313,2860;0,0511978
1314,2502;0,0515823
1315,2145;0,051857
1316,1787;0,052002
1317,1429;0,0520076
1318,1072;0,0518826
1319,0714;0,0516561
1320,0356;0,0513705
1320,9999;0,0510657
1321,9641;0,0507693
1322,9283;0,0504957
1323,8926;0,0502534
1324,8568;0,0500509
1325,8210;0,0498969
1326,7853;0,0497953
1327,7495;0,0497402
1328,7137;0,0497165
1329,6780;0,0497039
1330,6422;0,0496826
1331,6064;0,0496359
1332,5707;0,0495507
1333,5349;0,0494144
1334,4991;0,0492128
1335,4634;0,0489295
1336,4276;0,0485507
1337,3918;0,0480769
1338,3561;0,0475359
1339,3203;0,0469842
1340,2845;0,0464824
1341,2488;0,0460629
1342,2130;0,0457212
1343,1772;0,0454339
1344,1415;0,0451804
1345,1057;0,044955
1346,0699;0,0447672
1347,0342;0,0446353
1347,9984;0,0445768
1348,9626;0,0446008
1349,9269;0,0447043
1350,8911;0,0448742
1351,8553;0,0450924
1352,8196;0,045342
1353,7838;0,0456131
1354,7480;0,0459048
1355,7123;0,0462205
1356,6765;0,0465615
1357,6407;0,0469211
1358,6050;0,0472853
1359,5692;0,0476375
1360,5334;0,0479644
1361,4977;0,0482625
1362,4619;0,0485393
1363,4261;0,048807
1364,3904;0,049072
1365,3546;0,0493313
1366,3188;0,0495745
1367,2831;0,0497875
1368,2473;0,0499552
1369,2115;0,0500617
1370,1758;0,0500899
1371,1400;0,0500198
1372,1042;0,0498319
1373,0685;0,0495184
1374,0327;0,0490991
1374,9969;0,0486202
1375,9612;0,0481264
1376,9254;0,0476284
1377,8896;0,047102
1378,8539;0,0465157
1379,8181;0,0458627
1380,7823;0,0451727
1381,7466;0,0444932
1382,7108;0,0438535
1383,6750;0,0432425
1384,6393;0,0426198
1385,6035;0,0419543
1386,5677;0,0412698
1387,5320;0,0406511
1388,4962;0,0401844
1389,4604;0,0398909
1390,4247;0,0397259
1391,3889;0,0396212
1392,3531;0,0395214
1393,3174;0,0393997
1394,2816;0,0392636
1395,2458;0,0391471
1396,2101;0,0390873
1397,1743;0,0391026
1398,1385;0,0391878
1399,1028;0,0393257
1400,0670;0,0394977
1401,0313;0,039688
1401,9955;0,0398848
1402,9597;0,0400818
1403,9240;0,0402801
1404,8882;0,040489
1405,8524;0,0407202
1406,8167;0,0409802
1407,7809;0,0412676
1408,7451;0,0415789
1409,7094;0,0419145
1410,6736;0,0422792
1411,6378;0,042676
1412,6021;0,0430991
1413,5663;0,0435342
1414,5305;0,0439634
1415,4948;0,0443698
1416,4590;0,0447388
1417,4232;0,045062
1418,3875;0,0453433
1419,3517;0,0455945
1420,3159;0,0458192
1421,2802;0,046004
1422,2444;0,0461278
1423,2086;0,0461741
1424,1729;0,0461382
1425,1371;0,0460248
1426,1013;0,0458341
1427,0656;0,0455497
1428,0298;0,0451464
1428,9940;0,0446214
1429,9583;0,0440244
1430,9225;0,0434416
1431,8867;0,0429348
1432,8510;0,042495
1433,8152;0,042049
1434,7794;0,0415086
1435,7437;0,0408484
1436,7079;0,0401654
1437,6721;0,0396196
1438,6364;0,0392901
1439,6006;0,0391386
1440,5648;0,0390874
1441,5291;0,0390816
1442,4933;0,0391004
1443,4575;0,0391441
1444,4218;0,0392166
1445,3860;0,0393135
1446,3502;0,039422
1447,3145;0,0395305
1448,2787;0,0396382
1449,2429;0,0397555
1450,2072;0,0398934
1451,1714;0,0400541
1452,1356;0,0402268
1453,0999;0,0403817
1454,0641;0,0404577
1455,0283;0,0403531
1455,9926;0,0399705
1456,9568;0,0393758
1457,9210;0,0388526
1458,8853;0,0385953
1459,8495;0,0385471
1460,8137;0,0385654
1461,7780;0,0385237
1462,7422;0,0383127
1463,7064;0,0378557
1464,6707;0,0371731
1465,6349;0,0364079
1466,5991;0,0357192
1467,5634;0,0351567
1468,5276;0,0346542
1469,4918;0,0340856
1470,4561;0,0333059
1471,4203;0,0322093
1472,3845;0,0308447
1473,3488;0,0294787
1474,3130;0,0283979
1475,2772;0,0276649
1476,2415;0,0271681
1477,2057;0,0267848
1478,1699;0,0264437
1479,1342;0,0261143
1480,0984;0,0257898
1481,0626;0,0254796
1482,0269;0,0252046
1482,9911;0,0249867
1483,9553;0,0248342
1484,9196;0,0247315
1485,8838;0,0246405
1486,8480;0,0245158
1487,8123;0,024341
1488,7765;0,0241714
1489,7407;0,0241142
1490,7050;0,0242273
1491,6692;0,0244781
1492,6334;0,0248013
1493,5977;0,0251459
1494,5619;0,025479
1495,5261;0,0257821
1496,4904;0,0260595
1497,4546;0,0263477
1498,4188;0,0266907
1499,3831;0,027101
1500,3473;0,0275571
1501,3115;0,0280303
1502,2758;0,0284918
1503,2400;0,0289001
1504,2042;0,0291746
1505,1685;0,0291746
1506,1327;0,0287674
1507,0969;0,0280758
1508,0612;0,0275029
1509,0254;0,0272397
1509,9896;0,0271753
1510,9539;0,02717
1511,9181;0,0271414
1512,8823;0,0270395
1513,8466;0,0268317
1514,8108;0,0265117
1515,7750;0,0261117
1516,7393;0,0256897
1517,7035;0,02529
1518,6677;0,0249137
1519,6320;0,024531
1520,5962;0,0241266
1521,5604;0,0237312
1522,5247;0,0233993
1523,4889;0,0231596
1524,4531;0,0230037
1525,4174;0,0229131
1526,3816;0,0228821
1527,3458;0,0229138
1528,3101;0,0230031
1529,2743;0,0231269
1530,2385;0,0232496
1531,2028;0,0233385
1532,1670;0,0233886
1533,1312;0,0234392
1534,0955;0,0235514
1535,0597;0,023754
1536,0239;0,0240235
1536,9882;0,0242983
1537,9524;0,0244852
1538,9166;0,0244666
1539,8809;0,024183
1540,8451;0,023802
1541,8093;0,0236207
1542,7736;0,0237003
1543,7378;0,0239084
1544,7020;0,0241401
1545,6663;0,0243578
1546,6305;0,0245562
1547,5947;0,0247349
1548,5590;0,0248886
1549,5232;0,02501
1550,4874;0,0251014
1551,4517;0,0251846
1552,4159;0,0252953
1553,3801;0,0254607
1554,3444;0,0256763
1555,3086;0,0258914
1556,2728;0,0259945
1557,2371;0,0258351
1558,2013;0,025398
1559,1655;0,0249967
1560,1298;0,0249158
1561,0940;0,0250927
1562,0582;0,025379
1563,0225;0,0256968
1563,9867;0,026013
1564,9509;0,0263042
1565,9152;0,0265463
1566,8794;0,0267241
1567,8436;0,0268515
1568,8079;0,0269828
1569,7721;0,0271815
1570,7363;0,0274696
1571,7006;0,0278199
1572,6648;0,028187
1573,6290;0,0285303
1574,5933;0,0288248
1575,5575;0,0290799
1576,5217;0,0293499
1577,4860;0,0296909
1578,4502;0,0301117
1579,4144;0,0305893
1580,3787;0,0311015
1581,3429;0,0316326
1582,3071;0,03217
1583,2714;0,0327054
1584,2356;0,0332379
1585,1998;0,0337721
1586,1641;0,0343098
1587,1283;0,0348423
1588,0925;0,0353508
1589,0568;0,0358148
1590,0210;0,0362201
1590,9852;0,0365604
1591,9495;0,0368318
1592,9137;0,0370276
1593,8779;0,0371415
1594,8422;0,0371746
1595,8064;0,0371398
1596,7706;0,0370564
1597,7349;0,0369416
1598,6991;0,0368055
1599,6633;0,0366532
1600,6276;0,036491
1601,5918;0,0363304
1602,5560;0,0361868
1603,5203;0,0360728
1604,4845;0,0359906
1605,4487;0,0359284
1606,4130;0,0358665
1607,3772;0,035791
1608,3414;0,035709
1609,3057;0,0356519
1610,2699;0,035656
1611,2341;0,0357357
1612,1984;0,0358718
1613,1626;0,0360182
1614,1268;0,0361174
1615,0911;0,0361299
1616,0553;0,0360791
1617,0195;0,0360541
1617,9838;0,0361257
1618,9480;0,0362865
1619,9122;0,0364832
1620,8765;0,0366634
1621,8407;0,0367965
1622,8049;0,0368849
1623,7692;0,0369626
1624,7334;0,0370662
1625,6976;0,037204
1626,6619;0,0373586
1627,6261;0,0375125
1628,5903;0,0376661
1629,5546;0,0378352
1630,5188;0,0380325
1631,4830;0,0382498
1632,4473;0,0384466
1633,4115;0,0385471
1634,3757;0,0384681
1635,3400;0,0382092
1636,3042;0,0379183
1637,2684;0,0377548
1638,2327;0,0377384
1639,1969;0,0378078
1640,1611;0,0379134
1641,1254;0,0380337
1642,0896;0,0381554
1643,0538;0,0382481
1644,0181;0,0382502
1644,9823;0,0380915
1645,9465;0,0377782
1646,9108;0,0374583
1647,8750;0,037305
1648,8392;0,0373525
1649,8035;0,0375011
1650,7677;0,0375728
1651,7319;0,0373319
1652,6962;0,0366324
1653,6604;0,0357387
1654,6246;0,0351204
1655,5889;0,034864
1656,5531;0,0347976
1657,5173;0,0347783
1658,4816;0,0347225
1659,4458;0,0345679
1660,4100;0,0342693
1661,3743;0,0338347
1662,3385;0,0333546
1663,3027;0,0329512
1664,2670;0,0326823
1665,2312;0,032513
1666,1954;0,032351
1667,1597;0,032087
1668,1239;0,0316423
1669,0881;0,0310408
1670,0524;0,0304293
1671,0166;0,0299572
1671,9808;0,0296431
1672,9451;0,0293945
1673,9093;0,0291061
1674,8735;0,0287357
1675,8378;0,0283307
1676,8020;0,0279871
1677,7662;0,0277695
1678,7305;0,0276746
1679,6947;0,0276461
1680,6589;0,0275876
1681,6232;0,0273639
1682,5874;0,026848
1683,5516;0,0260728
1684,5159;0,025307
1685,4801;0,02479
1686,4443;0,0245195
1687,4086;0,024383
1688,3728;0,0243
1689,3370;0,0242447
1690,3013;0,024221
1691,2655;0,0242346
1692,2297;0,0242746
1693,1940;0,0243098
1694,1582;0,0242998
1695,1224;0,0242142
1696,0867;0,0240513
1697,0509;0,0238399
1698,0151;0,0236217
1698,9794;0,023432
1699,9436;0,0232955
1700,9078;0,0232281
1701,8721;0,0232336
1702,8363;0,0233036
1703,8005;0,0234228
1704,7648;0,0235764
1705,7290;0,0237568
1706,6932;0,0239665
1707,6575;0,0242117
1708,6217;0,0244951
1709,5859;0,0248129
1710,5502;0,0251557
1711,5144;0,025508
1712,4786;0,0258458
1713,4429;0,0261363
1714,4071;0,0263446
1715,3713;0,0264584
1716,3356;0,0265252
1717,2998;0,0266428
1718,2640;0,0268645
1719,2283;0,0271585
1720,1925;0,0274725
1721,1567;0,0277792
1722,1210;0,0280712
1723,0852;0,0283469
1724,0494;0,028605
1725,0137;0,0288441
1725,9779;0,0290643
1726,9421;0,0292681
1727,9064;0,029459
1728,8706;0,029636
1729,8348;0,0297829
1730,7991;0,0298579
1731,7633;0,029799
1732,7275;0,02957
1733,6918;0,0292264
1734,6560;0,0288923
1735,6202;0,0286427
1736,5845;0,028456
1737,5487;0,0282632
1738,5129;0,0279971
1739,4772;0,0276215
1740,4414;0,0271499
1741,4056;0,026638
1742,3699;0,0261433
1743,3341;0,0256879
1744,2983;0,0252596
1745,2626;0,0248308
1746,2268;0,024367
1747,1910;0,0238248
1748,1553;0,0231658
1749,1195;0,0224007
1750,0837;0,0216201
1751,0480;0,0209435
1752,0122;0,020427
1752,9764;0,0200392
1753,9407;0,019706
1754,9049;0,0193627
1755,8691;0,0189837
1756,8334;0,0185854
1757,7976;0,0182016
1758,7618;0,0178481
1759,7261;0,0175088
1760,6903;0,0171599
1761,6545;0,0168045
1762,6188;0,01648
1763,5830;0,0162264
1764,5472;0,0160532
1765,5115;0,0159364
1766,4757;0,0158367
1767,4399;0,0157187
1768,4042;0,0155581
1769,3684;0,0153413
1770,3326;0,0150667
1771,2969;0,0147566
1772,2611;0,0144663
1773,2253;0,0142582
1774,1896;0,0141568
1775,1538;0,0141385
1776,1180;0,0141575
1777,0823;0,01417
1778,0465;0,0141482
1779,0107;0,0140876
1779,9750;0,0140053
1780,9392;0,0139259
1781,9034;0,0138626
1782,8677;0,0138146
1783,8319;0,0137798
1784,7961;0,0137661
1785,7604;0,0137872
1786,7246;0,0138473
1787,6888;0,0139292
1788,6531;0,0139939
1789,6173;0,0139906
1790,5815;0,0138816
1791,5458;0,01368
1792,5100;0,0134628
1793,4742;0,0133167
1794,4385;0,0132702
1795,4027;0,0132952
1796,3669;0,0133458
1797,3312;0,013383
1798,2954;0,0133825
1799,2596;0,0133395
1800,2239;0,0132707
1801,1881;0,0132049
1802,1523;0,0131653
1803,1166;0,0131596
1804,0808;0,0131813
1805,0450;0,0132166
1806,0093;0,013249
1806,9735;0,0132628
1807,9377;0,0132477
1808,9020;0,0132045
1809,8662;0,0131481
1810,8304;0,013102
1811,7947;0,013085
1812,7589;0,0131004
1813,7231;0,0131375
1814,6874;0,0131805
1815,6516;0,0132177
1816,6158;0,0132463
1817,5801;0,0132725
1818,5443;0,0133039
1819,5085;0,0133411
1820,4728;0,0133741
1821,4370;0,0133881
1822,4012;0,0133732
1823,3655;0,0133336
1824,3297;0,0132867
1825,2939;0,013251
1826,2582;0,0132295
1827,2224;0,0132066
1828,1866;0,0131628
1829,1509;0,0130957
1830,1151;0,0130294
1831,0793;0,0129979
1832,0436;0,0130177
1833,0078;0,013079
1833,9720;0,0131573
1834,9363;0,0132285
1835,9005;0,0132805
1836,8647;0,013317
1837,8290;0,013353
1838,7932;0,0134002
1839,7574;0,0134567
1840,7217;0,0135048
1841,6859;0,0135184
1842,6501;0,0134767
1843,6144;0,0133842
1844,5786;0,0132758
1845,5428;0,0131926
1846,5071;0,0131535
1847,4713;0,0131535
1848,4355;0,0131777
1849,3998;0,013211
1850,3640;0,0132415
1851,3282;0,0132616
1852,2925;0,0132697
1853,2567;0,01327
1854,2209;0,0132715
1855,1852;0,0132841
1856,1494;0,0133136
1857,1136;0,0133575
1858,0779;0,0134047
1859,0421;0,0134394
1860,0063;0,0134491
1860,9706;0,0134311
1861,9348;0,0133948
1862,8990;0,013356
1863,8633;0,0133283
1864,8275;0,0133171
1865,7917;0,0133194
1866,7560;0,0133288
1867,7202;0,0133426
1868,6844;0,0133627
1869,6487;0,0133894
1870,6129;0,0134169
1871,5771;0,0134378
1872,5414;0,0134474
1873,5056;0,0134449
1874,4698;0,0134329
1875,4341;0,0134181
1876,3983;0,0134102
1877,3625;0,0134173
1878,3268;0,01344
1879,2910;0,0134704
1880,2552;0,0134959
1881,2195;0,0135068
1882,1837;0,0135036
1883,1479;0,0134979
1884,1122;0,0135063
1885,0764;0,0135389
1886,0406;0,0135911
1887,0049;0,0136434
1887,9691;0,0136695
1888,9333;0,0136525
1889,8976;0,0135968
1890,8618;0,0135261
1891,8260;0,0134681
1892,7903;0,0134381
1893,7545;0,0134351
1894,7188;0,0134473
1895,6830;0,0134621
1896,6472;0,0134743
1897,6115;0,0134867
1898,5757;0,0135036
1899,5399;0,0135241
1900,5042;0,0135405
1901,4684;0,0135425
1902,4326;0,0135257
1903,3969;0,0134982
1904,3611;0,0134795
1905,3253;0,0134909
1906,2896;0,0135446
1907,2538;0,013634
1908,2180;0,0137335
1909,1823;0,0138083
1910,1465;0,0138319
1911,1107;0,0138006
1912,0750;0,0137337
1913,0392;0,0136619
1914,0034;0,0136143
1914,9677;0,0136132
1915,9319;0,0136719
1916,8961;0,0137928
1917,8604;0,0139606
1918,8246;0,0141407
1919,7888;0,0142866
1920,7531;0,014356
1921,7173;0,0143242
1922,6815;0,0141955
1923,6458;0,0140059
1924,6100;0,0138125
1925,5742;0,0136696
1926,5385;0,0136076
1927,5027;0,0136275
1928,4669;0,0137076
1929,4312;0,0138126
1930,3954;0,0139052
1931,3596;0,0139565
1932,3239;0,0139571
1933,2881;0,0139204
1934,2523;0,0138765
1935,2166;0,0138571
1936,1808;0,0138792
1937,1450;0,0139382
1938,1093;0,0140147
1939,0735;0,0140895
1940,0377;0,0141545
1941,0020;0,0142124
1941,9662;0,0142654
1942,9304;0,0143034
1943,8947;0,0143075
1944,8589;0,0142701
1945,8231;0,0142106
1946,7874;0,0141709
1947,7516;0,0141911
1948,7158;0,0142801
1949,6801;0,0144015
1950,6443;0,0144873
1951,6085;0,0144755
1952,5728;0,0143477
1953,5370;0,0141421
1954,5012;0,0139328
1955,4655;0,0137929
1956,4297;0,0137622
1957,3939;0,013839
1958,3582;0,0139934
1959,3224;0,0141872
1960,2866;0,0143847
1961,2509;0,0145542
1962,2151;0,014666
1963,1793;0,0146959
1964,1436;0,0146357
1965,1078;0,0145037
1966,0720;0,014346
1967,0363;0,0142223
1968,0005;0,0141787
1968,9647;0,0142249
1969,9290;0,0143318
1970,8932;0,0144461
1971,8574;0,0145119
1972,8217;0,0144899
1973,7859;0,014375
1974,7501;0,0142082
1975,7144;0,0140715
1976,6786;0,014054
1977,6428;0,0142004
1978,6071;0,0144766
1979,5713;0,0147839
1980,5355;0,0150132
1981,4998;0,0150994
1982,4640;0,0150441
1983,4282;0,0149057
1984,3925;0,0147668
1985,3567;0,0146982
1986,3209;0,0147344
1987,2852;0,0148704
1988,2494;0,0150714
1989,2136;0,0152848
1990,1779;0,0154481
1991,1421;0,0155011
1992,1063;0,0154093
1993,0706;0,0151907
1994,0348;0,0149223
1994,9990;0,0147167
1995,9633;0,0146788
1996,9275;0,0148621
1997,8917;0,015243
1998,8560;0,0157234
1999,8202;0,0161666
2000,7844;0,0164544
2001,7487;0,0165341
2002,7129;0,0164326
2003,6771;0,0162356
2004,6414;0,0160478
2005,6056;0,0159497
2006,5698;0,0159655
2007,5341;0,0160587
2008,4983;0,0161587
2009,4625;0,0162055
2010,4268;0,0161817
2011,3910;0,0161157
2012,3552;0,016055
2013,3195;0,0160322
2014,2837;0,0160429
2015,2479;0,0160519
2016,2122;0,0160251
2017,1764;0,0159669
2018,1406;0,0159315
2019,1049;0,0159938
2020,0691;0,0161983
2021,0333;0,0165203
2021,9976;0,0168678
2022,9618;0,0171209
2023,9260;0,0171905
2024,8903;0,0170618
2025,8545;0,0167992
2026,8187;0,0165094
2027,7830;0,0162897
2028,7472;0,0161915
2029,7114;0,0162149
2030,6757;0,0163263
2031,6399;0,0164807
2032,6041;0,0166352
2033,5684;0,016753
2034,5326;0,0168078
2035,4968;0,0167912
2036,4611;0,0167203
2037,4253;0,0166345
2038,3895;0,0165812
2039,3538;0,0165949
2040,3180;0,0166815
2041,2822;0,0168156
2042,2465;0,0169534
2043,2107;0,017055
2044,1749;0,0171004
2045,1392;0,0170929
2046,1034;0,01705
2047,0676;0,0169887
2048,0320;0,0169167
2048,9961;0,0168325
2049,9604;0,0167329
2050,9246;0,016621
2051,8889;0,0165084
2052,8530;0,0164103
2053,8174;0,0163402
2054,7815;0,0163042
2055,7458;0,0162996
2056,7100;0,0163165
2057,6743;0,0163417
2058,6384;0,0163625
2059,6028;0,0163704
2060,5669;0,0163652
2061,5313;0,0163586
2062,4954;0,0163717
2063,4597;0,0164257
2064,4238;0,0165268
2065,3882;0,016655
2066,3523;0,0167671
2067,3167;0,016816
2068,2808;0,016774
2069,2451;0,016648
2070,2092;0,0164756
2071,1736;0,0163065
2072,1377;0,0161795
2073,1021;0,0161081
2074,0662;0,016082
2075,0305;0,0160814
2075,9946;0,0160912
2076,9590;0,0161078
2077,9231;0,0161347
2078,8875;0,0161746
2079,8516;0,0162242
2080,8159;0,0162756
2081,7800;0,016322
2082,7444;0,0163614
2083,7085;0,0163959
2084,6729;0,0164272
2085,6370;0,016452
2086,6013;0,0164623
2087,5654;0,0164503
2088,5298;0,016414
2089,4939;0,0163617
2090,4583;0,0163097
2091,4224;0,0162769
2092,3867;0,016278
2093,3508;0,0163181
2094,3152;0,0163907
2095,2793;0,0164783
2096,2437;0,0165559
2097,2078;0,0165969
2098,1721;0,0165817
2099,1362;0,0165057
2100,1006;0,0163855
2101,0647;0,0162581
2102,0291;0,0161697
2102,9932;0,0161579
2103,9575;0,0162337
2104,9216;0,0163718
2105,8860;0,0165197
2106,8501;0,016621
2107,8145;0,0166433
2108,7786;0,0165934
2109,7429;0,0165115
2110,7070;0,0164463
2111,6714;0,0164273
2112,6355;0,0164506
2113,5999;0,0164872
2114,5640;0,0165049
2115,5283;0,0164897
2116,4924;0,0164527
2117,4568;0,0164195
2118,4209;0,0164129
2119,3853;0,0164403
2120,3494;0,0164936
2121,3137;0,0165574
2122,2778;0,0166187
2123,2422;0,0166705
2124,2063;0,0167107
2125,1707;0,0167403
2126,1348;0,0167638
2127,0991;0,0167896
2128,0632;0,0168262
2129,0276;0,0168757
2129,9917;0,0169278
2130,9561;0,0169644
2131,9202;0,0169738
2132,8845;0,0169648
2133,8486;0,0169696
2134,8130;0,0170252
2135,7771;0,0171465
2136,7415;0,0173125
2137,7056;0,0174803
2138,6699;0,0176169
2139,6340;0,0177237
2140,5984;0,0178317
2141,5625;0,0179724
2142,5269;0,0181472
2143,4910;0,0183213
2144,4553;0,0184492
2145,4194;0,0185129
2146,3838;0,0185435
2147,3479;0,0186044
2148,3123;0,018747
2149,2764;0,0189697
2150,2407;0,0192105
2151,2048;0,0193815
2152,1692;0,0194233
2153,1333;0,0193452
2154,0977;0,0192264
2155,0618;0,0191767
2156,0261;0,0192764
2156,9902;0,0195249
2157,9546;0,0198327
2158,9187;0,0200783
2159,8831;0,0201923
2160,8472;0,0201905
2161,8115;0,0201296
2162,7756;0,0200398
2163,7400;0,0199
2164,7041;0,0196628
2165,6685;0,0193052
2166,6326;0,0188641
2167,5969;0,018431
2168,5610;0,0181077
2169,5254;0,0179529
2170,4895;0,0179522
2171,4539;0,0180271
2172,4180;0,0180791
2173,3823;0,0180457
2174,3464;0,0179373
2175,3108;0,0178303
2176,2749;0,0178167
2177,2393;0,0179406
2178,2034;0,0181631
2179,1677;0,0183778
2180,1318;0,0184685
2181,0962;0,0183753
2182,0603;0,0181317
2183,0247;0,017847
2183,9888;0,0176438
2184,9531;0,0175917
2185,9172;0,0176772
2186,8816;0,0178226
2187,8457;0,0179342
2188,8101;0,0179511
2189,7742;0,0178703
2190,7385;0,0177386
2191,7026;0,0176223
2192,6670;0,0175708
2193,6311;0,0175944
2194,5955;0,0176662
2195,5596;0,0177435
2196,5239;0,0177948
2197,4880;0,0178134
2198,4524;0,0178106
2199,4165;0,0177972
2200,3809;0,0177685
2201,3450;0,0177092
2202,3093;0,0176133
2203,2734;0,0175018
2204,2378;0,017421
2205,2019;0,0174171
2206,1663;0,0175046
2207,1304;0,0176518
2208,0947;0,0177949
2209,0588;0,0178728
2210,0232;0,0178591
2210,9873;0,0177725
2211,9517;0,0176593
2212,9158;0,0175649
2213,8801;0,0175106
2214,8442;0,0174897
2215,8086;0,0174799
2216,7727;0,0174606
2217,7371;0,0174232
2218,7012;0,0173713
2219,6655;0,0173132
2220,6296;0,0172554
2221,5940;0,0172003
2222,5581;0,0171484
2223,5225;0,0171012
2224,4866;0,0170616
2225,4509;0,017032
2226,4150;0,017011
2227,3794;0,0169937
2228,3435;0,016973
2229,3079;0,0169439
2230,2720;0,0169052
2231,2363;0,0168596
2232,2004;0,0168114
2233,1648;0,0167651
2234,1289;0,0167249
2235,0933;0,0166939
2236,0574;0,0166739
2237,0217;0,0166644
2237,9858;0,0166633
2238,9502;0,0166687
2239,9143;0,0166812
2240,8787;0,0167025
2241,8428;0,0167315
2242,8071;0,0167602
2243,7712;0,0167745
2244,7356;0,0167609
2245,6997;0,0167153
2246,6641;0,0166461
2247,6282;0,0165687
2248,5925;0,0164945
2249,5566;0,016423
2250,5210;0,0163459
2251,4851;0,0162586
2252,4495;0,0161718
2253,4136;0,0161104
2254,3779;0,0161001
2255,3420;0,0161482
2256,3064;0,0162346
2257,2705;0,0163192
2258,2349;0,0163614
2259,1990;0,0163402
2260,1633;0,0162622
2261,1274;0,0161558
2262,0918;0,0160564
2263,0559;0,0159913
2264,0203;0,0159707
2264,9844;0,0159886
2265,9487;0,0160294
2266,9128;0,0160763
2267,8772;0,0161168
2268,8413;0,0161435
2269,8057;0,0161516
2270,7698;0,0161364
2271,7341;0,0160939
2272,6982;0,0160261
2273,6626;0,0159446
2274,6267;0,0158701
2275,5911;0,0158251
2276,5552;0,015822
2277,5195;0,0158562
2278,4836;0,0159075
2279,4480;0,0159515
2280,4121;0,0159722
2281,3765;0,0159691
2282,3406;0,0159545
2283,3049;0,0159434
2284,2690;0,015944
2285,2334;0,0159538
2286,1975;0,0159624
2287,1619;0,0159584
2288,1260;0,0159351
2289,0903;0,0158934
2290,0544;0,0158408
2291,0188;0,0157874
2291,9829;0,0157426
2292,9473;0,0157123
2293,9114;0,0156977
2294,8757;0,0156967
2295,8398;0,0157057
2296,8042;0,0157227
2297,7683;0,0157478
2298,7327;0,0157829
2299,6968;0,0158295
2300,6611;0,0158865
2301,6252;0,0159495
2302,5896;0,0160118
2303,5537;0,0160659
2304,5181;0,0161062
2305,4822;0,0161296
2306,4465;0,0161371
2307,4106;0,0161333
2308,3750;0,0161259
2309,3391;0,0161231
2310,3035;0,0161319
2311,2676;0,0161566
2312,2319;0,0161995
2313,1960;0,0162615
2314,1604;0,0163431
2315,1245;0,0164432
2316,0889;0,0165561
2317,0530;0,0166701
2318,0173;0,0167676
2318,9814;0,0168297
2319,9458;0,0168424
2320,9099;0,0168015
2321,8743;0,0167124
2322,8384;0,0165876
2323,8027;0,0164428
2324,7668;0,0162971
2325,7312;0,0161711
2326,6953;0,016084
2327,6597;0,0160475
2328,6238;0,0160606
2329,5881;0,0161079
2330,5522;0,0161629
2331,5166;0,0161988
2332,4807;0,0161984
2333,4451;0,0161572
2334,4092;0,0160777
2335,3735;0,0159625
2336,3376;0,0158138
2337,3020;0,0156388
2338,2661;0,0154534
2339,2305;0,0152788
2340,1946;0,015135
2341,1589;0,0150407
2342,1230;0,0150185
2343,0874;0,0150862
2344,0515;0,015224
2345,0159;0,0153667
2345,9800;0,015459
2346,9443;0,0155055
2347,9084;0,0155548
2348,8728;0,015652
2349,8369;0,0158076
2350,8013;0,0159934
2351,7654;0,0161618
2352,7297;0,0162828
2353,6938;0,0163704
2354,6582;0,0164634
2355,6223;0,0165695
2356,5867;0,0166419
2357,5508;0,0166145
2358,5151;0,0164542
2359,4792;0,0161894
2360,4436;0,0158964
2361,4077;0,0156573
2362,3721;0,0155199
2363,3362;0,0154797
2364,3005;0,0154908
2365,2646;0,0154997
2366,2290;0,015482
2367,1931;0,0154577
2368,1575;0,0154713
2369,1216;0,0155559
2370,0859;0,0157079
2371,0500;0,0158875
2372,0144;0,0160423
2372,9785;0,0161336
2373,9429;0,016151
2374,9070;0,0161103
2375,8713;0,0160411
2376,8354;0,015972
2377,7998;0,0159218
2378,7639;0,0158972
2379,7283;0,0158972
2380,6924;0,0159186
2381,6567;0,0159603
2382,6208;0,016023
2383,5852;0,0161068
2384,5493;0,0162077
2385,5137;0,0163154
2386,4778;0,0164155
2387,4421;0,0164941
2388,4063;0,0165435
2389,3706;0,0165667
2390,3347;0,0165759
2391,2991;0,0165872
2392,2632;0,0166127
2393,2275;0,0166548
2394,1917;0,0167055
2395,1560;0,0167523
2396,1201;0,0167847
2397,0845;0,0168004
2398,0486;0,0168057
2399,0129;0,0168118
2399,9771;0,0168276
2400,9414;0,0168542
2401,9055;0,0168842
2402,8699;0,0169054
2403,8340;0,0169087
2404,7983;0,0168935
2405,7625;0,0168695
2406,7268;0,0168516
2407,6909;0,0168512
2408,6553;0,0168695
2409,6194;0,0168974
2410,5837;0,016922
2411,5479;0,0169358
2412,5122;0,0169418
2413,4763;0,0169512
2414,4407;0,0169746
2415,4048;0,0170135
2416,3691;0,0170584
2417,3333;0,0170945
2418,2976;0,0171112
2419,2617;0,017109
2420,2261;0,017098
2421,1902;0,0170911
2422,1545;0,0170947
2423,1187;0,0171067
2424,0830;0,0171196
2425,0471;0,0171283
2426,0115;0,0171349
2426,9756;0,0171478
2427,9399;0,017176
2428,9041;0,0172226
2429,8684;0,0172821
2430,8325;0,0173437
2431,7969;0,0173957
2432,7610;0,0174306
2433,7253;0,0174467
2434,6895;0,0174471
2435,6538;0,0174377
2436,6179;0,0174248
2437,5823;0,017414
2438,5464;0,0174097
2439,5107;0,0174148
2440,4749;0,0174302
2441,4392;0,0174557
2442,4033;0,0174901
2443,3677;0,0175316
2444,3318;0,0175774
2445,2961;0,0176242
2446,2603;0,0176676
2447,2246;0,0177032
2448,1887;0,0177275
2449,1531;0,0177386
2450,1172;0,0177373
2451,0815;0,0177271
2452,0457;0,0177149
2453,0100;0,0177091
2453,9741;0,0177168
2454,9385;0,0177412
2455,9026;0,017779
2456,8669;0,0178227
2457,8311;0,0178636
2458,7954;0,0178962
2459,7595;0,0179196
2460,7239;0,0179361
2461,6880;0,0179481
2462,6523;0,0179566
2463,6165;0,0179621
2464,5808;0,0179664
2465,5449;0,0179729
2466,5093;0,0179855
2467,4734;0,0180046
2468,4377;0,0180271
2469,4019;0,0180472
2470,3662;0,018061
2471,3303;0,0180685
2472,2947;0,0180737
2473,2588;0,0180812
2474,2231;0,0180943
2475,1873;0,0181131
2476,1516;0,0181363
2477,1157;0,0181614
2478,0801;0,018185
2479,0442;0,0182025
2480,0085;0,0182096
2480,9727;0,0182048
2481,9370;0,018191
2482,9011;0,0181752
2483,8655;0,0181652
2484,8296;0,0181658
2485,7939;0,0181775
2486,7581;0,018199
2487,7224;0,0182302
2488,6865;0,0182725
2489,6509;0,0183265
2490,6150;0,0183875
2491,5793;0,0184437
2492,5435;0,0184804
2493,5078;0,0184855
2494,4719;0,0184565
2495,4363;0,0184021
2496,4004;0,0183397
2497,3647;0,0182892
2498,3289;0,018267
2499,2932;0,018281
2500,2573;0,0183284
2501,2217;0,0183975
2502,1858;0,0184716
2503,1501;0,0185354
2504,1143;0,0185797
2505,0786;0,0186028
2506,0427;0,0186084
2507,0071;0,0186013
2507,9712;0,0185854
2508,9355;0,018564
2509,8997;0,0185417
2510,8640;0,0185255
2511,8281;0,018522
2512,7925;0,0185347
2513,7566;0,018561
2514,7209;0,0185951
2515,6851;0,018631
2516,6494;0,0186658
2517,6135;0,0186997
2518,5779;0,0187324
2519,5420;0,0187608
2520,5063;0,0187794
2521,4705;0,0187837
2522,4348;0,0187731
2523,3989;0,0187528
2524,3633;0,0187309
2525,3274;0,0187152
2526,2917;0,0187108
2527,2559;0,0187192
2528,2202;0,0187395
2529,1843;0,0187689
2530,1487;0,0188031
2531,1128;0,0188367
2532,0771;0,0188642
2533,0413;0,0188818
2534,0056;0,0188883
2534,9697;0,0188853
2535,9341;0,0188756
2536,8982;0,0188626
2537,8625;0,0188495
2538,8267;0,0188397
2539,7910;0,0188368
2540,7551;0,0188431
2541,7195;0,0188581
2542,6836;0,018877
2543,6479;0,0188929
2544,6121;0,0189003
2545,5764;0,018899
2546,5405;0,0188945
2547,5049;0,0188946
2548,4690;0,0189036
2549,4333;0,0189184
2550,3975;0,0189303
2551,3618;0,0189304
2552,3259;0,0189166
2553,2903;0,0188962
2554,2544;0,018882
2555,2188;0,0188848
2556,1829;0,0189079
2557,1472;0,0189452
2558,1113;0,0189859
2559,0757;0,0190192
2560,0398;0,0190385
2561,0042;0,0190415
2561,9683;0,0190298
2562,9326;0,0190074
2563,8967;0,0189815
2564,8611;0,0189606
2565,8252;0,0189522
2566,7896;0,0189589
2567,7537;0,0189763
2568,7180;0,0189961
2569,6821;0,0190107
2570,6465;0,0190186
2571,6106;0,0190251
2572,5750;0,0190382
2573,5391;0,0190633
2574,5034;0,0190992
2575,4675;0,0191381
2576,4319;0,0191696
2577,3960;0,0191847
2578,3604;0,0191802
2579,3245;0,0191592
2580,2888;0,0191309
2581,2529;0,0191072
2582,2173;0,0190986
2583,1814;0,0191095
2584,1458;0,019137
2585,1099;0,0191727
2586,0742;0,019207
2587,0383;0,0192344
2588,0027;0,0192549
2588,9668;0,0192718
2589,9312;0,0192875
2590,8953;0,0193017
2591,8596;0,0193121
2592,8237;0,0193174
2593,7881;0,0193191
2594,7522;0,0193217
2595,7166;0,0193296
2596,6807;0,0193444
2597,6450;0,0193652
2598,6091;0,0193893
2599,5735;0,0194144
2600,5376;0,0194392
2601,5020;0,0194627
2602,4661;0,0194837
2603,4304;0,0195019
2604,3945;0,0195181
2605,3589;0,0195351
2606,3230;0,0195554
2607,2874;0,0195792
2608,2515;0,019603
2609,2158;0,0196217
2610,1799;0,0196322
2611,1443;0,0196366
2612,1084;0,0196418
2613,0728;0,0196553
2614,0369;0,0196806
2615,0012;0,0197142
2615,9653;0,0197477
2616,9297;0,0197731
2617,8938;0,0197874
2618,8582;0,0197943
2619,8223;0,0198007
2620,7866;0,019812
2621,7507;0,0198284
2622,7151;0,0198452
2623,6792;0,0198571
2624,6436;0,0198621
2625,6077;0,0198641
2626,5720;0,0198701
2627,5361;0,0198861
2628,5005;0,019913
2629,4646;0,0199463
2630,4290;0,0199779
2631,3931;0,0200014
2632,3574;0,0200141
2633,3215;0,0200186
2634,2859;0,0200198
2635,2500;0,0200233
2636,2144;0,0200324
2637,1785;0,0200483
2638,1428;0,0200706
2639,1069;0,0200976
2640,0713;0,0201271
2641,0354;0,0201557
2641,9998;0,0201801
2642,9639;0,0201983
2643,9282;0,0202113
2644,8923;0,0202232
2645,8567;0,0202396
2646,8208;0,0202648
2647,7852;0,0202986
2648,7493;0,0203359
2649,7136;0,0203683
2650,6777;0,0203887
2651,6421;0,0203951
2652,6062;0,0203918
2653,5706;0,0203875
2654,5347;0,0203905
2655,4990;0,0204045
2656,4631;0,020427
2657,4275;0,0204513
2658,3916;0,020471
2659,3560;0,0204839
2660,3201;0,0204926
2661,2844;0,0205024
2662,2485;0,0205175
2663,2129;0,020538
2664,1770;0,0205607
2665,1414;0,0205818
2666,1055;0,0205997
2667,0698;0,0206159
2668,0339;0,0206338
2668,9983;0,0206555
2669,9624;0,0206805
2670,9268;0,0207064
2671,8909;0,0207307
2672,8552;0,020753
2673,8193;0,0207746
2674,7837;0,0207976
2675,7478;0,0208226
2676,7122;0,0208486
2677,6763;0,0208736
2678,6406;0,0208964
2679,6047;0,0209173
2680,5691;0,0209378
2681,5332;0,0209598
2682,4976;0,0209842
2683,4617;0,02101
2684,4260;0,0210352
2685,3901;0,0210579
2686,3545;0,0210774
2687,3186;0,0210955
2688,2830;0,0211161
2689,2471;0,0211435
2690,2114;0,0211798
2691,1755;0,0212238
2692,1399;0,0212701
2693,1040;0,0213116
2694,0684;0,0213426
2695,0325;0,0213609
2695,9968;0,0213688
2696,9609;0,0213715
2697,9253;0,0213746
2698,8894;0,021382
2699,8538;0,0213959
2700,8179;0,0214173
2701,7822;0,0214463
2702,7463;0,0214823
2703,7107;0,0215231
2704,6748;0,0215649
2705,6392;0,0216032
2706,6033;0,0216339
2707,5676;0,0216556
2708,5317;0,0216695
2709,4961;0,0216788
2710,4602;0,0216875
2711,4246;0,0216991
2712,3887;0,0217159
2713,3530;0,0217389
2714,3171;0,0217679
2715,2815;0,0218016
2716,2456;0,0218378
2717,2100;0,0218738
2718,1741;0,0219071
2719,1384;0,021936
2720,1025;0,0219599
2721,0669;0,021979
2722,0310;0,0219949
2722,9954;0,0220091
2723,9595;0,0220237
2724,9238;0,02204
2725,8879;0,0220589
2726,8523;0,0220811
2727,8164;0,0221066
2728,7808;0,022135
2729,7449;0,0221654
2730,7092;0,0221953
2731,6733;0,0222215
2732,6377;0,0222413
2733,6018;0,0222535
2734,5662;0,02226
2735,5303;0,0222646
2736,4946;0,022271
2737,4587;0,0222813
2738,4231;0,0222946
2739,3872;0,0223088
2740,3516;0,0223224
2741,3157;0,0223358
2742,2800;0,022351
2743,2441;0,0223693
2744,2085;0,0223898
2745,1726;0,0224095
2746,1370;0,0224247
2747,1011;0,022434
2748,0654;0,0224394
2749,0295;0,0224454
2749,9939;0,0224567
2750,9580;0,0224756
2751,9224;0,0225014
2752,8865;0,0225316
2753,8508;0,0225641
2754,8149;0,0225984
2755,7793;0,022635
2756,7434;0,0226737
2757,7078;0,0227127
2758,6719;0,0227493
2759,6362;0,0227816
2760,6003;0,0228105
2761,5647;0,0228389
2762,5288;0,0228693
2763,4932;0,0229014
2764,4573;0,0229317
2765,4216;0,0229562
2766,3857;0,0229739
2767,3501;0,0229884
2768,3142;0,0230058
2769,2786;0,0230305
2770,2427;0,0230613
2771,2070;0,0230922
2772,1711;0,0231162
2773,1355;0,0231309
2774,0996;0,0231403
2775,0640;0,0231535
2776,0281;0,0231791
2776,9924;0,0232206
2777,9565;0,0232746
2778,9209;0,0233334
2779,8850;0,023389
2780,8494;0,023437
2781,8135;0,0234775
2782,7778;0,0235135
2783,7419;0,0235481
2784,7063;0,0235824
2785,6704;0,0236154
2786,6348;0,0236454
2787,5989;0,0236724
2788,5632;0,0236996
2789,5273;0,0237325
2790,4917;0,0237765
2791,4558;0,0238342
2792,4202;0,0239028
2793,3843;0,0239753
2794,3486;0,0240432
2795,3127;0,0241003
2796,2771;0,0241457
2797,2412;0,024184
2798,2056;0,0242224
2799,1697;0,0242678
2800,1340;0,024324
2801,0981;0,0243909
2802,0625;0,0244659
2803,0266;0,0245453
2803,9910;0,0246261
2804,9551;0,0247062
2805,9194;0,0247847
2806,8835;0,0248615
2807,8479;0,024937
2808,8120;0,025012
2809,7764;0,0250866
2810,7405;0,02516
2811,7048;0,0252319
2812,6689;0,0253031
2813,6333;0,0253766
2814,5974;0,0254573
2815,5618;0,0255493
2816,5259;0,0256528
2817,4902;0,0257629
2818,4543;0,0258719
2819,4187;0,0259733
2820,3828;0,0260664
2821,3472;0,0261566
2822,3113;0,0262521
2823,2756;0,0263593
2824,2397;0,0264791
2825,2041;0,0266072
2826,1682;0,0267382
2827,1326;0,0268692
2828,0967;0,0270011
2829,0610;0,0271372
2830,0251;0,02728
2830,9895;0,0274299
2831,9536;0,0275856
2832,9180;0,027746
2833,8821;0,0279117
2834,8464;0,0280846
2835,8105;0,028267
2836,7749;0,0284605
2837,7390;0,0286664
2838,7034;0,0288869
2839,6675;0,0291251
2840,6318;0,0293846
2841,5959;0,0296677
2842,5603;0,029973
2843,5244;0,0302952
2844,4888;0,030625
2845,4529;0,0309503
2846,4172;0,0312581
2847,3813;0,0315363
2848,3457;0,0317759
2849,3098;0,0319723
2850,2742;0,0321257
2851,2383;0,0322396
2852,2026;0,0323195
2853,1667;0,0323711
2854,1311;0,0323996
2855,0952;0,0324102
2856,0596;0,032409
2857,0237;0,0324033
2857,9880;0,0324016
2858,9521;0,0324126
2859,9165;0,0324434
2860,8806;0,032498
2861,8450;0,0325759
2862,8091;0,0326729
2863,7734;0,032783
2864,7375;0,0329007
2865,7019;0,0330224
2866,6660;0,0331456
2867,6304;0,0332667
2868,5945;0,0333798
2869,5588;0,033478
2870,5229;0,0335567
2871,4873;0,0336169
2872,4514;0,0336659
2873,4158;0,0337142
2874,3799;0,0337698
2875,3442;0,033835
2876,3083;0,0339061
2877,2727;0,0339776
2878,2368;0,0340457
2879,2012;0,0341099
2880,1653;0,0341723
2881,1296;0,0342345
2882,0938;0,0342965
2883,0581;0,0343583
2884,0222;0,0344216
2884,9866;0,0344903
2885,9507;0,0345689
2886,9150;0,0346588
2887,8792;0,0347562
2888,8435;0,0348533
2889,8076;0,0349419
2890,7720;0,0350172
2891,7361;0,0350803
2892,7004;0,0351365
2893,6646;0,0351925
2894,6289;0,0352532
2895,5930;0,0353207
2896,5574;0,0353944
2897,5215;0,0354708
2898,4858;0,0355439
2899,4500;0,0356059
2900,4143;0,0356491
2901,3784;0,0356699
2902,3428;0,0356722
2903,3069;0,0356676
2904,2712;0,0356708
2905,2354;0,0356928
2906,1997;0,0357352
2907,1638;0,0357907
2908,1282;0,0358487
2909,0923;0,035903
2910,0566;0,0359564
2911,0208;0,036018
2911,9851;0,0360963
2912,9492;0,0361913
2913,9136;0,0362919
2914,8777;0,0363808
2915,8420;0,036441
2916,8062;0,0364629
2917,7705;0,0364456
2918,7346;0,0363942
2919,6990;0,0363156
2920,6631;0,0362152
2921,6274;0,0360964
2922,5916;0,0359608
2923,5559;0,0358098
2924,5200;0,035644
2925,4844;0,0354641
2926,4485;0,0352712
2927,4128;0,0350684
2928,3770;0,0348615
2929,3413;0,0346587
2930,3054;0,034468
2931,2698;0,0342948
2932,2339;0,0341391
2933,1982;0,0339957
2934,1624;0,0338557
2935,1267;0,0337096
2936,0908;0,0335507
2937,0552;0,0333773
2938,0193;0,0331928
2938,9836;0,0330035
2939,9478;0,0328145
2940,9121;0,0326273
2941,8762;0,0324389
2942,8406;0,0322443
2943,8047;0,0320407
2944,7690;0,0318304
2945,7332;0,0316209
2946,6975;0,0314213
2947,6616;0,0312379
2948,6260;0,031072
2949,5901;0,0309196
2950,5544;0,0307752
2951,5186;0,0306343
2952,4829;0,0304951
2953,4470;0,0303577
2954,4114;0,0302224
2955,3755;0,0300884
2956,3398;0,0299546
2957,3040;0,0298205
2958,2683;0,0296874
2959,2324;0,0295574
2960,1968;0,0294319
2961,1609;0,0293108
2962,1252;0,0291921
2963,0894;0,0290739
2964,0537;0,0289551
2965,0178;0,0288357
2965,9822;0,0287151
2966,9463;0,0285908
2967,9106;0,0284579
2968,8748;0,0283113
2969,8391;0,0281495
2970,8032;0,0279763
2971,7676;0,0278016
2972,7317;0,0276373
2973,6960;0,0274932
2974,6602;0,0273737
2975,6245;0,027277
2976,5886;0,0271971
2977,5530;0,0271277
2978,5171;0,027064
2979,4814;0,0270031
2980,4456;0,0269434
2981,4099;0,0268832
2982,3740;0,0268208
2983,3384;0,0267557
2984,3025;0,0266888
2985,2668;0,0266237
2986,2310;0,0265646
2987,1953;0,0265157
2988,1594;0,0264792
2989,1238;0,0264551
2990,0879;0,026441
2991,0522;0,0264329
2992,0164;0,0264268
2992,9807;0,0264196
2993,9448;0,0264104
2994,9092;0,0264014
2995,8733;0,0263976
2996,8376;0,0264053
2997,8018;0,0264287
2998,7661;0,0264683
2999,7302;0,0265195
3000,6946;0,0265748
3001,6587;0,0266262
3002,6230;0,0266692
3003,5872;0,0267034
3004,5515;0,0267316
3005,5156;0,026757
3006,4800;0,0267803
3007,4441;0,0268001
3008,4084;0,0268145
3009,3726;0,0268239
3010,3369;0,0268326
3011,3010;0,0268476
3012,2654;0,0268752
3013,2295;0,0269186
3014,1938;0,0269761
3015,1580;0,027043
3016,1223;0,0271143
3017,0864;0,0271865
3018,0508;0,0272576
3019,0149;0,0273265
3019,9792;0,0273914
3020,9434;0,0274508
3021,9077;0,0275053
3022,8718;0,0275588
3023,8362;0,0276178
3024,8003;0,0276879
3025,7646;0,0277703
3026,7288;0,0278595
3027,6931;0,0279455
3028,6572;0,0280185
3029,6216;0,0280735
3030,5857;0,0281134
3031,5500;0,0281478
3032,5142;0,0281888
3033,4785;0,0282461
3034,4426;0,028323
3035,4070;0,0284162
3036,3711;0,0285171
3037,3354;0,028616
3038,2996;0,0287057
3039,2639;0,0287842
3040,2280;0,0288554
3041,1924;0,0289276
3042,1565;0,0290085
3043,1208;0,0291017
3044,0850;0,0292045
3045,0493;0,0293094
3046,0134;0,0294088
3046,9778;0,0294987
3047,9419;0,029581
3048,9063;0,0296614
3049,8704;0,0297453
3050,8347;0,0298345
3051,7988;0,0299258
3052,7632;0,0300141
3053,7273;0,0300955
3054,6917;0,0301702
3055,6558;0,0302436
3056,6201;0,0303234
3057,5842;0,0304163
3058,5486;0,0305246
3059,5127;0,0306449
3060,4771;0,0307693
3061,4412;0,0308876
3062,4055;0,0309915
3063,3696;0,0310781
3064,3340;0,0311518
3065,2981;0,0312225
3066,2625;0,0313014
3067,2266;0,0313951
3068,1909;0,0315031
3069,1550;0,0316185
3070,1194;0,0317332
3071,0835;0,0318421
3072,0479;0,0319456
3073,0120;0,0320469
3073,9763;0,0321489
3074,9404;0,0322509
3075,9048;0,0323494
3076,8689;0,0324416
3077,8333;0,0325273
3078,7974;0,03261
3079,7617;0,0326948
3080,7258;0,0327852
3081,6902;0,0328817
3082,6543;0,0329829
3083,6187;0,0330865
3084,5828;0,0331904
3085,5471;0,0332933
3086,5112;0,0333939
3087,4756;0,0334915
3088,4397;0,0335866
3089,4041;0,0336806
3090,3682;0,0337749
3091,3325;0,0338699
3092,2966;0,0339648
3093,2610;0,0340589
3094,2251;0,0341531
3095,1895;0,0342505
3096,1536;0,0343547
3097,1179;0,0344669
3098,0820;0,0345838
3099,0464;0,0346991
3100,0105;0,0348074
3100,9749;0,0349077
3101,9390;0,0350049
3102,9033;0,0351072
3103,8674;0,0352205
3104,8318;0,0353455
3105,7959;0,035478
3106,7603;0,0356117
3107,7244;0,0357426
3108,6887;0,0358702
3109,6528;0,0359956
3110,6172;0,0361184
3111,5813;0,0362361
3112,5457;0,0363448
3113,5098;0,0364437
3114,4741;0,0365374
3115,4382;0,0366341
3116,4026;0,0367419
3117,3667;0,0368645
3118,3311;0,036999
3119,2952;0,0371389
3120,2595;0,0372772
3121,2236;0,0374098
3122,1880;0,037536
3123,1521;0,0376573
3124,1165;0,0377759
3125,0806;0,0378943
3126,0449;0,0380151
3127,0090;0,0381403
3127,9734;0,0382706
3128,9375;0,038405
3129,9019;0,0385409
3130,8660;0,0386759
3131,8303;0,0388084
3132,7944;0,0389383
3133,7588;0,0390653
3134,7229;0,0391891
3135,6873;0,0393093
3136,6514;0,0394266
3137,6157;0,0395439
3138,5798;0,0396648
3139,5442;0,0397919
3140,5083;0,0399251
3141,4727;0,0400622
3142,4368;0,0402018
3143,4011;0,0403443
3144,3652;0,0404924
3145,3296;0,0406476
3146,2937;0,0408079
3147,2581;0,0409672
3148,2222;0,0411187
3149,1865;0,0412585
3150,1506;0,0413886
3151,1150;0,0415148
3152,0791;0,0416433
3153,0435;0,0417766
3154,0076;0,0419142
3154,9719;0,0420543
3155,9360;0,0421966
3156,9004;0,0423426
3157,8645;0,0424935
3158,8289;0,0426478
3159,7930;0,0428018
3160,7573;0,0429518
3161,7214;0,043097
3162,6858;0,0432394
3163,6499;0,0433813
3164,6143;0,0435226
3165,5784;0,0436598
3166,5427;0,0437888
3167,5068;0,0439089
3168,4712;0,0440247
3169,4353;0,0441465
3170,3997;0,0442759
3171,3638;0,0444171
3172,3281;0,0445671
3173,2922;0,0447208
3174,2566;0,0448744
3175,2207;0,0450277
3176,1851;0,0451822
3177,1492;0,0453396
3178,1135;0,0454993
3179,0776;0,0456592
3180,0420;0,0458163
3181,0061;0,0459684
3181,9705;0,0461144
3182,9346;0,0462549
3183,8989;0,0463917
3184,8630;0,0465271
3185,8274;0,0466625
3186,7915;0,0467974
3187,7559;0,0469296
3188,7200;0,0470572
3189,6843;0,0471814
3190,6484;0,0473075
3191,6128;0,0474436
3192,5769;0,0475954
3193,5413;0,0477623
3194,5054;0,0479361
3195,4697;0,0481043
3196,4338;0,0482563
3197,3982;0,0483882
3198,3623;0,0485043
3199,3267;0,0486129
3200,2908;0,0487224
3201,2551;0,0488372
3202,2192;0,0489585
3203,1836;0,0490865
3204,1477;0,0492223
3205,1121;0,049368
3206,0762;0,0495245
3207,0405;0,049689
3208,0046;0,0498541
3208,9690;0,05001
3209,9331;0,0501481
3210,8975;0,0502657
3211,8616;0,0503671
3212,8259;0,0504619
3213,7900;0,0505604
3214,7544;0,0506691
3215,7185;0,0507888
3216,6829;0,0509161
3217,6470;0,0510473
3218,6113;0,0511814
3219,5754;0,0513207
3220,5398;0,0514676
3221,5039;0,0516212
3222,4683;0,0517763
3223,4324;0,0519254
3224,3967;0,0520626
3225,3608;0,0521872
3226,3252;0,0523042
3227,2893;0,0524208
3228,2537;0,0525429
3229,2178;0,0526713
3230,1821;0,052803
3231,1462;0,0529343
3232,1106;0,0530645
3233,0747;0,0531977
3234,0391;0,0533403
3235,0032;0,0534962
3235,9675;0,0536631
3236,9316;0,0538321
3237,8960;0,0539917
3238,8601;0,0541339
3239,8245;0,0542582
3240,7886;0,0543715
3241,7529;0,0544842
3242,7170;0,0546043
3243,6814;0,0547348
3244,6455;0,0548736
3245,6099;0,0550165
3246,5740;0,0551608
3247,5383;0,0553059
3248,5024;0,0554528
3249,4668;0,0556021
3250,4309;0,0557535
3251,3953;0,0559061
3252,3594;0,0560591
3253,3237;0,0562118
3254,2878;0,0563641
3255,2522;0,0565162
3256,2163;0,0566693
3257,1807;0,0568258
3258,1448;0,0569889
3259,1091;0,0571607
3260,0732;0,0573405
3261,0376;0,0575241
3262,0017;0,0577046
3262,9661;0,057875
3263,9302;0,0580301
3264,8945;0,0581682
3265,8586;0,0582911
3266,8230;0,058403
3267,7871;0,058509
3268,7515;0,0586136
3269,7156;0,0587196
3270,6799;0,0588274
3271,6440;0,058935
3272,6084;0,0590389
3273,5725;0,0591349
3274,5369;0,0592196
3275,5010;0,0592909
3276,4653;0,0593494
3277,4294;0,0593983
3278,3938;0,0594431
3279,3579;0,05949
3280,3223;0,0595437
3281,2864;0,0596061
3282,2507;0,0596753
3283,2148;0,059746
3284,1792;0,0598115
3285,1433;0,0598654
3286,1077;0,0599044
3287,0718;0,0599293
3288,0361;0,0599457
3289,0002;0,0599621
3289,9646;0,0599863
3290,9287;0,0600203
3291,8931;0,0600586
3292,8572;0,0600901
3293,8215;0,0601047
3294,7856;0,0600997
3295,7500;0,0600827
3296,7141;0,0600679
3297,6785;0,0600681
3298,6426;0,0600879
3299,6069;0,060121
3300,5710;0,0601543
3301,5354;0,0601744
3302,4995;0,0601734
3303,4639;0,0601507
3304,4280;0,0601115
3305,3923;0,0600637
3306,3564;0,060015
3307,3208;0,0599717
3308,2849;0,0599386
3309,2493;0,0599191
3310,2134;0,0599155
3311,1777;0,059929
3312,1418;0,0599592
3313,1062;0,0600032
3314,0703;0,0600554
3315,0347;0,060109
3315,9988;0,0601589
3316,9631;0,0602045
3317,9272;0,0602512
3318,8916;0,0603075
3319,8557;0,06038
3320,8201;0,0604695
3321,7842;0,0605691
3322,7485;0,0606681
3323,7126;0,0607573
3324,6770;0,0608334
3325,6411;0,0608998
3326,6055;0,0609633
3327,5696;0,0610291
3328,5339;0,0610981
3329,4980;0,0611667
3330,4624;0,0612295
3331,4265;0,0612823
3332,3909;0,0613233
3333,3550;0,0613531
3334,3193;0,0613726
3335,2834;0,061382
3336,2478;0,0613794
3337,2119;0,0613618
3338,1763;0,0613258
3339,1404;0,0612697
3340,1047;0,0611944
3341,0688;0,0611039
3342,0332;0,0610041
3342,9973;0,0609003
3343,9617;0,0607948
3344,9258;0,0606859
3345,8901;0,0605691
3346,8542;0,0604394
3347,8186;0,0602944
3348,7827;0,060135
3349,7471;0,0599649
3350,7112;0,0597889
3351,6755;0,0596122
3352,6396;0,0594396
3353,6040;0,0592749
3354,5681;0,0591203
3355,5325;0,0589752
3356,4966;0,0588367
3357,4609;0,0587019
3358,4250;0,0585702
3359,3894;0,0584445
3360,3535;0,0583287
3361,3179;0,0582228
3362,2820;0,0581206
3363,2463;0,0580112
3364,2104;0,0578852
3365,1748;0,0577413
3366,1389;0,0575878
3367,1033;0,0574382
3368,0674;0,0573014
3369,0317;0,0571766
3369,9958;0,0570543
3370,9602;0,0569239
3371,9243;0,0567823
3372,8887;0,0566363
3373,8528;0,0564982
3374,8171;0,0563761
3375,7813;0,0562674
3376,7456;0,0561596
3377,7097;0,056038
3378,6741;0,0558947
3379,6382;0,0557336
3380,6025;0,0555674
3381,5667;0,055411
3382,5310;0,055274
3383,4951;0,0551582
3384,4595;0,0550589
3385,4236;0,0549675
3386,3879;0,0548752
3387,3521;0,0547741
3388,3164;0,0546593
3389,2805;0,0545301
3390,2449;0,054391
3391,2090;0,0542507
3392,1733;0,0541185
3393,1375;0,0539999
3394,1018;0,0538936
3395,0659;0,0537938
3396,0303;0,0536936
3396,9944;0,0535885
3397,9587;0,0534763
3398,9229;0,0533557
3399,8872;0,0532253
3400,8513;0,0530846
3401,8157;0,0529356
3402,7798;0,0527831
3403,7441;0,0526327
3404,7083;0,0524871
3405,6726;0,052345
3406,6367;0,0522021
3407,6011;0,0520545
3408,5652;0,0519007
3409,5295;0,0517407
3410,4937;0,0515741
3411,4580;0,0514002
3412,4221;0,0512196
3413,3865;0,0510359
3414,3506;0,0508554
3415,3149;0,0506821
3416,2791;0,050513
3417,2434;0,0503384
3418,2075;0,0501473
3419,1719;0,0499353
3420,1360;0,0497097
3421,1003;0,0494863
3422,0645;0,04928
3423,0288;0,0490965
3423,9929;0,0489303
3424,9573;0,0487702
3425,9214;0,0486061
3426,8857;0,0484333
3427,8499;0,0482525
3428,8142;0,0480681
3429,7783;0,0478842
3430,7427;0,0477036
3431,7068;0,0475267
3432,6711;0,0473519
3433,6353;0,0471765
3434,5996;0,0469975
3435,5637;0,0468131
3436,5281;0,0466233
3437,4922;0,0464299
3438,4565;0,0462362
3439,4207;0,0460463
3440,3850;0,0458637
3441,3491;0,0456888
3442,3135;0,0455168
3443,2776;0,0453381
3444,2419;0,0451414
3445,2061;0,0449215
3446,1704;0,0446847
3447,1345;0,0444484
3448,0989;0,0442315
3449,0630;0,0440419
3450,0273;0,0438721
3450,9915;0,0437046
3451,9558;0,0435239
3452,9199;0,0433261
3453,8843;0,0431212
3454,8484;0,042925
3455,8127;0,0427478
3456,7769;0,0425864
3457,7412;0,0424263
3458,7053;0,0422511
3459,6697;0,0420525
3460,6338;0,041834
3461,5981;0,0416079
3462,5623;0,0413872
3463,5266;0,0411781
3464,4907;0,0409791
3465,4551;0,0407835
3466,4192;0,0405855
3467,3835;0,0403832
3468,3477;0,04018
3469,3120;0,0399814
3470,2761;0,0397915
3471,2405;0,0396104
3472,2046;0,039435
3473,1689;0,0392613
3474,1331;0,0390867
3475,0974;0,0389107
3476,0615;0,038733
3477,0259;0,038552
3477,9900;0,0383642
3478,9543;0,0381672
3479,9185;0,0379626
3480,8828;0,0377572
3481,8469;0,0375595
3482,8113;0,0373738
3483,7754;0,0371977
3484,7397;0,0370234
3485,7039;0,0368434
3486,6682;0,0366548
3487,6323;0,0364608
3488,5967;0,0362684
3489,5608;0,0360835
3490,5251;0,035907
3491,4893;0,0357349
3492,4536;0,0355612
3493,4177;0,0353825
3494,3821;0,0352013
3495,3462;0,0350265
3496,3105;0,0348677
3497,2747;0,0347267
3498,2390;0,034592
3499,2031;0,0344416
3500,1675;0,0342536
3501,1316;0,0340213
3502,0959;0,0337638
3503,0601;0,0335189
3504,0244;0,0333192
3504,9885;0,0331695
3505,9529;0,0330447
3506,9170;0,0329074
3507,8813;0,032731
3508,8455;0,0325148
3509,8098;0,0322838
3510,7739;0,0320711
3511,7383;0,0318959
3512,7024;0,031755
3513,6667;0,0316318
3514,6309;0,0315113
3515,5952;0,0313899
3516,5593;0,0312729
3517,5237;0,0311642
3518,4878;0,031058
3519,4521;0,0309385
3520,4163;0,0307885
3521,3806;0,0306015
3522,3447;0,0303871
3523,3091;0,0301661
3524,2732;0,0299558
3525,2375;0,0297597
3526,2017;0,0295684
3527,1660;0,0293716
3528,1301;0,0291708
3529,0945;0,0289805
3530,0586;0,0288163
3531,0229;0,028682
3531,9871;0,0285644
3532,9514;0,0284407
3533,9155;0,0282929
3534,8799;0,0281204
3535,8440;0,0279439
3536,8083;0,0277952
3537,7725;0,027697
3538,7368;0,0276482
3539,7009;0,0276226
3540,6653;0,027579
3541,6294;0,0274749
3542,5938;0,0272815
3543,5579;0,0270005
3544,5222;0,0266732
3545,4863;0,026367
3546,4507;0,0261365
3547,4148;0,0259911
3548,3792;0,0258955
3549,3433;0,0257961
3550,3076;0,0256509
3551,2717;0,0254488
3552,2361;0,0252162
3553,2002;0,0250004
3554,1646;0,0248388
3555,1287;0,0247368
3556,0930;0,0246715
3557,0571;0,0246114
3558,0215;0,0245378
3558,9856;0,0244559
3559,9500;0,024388
3560,9141;0,0243517
3561,8784;0,0243358
3562,8425;0,0242922
3563,8069;0,0241461
3564,7710;0,0238324
3565,7354;0,0233578
3566,6995;0,0228397
3567,6638;0,022437
3568,6279;0,0222237
3569,5923;0,022161
3570,5564;0,0221662
3571,5208;0,0221694
3572,4849;0,0221301
3573,4492;0,0220373
3574,4133;0,0219032
3575,3777;0,0217497
3576,3418;0,0215936
3577,3062;0,0214425
3578,2703;0,0213021
3579,2346;0,0211875
3580,1987;0,0211209
3581,1631;0,0211161
3582,1272;0,0211597
3583,0916;0,0212018
3584,0557;0,0211631
3585,0200;0,020964
3585,9841;0,0205859
3586,9485;0,0201241
3587,9126;0,0197429
3588,8770;0,0195433
3589,8411;0,0195025
3590,8054;0,0195294
3591,7695;0,0195314
3592,7339;0,0194503
3593,6980;0,01928
3594,6624;0,0190623
3595,6265;0,0188502
3596,5908;0,0186632
3597,5549;0,0184816
3598,5193;0,0182814
3599,4834;0,0180721
3600,4478;0,0179026
3601,4119;0,0178257
3602,3762;0,0178541
3603,3403;0,017949
3604,3047;0,0180411
3605,2688;0,0180642
3606,2332;0,0179865
3607,1973;0,017828
3608,1616;0,0176451
3609,1257;0,0174847
3610,0901;0,0173533
3611,0542;0,0172305
3612,0186;0,0171044
3612,9827;0,0169874
3613,9470;0,0169012
3614,9111;0,0168468
3615,8755;0,0167874
3616,8396;0,0166611
3617,8040;0,0164238
3618,7681;0,0161003
3619,7324;0,0157923
3620,6965;0,0156122
3621,6609;0,0156098
3622,6250;0,015764
3623,5894;0,0160104
3624,5535;0,0162545
3625,5178;0,0163689
3626,4819;0,016215
3627,4463;0,0157384
3628,4104;0,0150935
3629,3748;0,014568
3630,3389;0,0143133
3631,3032;0,0142702
3632,2673;0,0143111
3633,2317;0,0143429
3634,1958;0,0143265
3635,1602;0,0142661
3636,1243;0,0141906
3637,0886;0,01413
3638,0527;0,0141006
3639,0171;0,0141068
3639,9812;0,0141543
3640,9456;0,0142578
3641,9097;0,0144348
3642,8740;0,0146903
3643,8381;0,0149977
3644,8025;0,0152812
3645,7666;0,0154022
3646,7310;0,0151831
3647,6951;0,0145447
3648,6594;0,0137184
3649,6235;0,0131342
3650,5879;0,0129714
3651,5520;0,0130905
3652,5164;0,013289
3653,4805;0,0134223
3654,4448;0,0134092
3655,4089;0,0132413
3656,3733;0,0129934
3657,3374;0,0127782
3658,3018;0,0126633
3659,2659;0,0126394
3660,2302;0,0126595
3661,1943;0,0126928
3662,1587;0,0127482
3663,1228;0,0128598
3664,0872;0,0130484
3665,0513;0,013288
3666,0156;0,0135024
3666,9797;0,0135945
3667,9441;0,0135119
3668,9082;0,0133206
3669,8726;0,0131823
3670,8367;0,013201
3671,8010;0,0133198
3672,7651;0,0133721
3673,7295;0,013191
3674,6936;0,0127324
3675,6580;0,0121584
3676,6221;0,0117206
3677,5864;0,0115303
3678,5505;0,0115295
3679,5149;0,0116213
3680,4790;0,0117513
3681,4434;0,0119141
3682,4075;0,0121277
3683,3718;0,0124016
3684,3359;0,0127085
3685,3003;0,0129719
3686,2644;0,0130734
3687,2288;0,0128998
3688,1929;0,012445
3689,1572;0,0118859
3690,1213;0,0114675
3691,0857;0,0112921
3692,0498;0,0113002
3693,0142;0,0113938
3693,9783;0,0115115
3694,9426;0,0116334
3695,9067;0,0117589
3696,8711;0,0118828
3697,8352;0,0119788
3698,7996;0,0120029
3699,7637;0,0119206
3700,7280;0,0117458
3701,6921;0,0115583
3702,6565;0,0114652
3703,6206;0,0115335
3704,5850;0,0117592
3705,5491;0,0120829
3706,5134;0,0124127
3707,4775;0,012636
3708,4419;0,0126387
3709,4060;0,0123676
3710,3704;0,0119182
3711,3345;0,0115182
3712,2988;0,0113443
3713,2629;0,0114011
3714,2273;0,0115918
3715,1914;0,0118193
3716,1558;0,0120183
3717,1199;0,012151
3718,0842;0,0122054
3719,0483;0,012194
3720,0127;0,012145
3720,9768;0,0120814
3721,9412;0,0120044
3722,9053;0,0119031
3723,8696;0,0117811
3724,8337;0,0116762
3725,7981;0,0116466
3726,7622;0,0117354
3727,7266;0,0119472
3728,6907;0,01225
3729,6550;0,0125848
3730,6191;0,0128699
3731,5835;0,0130045
3732,5476;0,0128938
3733,5120;0,0125169
3734,4761;0,0120045
3735,4404;0,0115979
3736,4045;0,0114675
3737,3689;0,01162
3738,3330;0,0119725
3739,2974;0,0124331
3740,2615;0,0129095
3741,2258;0,0132908
3742,1899;0,0134581
3743,1543;0,0133643
3744,1184;0,0131271
3745,0828;0,0129625
3746,0469;0,0129792
3747,0112;0,0131061
3747,9753;0,0131758
3748,9397;0,0130264
3749,9038;0,0126257
3750,8682;0,0121613
3751,8323;0,0118918
3752,7966;0,0118918
3753,7607;0,012057
3754,7251;0,0122482
3755,6892;0,0123579
3756,6536;0,0123283
3757,6177;0,0121756
3758,5820;0,0119955
3759,5461;0,0119033
3760,5105;0,0119493
3761,4746;0,0121017
3762,4390;0,0122908
3763,4031;0,0124528
3764,3674;0,0125491
3765,3315;0,0125681
3766,2959;0,0125154
3767,2600;0,0124018
3768,2244;0,0122408
3769,1885;0,0120597
3770,1528;0,0119069
3771,1169;0,0118355
3772,0813;0,0118736
3773,0454;0,0120079
3774,0098;0,0121904
3774,9739;0,012355
3775,9382;0,0124375
3776,9023;0,0124042
3777,8667;0,0122788
3778,8308;0,0121369
3779,7952;0,0120511
3780,7593;0,0120385
3781,7236;0,0120641
3782,6877;0,0120802
3783,6521;0,0120597
3784,6162;0,0120063
3785,5806;0,0119455
3786,5447;0,0119062
3787,5090;0,011907
3788,4731;0,0119551
3789,4375;0,0120483
3790,4016;0,0121769
3791,3660;0,012322
3792,3301;0,0124596
3793,2944;0,0125731
3794,2585;0,0126672
3795,2229;0,0127682
3796,1870;0,0129005
3797,1514;0,0130525
3798,1155;0,0131646
3799,0798;0,0131591
3800,0439;0,0130048
3801,0083;0,0127666
3801,9724;0,0125632
3802,9368;0,0124591
3803,9009;0,0124178
3804,8652;0,0123534
3805,8293;0,0122087
3806,7937;0,0120129
3807,7578;0,0118735
3808,7222;0,0118906
3809,6863;0,0120841
3810,6506;0,0123998
3811,6147;0,0127492
3812,5791;0,0130391
3813,5432;0,0132011
3814,5076;0,0132327
3815,4717;0,0132022
3816,4360;0,0131814
3817,4001;0,0131671
3818,3645;0,0130879
3819,3286;0,0128806
3820,2930;0,0125688
3821,2571;0,0122641
3822,2214;0,0120715
3823,1855;0,0120117
3824,1499;0,0120441
3825,1140;0,0121226
3826,0784;0,0122215
3827,0425;0,0123339
3828,0068;0,0124609
3828,9709;0,0126009
3829,9353;0,0127482
3830,8994;0,012899
3831,8638;0,0130555
3832,8279;0,013218
3833,7922;0,0133685
3834,7563;0,0134598
3835,7207;0,0134276
3836,6848;0,0132326
3837,6492;0,0129075
3838,6133;0,0125562
3839,5776;0,0122826
3840,5417;0,0121243
3841,5061;0,0120579
3842,4702;0,0120475
3843,4346;0,0120805
3844,3987;0,0121736
3845,3630;0,0123578
3846,3271;0,0126573
3847,2915;0,0130741
3848,2556;0,0135757
3849,2200;0,0140765
3850,1841;0,014414
3851,1484;0,0143647
3852,1125;0,0138013
3853,0769;0,0129523
3854,0410;0,012283
3855,0054;0,0120025
3855,9695;0,0120192
3856,9338;0,0121997
3857,8979;0,0124567
3858,8623;0,0127244
3859,8264;0,0129384
3860,7908;0,0130473
3861,7549;0,0130453
3862,7192;0,0129926
3863,6833;0,0129796
3864,6477;0,0130551
3865,6118;0,0131925
3866,5762;0,0133179
3867,5403;0,0133531
3868,5046;0,0132498
3869,4688;0,0130148
3870,4331;0,0127143
3871,3972;0,0124431
3872,3616;0,0122761
3873,3257;0,012243
3874,2900;0,012333
3875,2542;0,0125085
3876,2185;0,0127162
3877,1826;0,0128963
3878,1470;0,0130005
3879,1111;0,0130144
3880,0754;0,0129667
3881,0396;0,0129048
3882,0039;0,0128551
3882,9680;0,0128116
3883,9324;0,0127633
3884,8965;0,0127219
3885,8608;0,0127169
3886,8250;0,01276
3887,7893;0,0128214
3888,7534;0,0128414
3889,7178;0,0127685
3890,6819;0,0126093
3891,6462;0,0124499
3892,6104;0,0124007
3893,5747;0,0125109
3894,5388;0,0127481
3895,5032;0,0130411
3896,4673;0,0133162
3897,4316;0,0135158
3898,3958;0,0136088
3899,3601;0,0135917
3900,3242;0,0134713
3901,2886;0,013251
3902,2527;0,0129473
3903,2170;0,0126158
3904,1812;0,0123392
3905,1455;0,0121772
3906,1096;0,0121354
3907,0740;0,0121796
3908,0381;0,0122676
3909,0024;0,0123698
3909,9666;0,0124757
3910,9309;0,0125889
3911,8950;0,0127136
3912,8594;0,0128402
3913,8235;0,0129407
3914,7878;0,01298
3915,7520;0,0129403
3916,7163;0,0128429
3917,6804;0,0127421
3918,6448;0,0126872
3919,6089;0,0126885
3920,5732;0,0127174
3921,5374;0,0127318
3922,5017;0,0127067
3923,4658;0,0126523
3924,4302;0,0126087
3925,3943;0,012614
3926,3586;0,0126731
3927,3228;0,0127526
3928,2871;0,0128021
3929,2512;0,012782
3930,2156;0,0126868
3931,1797;0,0125521
3932,1440;0,0124334
3933,1082;0,0123702
3934,0725;0,0123702
3935,0366;0,0124211
3936,0010;0,0125075
3936,9651;0,0126153
3937,9294;0,0127266
3938,8936;0,0128166
3939,8579;0,0128601
3940,8220;0,0128473
3941,7864;0,0127947
3942,7505;0,0127387
3943,7148;0,0127099
3944,6790;0,012713
3945,6433;0,0127262
3946,6074;0,0127196
3947,5718;0,0126774
3948,5359;0,01261
3949,5002;0,0125464
3950,4644;0,0125125
3951,4287;0,0125138
3952,3928;0,0125373
3953,3572;0,0125656
3954,3213;0,0125883
3955,2856;0,0126049
3956,2498;0,0126192
3957,2141;0,0126321
3958,1782;0,0126385
3959,1426;0,0126321
3960,1067;0,0126126
3961,0710;0,0125894
3962,0352;0,0125773
3962,9995;0,0125878
3963,9636;0,0126205
3964,9280;0,0126636
3965,8921;0,0126997
3966,8564;0,0127148
3967,8206;0,0127053
3968,7849;0,0126787
3969,7490;0,0126487
3970,7134;0,0126274
3971,6775;0,0126195
3972,6418;0,0126225
3973,6060;0,0126307
3974,5703;0,0126406
3975,5344;0,0126522
3976,4988;0,0126665
3977,4629;0,0126814
3978,4272;0,0126905
3979,3914;0,0126868
3980,3557;0,0126681
3981,3198;0,0126408
3982,2842;0,0126183
3983,2483;0,0126142
3984,2126;0,0126341
3985,1768;0,012673
3986,1411;0,0127177
3987,1052;0,0127539
3988,0696;0,0127728
3989,0337;0,0127731
3989,9980;0,0127594
3990,9622;0,0127382
3991,9265;0,0127151
3992,8906;0,0126948
3993,8550;0,0126815
3994,8191;0,012679
3995,7834;0,0126878
3996,7476;0,0127037
3997,7119;0,0127181
3998,6760;0,0127231
3999,6404;0,0127161
4000,6045;0,0125824

##### Extended Information
[Comments]
Sample name
Comment
Username
Division
Organization;UNIVERSIDAD INDUSTRIAL DE SANTANDER

[Detailed Information]
Creation date;17/03/2025 2:20 p.m.

Data array type;Linear data array
Horizontal axis;Wavenumber [cm-1]
Vertical axis;Abs
Start;399,193 cm-1
End;4000,6 cm-1
Data interval;0,964233 cm-1
Data points;3736    

[Measurement Information]
Model name;FT/IR-4X1typeA
Serial No.;A035162111

Accessory;ATR PRO 4X
Accessory S/N;A021162126
Incident angle;45 deg

Measurement date;17/03/2025 2:20 p.m.

Light source;Standard
Detector;TGS
Accumulation;40
Resolution;4 cm-1
Zero filling;On
Apodization;Cosine
Gain;Auto (8)
Aperture;Auto (7 mm)
Scan speed;Auto (2 mm/sec)
Filter;Auto (12800 Hz)

