TITLE;
DATA TYPE;INFRARED SPECTRUM
ORIGIN;JASCO
OWNER;
DATE;25/03/18
TIME;13:48:06
SPECTROMETER/DATA SYSTEM;
LOCALE;9226
RESOLUTION;
DELTAX;0,964233
XUNITS;1/CM
YUNITS;ABSORBANCE
FIRSTX;  399,1927
LASTX; 4000,6047
NPOINTS;    3736
FIRSTY;     0,20088
MAXY;     0,26466
MINY;     0,01366
XYDATA
399,1927;0,200884
400,1569;0,198997
401,1211;0,196901
402,0854;0,195025
403,0496;0,193418
404,0138;0,192015
404,9781;0,190836
405,9423;0,190054
406,9065;0,189922
407,8708;0,190599
408,8350;0,191987
409,7992;0,193711
410,7635;0,195258
411,7277;0,19622
412,6919;0,196531
413,6562;0,196487
414,6204;0,196582
415,5846;0,197315
416,5489;0,199041
417,5131;0,201722
418,4773;0,204604
419,4416;0,206465
420,4058;0,206723
421,3700;0,205898
422,3343;0,204878
423,2985;0,204287
424,2627;0,204371
425,2270;0,205062
426,1912;0,20608
427,1554;0,207091
428,1197;0,20788
429,0839;0,208417
430,0481;0,208807
431,0124;0,209177
431,9766;0,209576
432,9408;0,209957
433,9051;0,210226
434,8693;0,210327
435,8335;0,210289
436,7978;0,210195
437,7620;0,210097
438,7262;0,209966
439,6905;0,209713
440,6547;0,209285
441,6189;0,208749
442,5832;0,20831
443,5474;0,208208
444,5116;0,208526
445,4759;0,209088
446,4401;0,209532
447,4043;0,2095
448,3686;0,208819
449,3328;0,207578
450,2970;0,2061
451,2613;0,204812
452,2255;0,204057
453,1897;0,203967
454,1540;0,204435
455,1182;0,205187
456,0824;0,20589
457,0467;0,206249
458,0109;0,206114
458,9751;0,205533
459,9394;0,204699
460,9036;0,203808
461,8678;0,202987
462,8321;0,202309
463,7963;0,20183
464,7605;0,201599
465,7248;0,201637
466,6890;0,201904
467,6532;0,2023
468,6175;0,202698
469,5817;0,202991
470,5459;0,203121
471,5102;0,2031
472,4744;0,202997
473,4386;0,202903
474,4029;0,202883
475,3671;0,202959
476,3313;0,203129
477,2956;0,203401
478,2598;0,203794
479,2240;0,204324
480,1883;0,204969
481,1525;0,205654
482,1167;0,20626
483,0810;0,206678
484,0452;0,206868
485,0094;0,206896
485,9737;0,206906
486,9379;0,207046
487,9021;0,207395
488,8664;0,207948
489,8306;0,208636
490,7948;0,209359
491,7591;0,210017
492,7233;0,210525
493,6875;0,210827
494,6518;0,210914
495,6160;0,210826
496,5802;0,210653
497,5445;0,210514
498,5087;0,21052
499,4729;0,210745
500,4372;0,211199
501,4014;0,211833
502,3656;0,212559
503,3299;0,213284
504,2941;0,213939
505,2583;0,214483
506,2226;0,214906
507,1868;0,215231
508,1510;0,215512
509,1153;0,215818
510,0795;0,216203
511,0437;0,216671
512,0080;0,217188
512,9722;0,217709
513,9365;0,218211
514,9007;0,218702
515,8649;0,219184
516,8292;0,21962
517,7934;0,219929
518,7576;0,220033
519,7219;0,219926
520,6861;0,219682
521,6503;0,219399
522,6146;0,219132
523,5788;0,21887
524,5430;0,218557
525,5073;0,218152
526,4715;0,217679
527,4357;0,217213
528,4000;0,21683
529,3642;0,216547
530,3284;0,216324
531,2927;0,216096
532,2569;0,215817
533,2211;0,215472
534,1854;0,215076
535,1496;0,21465
536,1138;0,214213
537,0781;0,213796
538,0423;0,213451
539,0065;0,213252
539,9708;0,21326
540,9350;0,213495
541,8992;0,213916
542,8635;0,214433
543,8277;0,214936
544,7919;0,215342
545,7562;0,215626
546,7204;0,215832
547,6846;0,216051
548,6489;0,216371
549,6131;0,21684
550,5773;0,21744
551,5416;0,218104
552,5058;0,218756
553,4700;0,219339
554,4343;0,219828
555,3985;0,220205
556,3627;0,220431
557,3270;0,22043
558,2912;0,220114
559,2554;0,219425
560,2197;0,218376
561,1839;0,217059
562,1481;0,215613
563,1124;0,214182
564,0766;0,212866
565,0408;0,211713
566,0051;0,210728
566,9693;0,20989
567,9335;0,209175
568,8978;0,208561
569,8620;0,208039
570,8262;0,207602
571,7905;0,207252
572,7547;0,206981
573,7189;0,206773
574,6832;0,206595
575,6474;0,20641
576,6116;0,206198
577,5759;0,205964
578,5401;0,205745
579,5043;0,205578
580,4686;0,205483
581,4328;0,205441
582,3970;0,205406
583,3613;0,205325
584,3255;0,205165
585,2897;0,204932
586,2540;0,204669
587,2182;0,204438
588,1824;0,204297
589,1467;0,20428
590,1109;0,204376
591,0751;0,204529
592,0394;0,204651
593,0036;0,204658
593,9678;0,204504
594,9321;0,204194
595,8963;0,203772
596,8605;0,203293
597,8248;0,202801
598,7890;0,20232
599,7532;0,201855
600,7175;0,201405
601,6817;0,200969
602,6459;0,20055
603,6102;0,200152
604,5744;0,199774
605,5386;0,199403
606,5029;0,199012
607,4671;0,198558
608,4313;0,198002
609,3956;0,197323
610,3598;0,19654
611,3240;0,195717
612,2883;0,194938
613,2525;0,194267
614,2167;0,193711
615,1810;0,193198
616,1452;0,192595
617,1094;0,191762
618,0737;0,190623
619,0379;0,189207
620,0021;0,187628
620,9664;0,18602
621,9306;0,184495
622,8948;0,183116
623,8591;0,181909
624,8233;0,180853
625,7875;0,179963
626,7518;0,179201
627,7160;0,178518
628,6802;0,177856
629,6445;0,177168
630,6087;0,176431
631,5729;0,175653
632,5372;0,174871
633,5014;0,17413
634,4656;0,173465
635,4299;0,172884
636,3941;0,172364
637,3583;0,171869
638,3226;0,171365
639,2868;0,170842
640,2510;0,170317
641,2153;0,16982
642,1795;0,169388
643,1437;0,169042
644,1080;0,168783
645,0722;0,168595
646,0364;0,168444
647,0007;0,168292
647,9649;0,168106
648,9291;0,167873
649,8934;0,167605
650,8576;0,16734
651,8218;0,167123
652,7861;0,166997
653,7503;0,166983
654,7145;0,167084
655,6788;0,167285
656,6430;0,167557
657,6072;0,167864
658,5715;0,168149
659,5357;0,168329
660,4999;0,168304
661,4642;0,16801
662,4284;0,167457
663,3926;0,166717
664,3569;0,16591
665,3211;0,165211
666,2853;0,164839
667,2496;0,164838
668,2138;0,164732
669,1780;0,163872
670,1423;0,162353
671,1065;0,160674
672,0707;0,159033
673,0350;0,157396
673,9992;0,155725
674,9634;0,154035
675,9277;0,152358
676,8919;0,150703
677,8561;0,149065
678,8204;0,147458
679,7846;0,145944
680,7488;0,144608
681,7131;0,143504
682,6773;0,142618
683,6415;0,141872
684,6058;0,141175
685,5700;0,140467
686,5342;0,139739
687,4985;0,139013
688,4627;0,138325
689,4269;0,137702
690,3912;0,137163
691,3554;0,136706
692,3196;0,136312
693,2839;0,135939
694,2481;0,135541
695,2123;0,135089
696,1766;0,134582
697,1408;0,134044
698,1050;0,133499
699,0693;0,132954
700,0335;0,132397
700,9977;0,13181
701,9620;0,131192
702,9262;0,130559
703,8904;0,12993
704,8547;0,129323
705,8189;0,128736
706,7831;0,12815
707,7474;0,127549
708,7116;0,126922
709,6758;0,126269
710,6401;0,125584
711,6043;0,124854
712,5685;0,124062
713,5328;0,123211
714,4970;0,122338
715,4612;0,121148
716,4255;0,12046
717,3897;0,119872
718,3539;0,119304
719,3182;0,118628
720,2824;0,117745
721,2466;0,11664
722,2109;0,115392
723,1751;0,114121
724,1393;0,112917
725,1036;0,111815
726,0678;0,1108
727,0320;0,10984
727,9963;0,108917
728,9605;0,108032
729,9247;0,1072
730,8890;0,106429
731,8532;0,10572
732,8174;0,105059
733,7817;0,10443
734,7459;0,10382
735,7101;0,103225
736,6744;0,102651
737,6386;0,102112
738,6028;0,10162
739,5671;0,101173
740,5313;0,100749
741,4955;0,10031
742,4598;0,0998176
743,4240;0,0992585
744,3882;0,0986509
745,3525;0,0980395
746,3167;0,0974715
747,2809;0,0969723
748,2452;0,0965338
749,2094;0,0961238
750,1736;0,0957072
751,1379;0,0952665
752,1021;0,0948066
753,0663;0,0943456
754,0306;0,0938981
754,9948;0,0934651
755,9590;0,0930365
756,9233;0,0926007
757,8875;0,0921555
758,8517;0,0917105
759,8160;0,0912829
760,7802;0,0908895
761,7444;0,0905403
762,7087;0,0902351
763,6729;0,089962
764,6371;0,0896982
765,6014;0,0894155
766,5656;0,0890902
767,5298;0,0887158
768,4941;0,0883091
769,4583;0,0879059
770,4225;0,0875448
771,3868;0,0872495
772,3510;0,0870183
773,3152;0,0868292
774,2795;0,0866538
775,2437;0,0864723
776,2079;0,0862794
777,1722;0,0860781
778,1364;0,0858691
779,1006;0,0856434
780,0649;0,0853822
781,0291;0,0850649
781,9933;0,0846786
782,9576;0,084224
783,9218;0,0837161
784,8860;0,0831793
785,8503;0,0826406
786,8145;0,0821234
787,7787;0,0816442
788,7430;0,0812116
789,7072;0,0808273
790,6714;0,0804873
791,6357;0,0801833
792,5999;0,0799044
793,5641;0,0796402
794,5284;0,0793848
795,4926;0,0791388
796,4568;0,0789066
797,4211;0,078691
798,3853;0,0784881
799,3495;0,0782875
800,3138;0,0780795
801,2780;0,0778636
802,2422;0,0776517
803,2065;0,0774611
804,1707;0,077302
805,1349;0,0771701
806,0992;0,0770484
807,0634;0,0769201
808,0276;0,0767802
808,9919;0,076638
809,9561;0,0765092
810,9203;0,0764042
811,8846;0,0763228
812,8488;0,0762568
813,8130;0,0761974
814,7773;0,07614
815,7415;0,0760826
816,7057;0,0760226
817,6700;0,0759559
818,6342;0,0758803
819,5984;0,075798
820,5627;0,0757139
821,5269;0,0756302
822,4911;0,0755419
823,4554;0,0754382
824,4196;0,0753101
825,3839;0,0751576
826,3481;0,0749898
827,3123;0,0748182
828,2766;0,0746492
829,2408;0,0744816
830,2050;0,0743103
831,1693;0,0741319
832,1335;0,0739468
833,0977;0,0737556
834,0620;0,0735553
835,0262;0,0733383
835,9904;0,0730972
836,9547;0,07283
837,9189;0,0725424
838,8831;0,0722448
839,8474;0,0719476
840,8116;0,0716591
841,7758;0,071386
842,7401;0,0711356
843,7043;0,0709147
844,6685;0,0707262
845,6328;0,0705645
846,5970;0,0704159
847,5612;0,0702641
848,5255;0,0700983
849,4897;0,0699199
850,4539;0,0697417
851,4182;0,0695813
852,3824;0,0694522
853,3466;0,0693569
854,3109;0,0692865
855,2751;0,0692263
856,2393;0,0691637
857,2036;0,0690933
858,1678;0,0690177
859,1320;0,0689439
860,0963;0,0688783
861,0605;0,0688252
862,0247;0,0687883
862,9890;0,0687752
863,9532;0,0687987
864,9174;0,0688743
865,8817;0,0690132
866,8459;0,0692163
867,8101;0,0694716
868,7744;0,0697597
869,7386;0,0700608
870,7028;0,070363
871,6671;0,0706634
872,6313;0,0709649
873,5955;0,0712701
874,5598;0,0715774
875,5240;0,0718823
876,4882;0,0721819
877,4525;0,0724811
878,4167;0,0727942
879,3809;0,0731419
880,3452;0,0735445
881,3094;0,0740157
882,2736;0,0745597
883,2379;0,0751728
884,2021;0,0758477
885,1663;0,0765781
886,1306;0,0773605
887,0948;0,0781936
888,0590;0,0790746
889,0233;0,0799953
889,9875;0,0809376
890,9517;0,081872
891,9160;0,0827591
892,8802;0,0835559
893,8444;0,0842239
894,8087;0,0847361
895,7729;0,0850784
896,7371;0,0852459
897,7014;0,0852376
898,6656;0,0850542
899,6298;0,084703
900,5941;0,0842041
901,5583;0,0835947
902,5225;0,082924
903,4868;0,0822417
904,4510;0,0815855
905,4152;0,0809771
906,3795;0,0804248
907,3437;0,0799334
908,3079;0,0795094
909,2722;0,0791613
910,2364;0,0788947
911,2007;0,078708
912,1649;0,0785939
913,1292;0,0785445
914,0934;0,0785562
915,0576;0,0786311
916,0219;0,0787722
916,9861;0,0789781
917,9503;0,0792399
918,9146;0,0795429
919,8788;0,079872
920,8430;0,0802158
921,8073;0,0805675
922,7715;0,0809231
923,7357;0,0812781
924,7000;0,0816256
925,6642;0,0819581
926,6284;0,0822706
927,5927;0,0825637
928,5569;0,0828437
929,5211;0,08312
930,4854;0,0833996
931,4496;0,0836856
932,4138;0,0839783
933,3781;0,084282
934,3423;0,0846096
935,3065;0,0849839
936,2708;0,0854301
937,2350;0,0859656
938,1992;0,0865925
939,1635;0,087299
940,1277;0,0880679
941,0919;0,0888897
942,0562;0,0897697
943,0204;0,0907256
943,9846;0,0917779
944,9489;0,0929375
945,9131;0,0941992
946,8773;0,0955428
947,8416;0,096941
948,8058;0,0983703
949,7700;0,0998179
950,7343;0,101284
951,6985;0,102776
952,6627;0,104305
953,6270;0,105877
954,5912;0,107492
955,5554;0,109147
956,5197;0,110842
957,4839;0,112577
958,4481;0,114359
959,4124;0,116191
960,3766;0,118069
961,3408;0,119988
962,3051;0,12194
963,2693;0,123917
964,2335;0,125919
965,1978;0,127949
966,1620;0,130016
967,1262;0,132137
968,0905;0,134336
969,0547;0,136642
970,0189;0,139085
970,9832;0,141688
971,9474;0,144469
972,9116;0,147439
973,8759;0,150613
974,8401;0,15401
975,8043;0,157647
976,7686;0,161522
977,7328;0,165606
978,6970;0,169831
979,6613;0,1741
980,6255;0,178296
981,5897;0,1823
982,5540;0,186008
983,5182;0,189349
984,4824;0,192295
985,4467;0,194867
986,4109;0,197118
987,3751;0,199116
988,3394;0,200922
989,3036;0,202571
990,2678;0,204076
991,2321;0,205437
992,1963;0,206654
993,1605;0,207729
994,1248;0,208674
995,0890;0,209502
996,0532;0,210231
997,0175;0,210882
997,9817;0,211485
998,9459;0,212074
999,9102;0,212689
1000,8744;0,213374
1001,8386;0,214176
1002,8029;0,215144
1003,7671;0,216317
1004,7313;0,217722
1005,6956;0,219363
1006,6598;0,221227
1007,6240;0,223295
1008,5883;0,225542
1009,5525;0,227947
1010,5167;0,230489
1011,4810;0,233138
1012,4452;0,235848
1013,4094;0,238564
1014,3737;0,241225
1015,3379;0,243771
1016,3021;0,24616
1017,2664;0,248368
1018,2306;0,250395
1019,1948;0,252255
1020,1591;0,253969
1021,1233;0,255558
1022,0875;0,257036
1023,0518;0,258411
1024,0160;0,259687
1024,9802;0,260864
1025,9445;0,26194
1026,9087;0,262899
1027,8729;0,26371
1028,8372;0,264322
1029,8014;0,26466
1030,7656;0,264637
1031,7299;0,264159
1032,6941;0,263151
1033,6583;0,261583
1034,6226;0,25949
1035,5868;0,256988
1036,5510;0,254254
1037,5153;0,251506
1038,4795;0,248957
1039,4437;0,246786
1040,4080;0,245108
1041,3722;0,243969
1042,3364;0,243338
1043,3007;0,243124
1044,2649;0,243193
1045,2291;0,243391
1046,1934;0,243582
1047,1576;0,24366
1048,1218;0,243557
1049,0861;0,243234
1050,0503;0,242657
1051,0145;0,241793
1051,9788;0,240616
1052,9430;0,23912
1053,9072;0,237326
1054,8715;0,235276
1055,8357;0,232996
1056,7999;0,230475
1057,7642;0,227652
1058,7284;0,224448
1059,6926;0,220817
1060,6569;0,216788
1061,6211;0,21248
1062,5853;0,208078
1063,5496;0,203778
1064,5138;0,19973
1065,4780;0,196016
1066,4423;0,192641
1067,4065;0,189563
1068,3707;0,18672
1069,3350;0,18405
1070,2992;0,181508
1071,2634;0,179056
1072,2277;0,17666
1073,1919;0,174281
1074,1561;0,171879
1075,1204;0,169421
1076,0846;0,166893
1077,0488;0,164313
1078,0131;0,161731
1078,9773;0,159224
1079,9415;0,156876
1080,9058;0,154763
1081,8700;0,152933
1082,8342;0,151405
1083,7985;0,150167
1084,7627;0,149183
1085,7269;0,148404
1086,6912;0,147778
1087,6554;0,147262
1088,6196;0,146829
1089,5839;0,146471
1090,5481;0,146194
1091,5123;0,146014
1092,4766;0,145942
1093,4408;0,145979
1094,4050;0,146114
1095,3693;0,146326
1096,3335;0,146589
1097,2977;0,146881
1098,2620;0,147183
1099,2262;0,147477
1100,1904;0,147742
1101,1547;0,147953
1102,1189;0,148083
1103,0831;0,148111
1104,0474;0,148036
1105,0116;0,147874
1105,9758;0,147654
1106,9401;0,147398
1107,9043;0,147103
1108,8685;0,146726
1109,8328;0,146192
1110,7970;0,145413
1111,7612;0,144323
1112,7255;0,142902
1113,6897;0,141196
1114,6539;0,139305
1115,6182;0,137356
1116,5824;0,135471
1117,5466;0,133733
1118,5109;0,132164
1119,4751;0,130729
1120,4393;0,129348
1121,4036;0,127925
1122,3678;0,126369
1123,3320;0,124613
1124,2963;0,122624
1125,2605;0,120404
1126,2247;0,117985
1127,1890;0,11542
1128,1532;0,112772
1129,1174;0,110104
1130,0817;0,107466
1131,0459;0,104893
1132,0101;0,102407
1132,9744;0,10003
1133,9386;0,0977943
1134,9028;0,095744
1135,8671;0,0939324
1136,8313;0,0924089
1137,7955;0,0912068
1138,7598;0,0903371
1139,7240;0,0897888
1140,6882;0,0895348
1141,6525;0,0895386
1142,6167;0,0897594
1143,5809;0,0901546
1144,5452;0,0906831
1145,5094;0,0913078
1146,4736;0,0919995
1147,4379;0,0927385
1148,4021;0,0935126
1149,3663;0,094312
1150,3306;0,0951219
1151,2948;0,095918
1152,2590;0,0966662
1153,2233;0,0973266
1154,1875;0,0978598
1155,1517;0,0982292
1156,1160;0,0983989
1157,0802;0,0983281
1158,0444;0,0979655
1159,0087;0,0972505
1159,9729;0,0961204
1160,9371;0,0945248
1161,9014;0,0924412
1162,8656;0,0898867
1163,8298;0,086923
1164,7941;0,0836525
1165,7583;0,0802057
1166,7225;0,0767235
1167,6868;0,0733363
1168,6510;0,0701473
1169,6152;0,0672222
1170,5795;0,0645898
1171,5437;0,0622507
1172,5079;0,06019
1173,4722;0,0583881
1174,4364;0,0568263
1175,4006;0,0554862
1176,3649;0,0543472
1177,3291;0,053385
1178,2933;0,0525728
1179,2576;0,0518847
1180,2218;0,0512998
1181,1860;0,0508044
1182,1503;0,0503912
1183,1145;0,0500571
1184,0787;0,0498006
1185,0430;0,0496205
1186,0072;0,0495162
1186,9714;0,0494893
1187,9357;0,0495444
1188,8999;0,0496885
1189,8641;0,0499282
1190,8284;0,0502666
1191,7926;0,0507012
1192,7568;0,0512234
1193,7211;0,0518203
1194,6853;0,0524759
1195,6495;0,0531734
1196,6138;0,0538962
1197,5780;0,0546291
1198,5422;0,0553593
1199,5065;0,0558622
1200,4707;0,0565864
1201,4349;0,0572866
1202,3992;0,0579545
1203,3634;0,0585798
1204,3276;0,0591522
1205,2919;0,0596655
1206,2561;0,0601218
1207,2203;0,060534
1208,1846;0,0609253
1209,1488;0,061325
1210,1130;0,0617632
1211,0773;0,0622655
1212,0415;0,0628492
1213,0057;0,0635212
1213,9700;0,0642777
1214,9342;0,0651048
1215,8984;0,0659817
1216,8627;0,0668823
1217,8269;0,0677807
1218,7911;0,0686589
1219,7554;0,0695076
1220,7196;0,0703252
1221,6838;0,0711126
1222,6481;0,071868
1223,6123;0,0725849
1224,5765;0,0732547
1225,5408;0,0738709
1226,5050;0,0744327
1227,4692;0,0749456
1228,4335;0,0754173
1229,3977;0,0758524
1230,3619;0,0762493
1231,3262;0,0765993
1232,2904;0,0768901
1233,2546;0,0771112
1234,2189;0,0772583
1235,1831;0,0773366
1236,1473;0,0773601
1237,1116;0,0773473
1238,0758;0,0773157
1239,0400;0,0772764
1240,0043;0,077232
1240,9685;0,0771775
1241,9327;0,0771037
1242,8970;0,0770006
1243,8612;0,0768595
1244,8254;0,076675
1245,7897;0,0764448
1246,7539;0,0761712
1247,7181;0,0758613
1248,6824;0,0755256
1249,6466;0,0751762
1250,6108;0,0748245
1251,5751;0,0744796
1252,5393;0,0741489
1253,5035;0,0738384
1254,4678;0,073552
1255,4320;0,073289
1256,3962;0,0730421
1257,3605;0,0727979
1258,3247;0,0725401
1259,2889;0,0722544
1260,2532;0,0719329
1261,2174;0,0715745
1262,1816;0,0711821
1263,1459;0,0707594
1264,1101;0,0703099
1265,0743;0,0698371
1266,0386;0,0693445
1267,0028;0,0688346
1267,9670;0,0683057
1268,9313;0,0677512
1269,8955;0,067162
1270,8597;0,0665322
1271,8240;0,065864
1272,7882;0,0651703
1273,7524;0,0644715
1274,7167;0,0637904
1275,6809;0,0631458
1276,6451;0,0625484
1277,6094;0,0619967
1278,5736;0,061477
1279,5378;0,0609673
1280,5021;0,0604458
1281,4663;0,0599006
1282,4305;0,0593359
1283,3948;0,0587706
1284,3590;0,0582313
1285,3232;0,057743
1286,2875;0,0573229
1287,2517;0,056979
1288,2159;0,0567122
1289,1802;0,0565194
1290,1444;0,0563969
1291,1086;0,0563417
1292,0729;0,0563532
1293,0371;0,0564334
1294,0013;0,0565863
1294,9656;0,056815
1295,9298;0,0571192
1296,8940;0,0574944
1297,8583;0,0579348
1298,8225;0,0584358
1299,7867;0,0589963
1300,7510;0,0596158
1301,7152;0,0602948
1302,6794;0,0610286
1303,6437;0,0618092
1304,6079;0,0626295
1305,5721;0,0634846
1306,5364;0,064372
1307,5006;0,0652909
1308,4648;0,0662399
1309,4291;0,0672139
1310,3933;0,0682001
1311,3575;0,0691743
1312,3218;0,0701012
1313,2860;0,07094
1314,2502;0,0716526
1315,2145;0,0722098
1316,1787;0,0725904
1317,1429;0,07278
1318,1072;0,072775
1319,0714;0,0725918
1320,0356;0,072272
1320,9999;0,0718745
1321,9641;0,0714576
1322,9283;0,0710638
1323,8926;0,0707155
1324,8568;0,0704203
1325,8210;0,0701768
1326,7853;0,0699787
1327,7495;0,0698152
1328,7137;0,0696704
1329,6780;0,0695237
1330,6422;0,0693549
1331,6064;0,0691514
1332,5707;0,0689118
1333,5349;0,0686464
1334,4991;0,0683664
1335,4634;0,0680709
1336,4276;0,0677349
1337,3918;0,0673064
1338,3561;0,0667275
1339,3203;0,0659831
1340,2845;0,0651375
1341,2488;0,0643048
1342,2130;0,0635801
1343,1772;0,0630009
1344,1415;0,0625621
1345,1057;0,0622443
1346,0699;0,0620311
1347,0342;0,061912
1347,9984;0,061882
1348,9626;0,0619395
1349,9269;0,0620827
1350,8911;0,062305
1351,8553;0,0625916
1352,8196;0,0629212
1353,7838;0,0632733
1354,7480;0,0636361
1355,7123;0,0640123
1356,6765;0,0644152
1357,6407;0,0648592
1358,6050;0,0653524
1359,5692;0,0658897
1360,5334;0,0664418
1361,4977;0,0669512
1362,4619;0,0673649
1363,4261;0,0676867
1364,3904;0,0679762
1365,3546;0,0682888
1366,3188;0,0686348
1367,2831;0,0689854
1368,2473;0,0692966
1369,2115;0,0695297
1370,1758;0,0696615
1371,1400;0,0696802
1372,1042;0,0695733
1373,0685;0,06932
1374,0327;0,0689059
1374,9969;0,0683499
1375,9612;0,0677042
1376,9254;0,0670095
1377,8896;0,0662641
1378,8539;0,0654442
1379,8181;0,0645504
1380,7823;0,0636295
1381,7466;0,0627511
1382,7108;0,0619596
1383,6750;0,0612475
1384,6393;0,0605682
1385,6035;0,0598714
1386,5677;0,0591436
1387,5320;0,0584396
1388,4962;0,0578589
1389,4604;0,0574624
1390,4247;0,0572307
1391,3889;0,0571105
1392,3531;0,0570737
1393,3174;0,0571248
1394,2816;0,0572621
1395,2458;0,0574428
1396,2101;0,0575999
1397,1743;0,0576926
1398,1385;0,0577378
1399,1028;0,0577948
1400,0670;0,0579226
1401,0313;0,0581449
1401,9955;0,0584461
1402,9597;0,0587915
1403,9240;0,0591503
1404,8882;0,0595093
1405,8524;0,0598771
1406,8167;0,0602742
1407,7809;0,0607135
1408,7451;0,0611932
1409,7094;0,0617096
1410,6736;0,0622695
1411,6378;0,0628824
1412,6021;0,0635416
1413,5663;0,064213
1414,5305;0,0648496
1415,4948;0,0654197
1416,4590;0,0659152
1417,4232;0,0663256
1418,3875;0,0666283
1419,3517;0,066846
1420,3159;0,0670535
1421,2802;0,0672664
1422,2444;0,0673946
1423,2086;0,0673266
1424,1729;0,0670198
1425,1371;0,0665158
1426,1013;0,0658885
1427,0656;0,0651806
1428,0298;0,0643857
1428,9940;0,0634861
1429,9583;0,0625065
1430,9225;0,0615159
1431,8867;0,060561
1432,8510;0,0596115
1433,8152;0,0585859
1434,7794;0,0574251
1435,7437;0,0561692
1436,7079;0,0550061
1437,6721;0,054198
1438,6364;0,053863
1439,6006;0,0538818
1440,5648;0,0540412
1441,5291;0,0541999
1442,4933;0,0543334
1443,4575;0,0544897
1444,4218;0,0547196
1445,3860;0,0550324
1446,3502;0,055396
1447,3145;0,0557716
1448,2787;0,0561496
1449,2429;0,0565509
1450,2072;0,0569831
1451,1714;0,0573971
1452,1356;0,0577042
1453,0999;0,0578442
1454,0641;0,0578454
1455,0283;0,0577982
1455,9926;0,0576863
1456,9568;0,0573055
1457,9210;0,0566988
1458,8853;0,0562993
1459,8495;0,0562659
1460,8137;0,0563566
1461,7780;0,0562852
1462,7422;0,0558964
1463,7064;0,0551598
1464,6707;0,0541538
1465,6349;0,0530654
1466,5991;0,0520829
1467,5634;0,0512349
1468,5276;0,0504009
1469,4918;0,0494481
1470,4561;0,0483095
1471,4203;0,0469555
1472,3845;0,04536
1473,3488;0,0436027
1474,3130;0,0419508
1475,2772;0,0406475
1476,2415;0,039716
1477,2057;0,0390416
1478,1699;0,0385089
1479,1342;0,0380492
1480,0984;0,0376323
1481,0626;0,0372559
1482,0269;0,0369411
1482,9911;0,0367215
1483,9553;0,0366249
1484,9196;0,0366667
1485,8838;0,0368564
1486,8480;0,0371868
1487,8123;0,0375777
1488,7765;0,0378604
1489,7407;0,0379443
1490,7050;0,0379623
1491,6692;0,0380958
1492,6334;0,0383886
1493,5977;0,0388042
1494,5619;0,0393398
1495,5261;0,0400384
1496,4904;0,0409062
1497,4546;0,0418556
1498,4188;0,0427931
1499,3831;0,0436963
1500,3473;0,0445282
1501,3115;0,045179
1502,2758;0,0455448
1503,2400;0,0456418
1504,2042;0,0456733
1505,1685;0,0459467
1506,1327;0,0464647
1507,0969;0,0466071
1508,0612;0,046057
1509,0254;0,0453611
1509,9896;0,0448866
1510,9539;0,0445478
1511,9181;0,0441944
1512,8823;0,0437816
1513,8466;0,043337
1514,8108;0,0428834
1515,7750;0,0423977
1516,7393;0,0418335
1517,7035;0,04117
1518,6677;0,0404307
1519,6320;0,039666
1520,5962;0,0389344
1521,5604;0,0382994
1522,5247;0,0378143
1523,4889;0,0374784
1524,4531;0,0372299
1525,4174;0,0370034
1526,3816;0,0367883
1527,3458;0,0366214
1528,3101;0,0365313
1529,2743;0,0365056
1530,2385;0,0365187
1531,2028;0,0365702
1532,1670;0,0366782
1533,1312;0,0368388
1534,0955;0,0370143
1535,0597;0,0371456
1536,0239;0,0371756
1536,9882;0,0371189
1537,9524;0,0371469
1538,9166;0,0375336
1539,8809;0,0382803
1540,8451;0,0388118
1541,8093;0,0387333
1542,7736;0,0384005
1543,7378;0,0381696
1544,7020;0,0380841
1545,6663;0,038104
1546,6305;0,0382122
1547,5947;0,0383907
1548,5590;0,0385992
1549,5232;0,0387935
1550,4874;0,038959
1551,4517;0,039117
1552,4159;0,03929
1553,3801;0,0394563
1554,3444;0,0395519
1555,3086;0,0395328
1556,2728;0,0394221
1557,2371;0,0392044
1558,2013;0,0386687
1559,1655;0,0379118
1560,1298;0,0377238
1561,0940;0,0384261
1562,0582;0,0395827
1563,0225;0,0407066
1563,9867;0,0415612
1564,9509;0,0421195
1565,9152;0,0424697
1566,8794;0,0427381
1567,8436;0,0430285
1568,8079;0,043391
1569,7721;0,0438343
1570,7363;0,044341
1571,7006;0,0448602
1572,6648;0,0453392
1573,6290;0,0457882
1574,5933;0,0462895
1575,5575;0,046904
1576,5217;0,0475972
1577,4860;0,0483292
1578,4502;0,0491187
1579,4144;0,0499569
1580,3787;0,0507962
1581,3429;0,0516136
1582,3071;0,0524279
1583,2714;0,0532691
1584,2356;0,0541494
1585,1998;0,0550619
1586,1641;0,0559902
1587,1283;0,0569124
1588,0925;0,0577997
1589,0568;0,0586171
1590,0210;0,0593301
1590,9852;0,0599092
1591,9495;0,0603286
1592,9137;0,0605626
1593,8779;0,0605928
1594,8422;0,0604251
1595,8064;0,0601023
1596,7706;0,0596937
1597,7349;0,0592679
1598,6991;0,0588683
1599,6633;0,0585065
1600,6276;0,0581712
1601,5918;0,0578458
1602,5560;0,0575264
1603,5203;0,0572267
1604,4845;0,0569637
1605,4487;0,0567377
1606,4130;0,0565248
1607,3772;0,056292
1608,3414;0,0560263
1609,3057;0,0557567
1610,2699;0,0555351
1611,2341;0,0553829
1612,1984;0,0552681
1613,1626;0,0551417
1614,1268;0,0549869
1615,0911;0,0548207
1616,0553;0,0546738
1617,0195;0,0546146
1617,9838;0,0547346
1618,9480;0,0550278
1619,9122;0,0553684
1620,8765;0,0556277
1621,8407;0,0557541
1622,8049;0,0557673
1623,7692;0,0557218
1624,7334;0,0556754
1625,6976;0,0556579
1626,6619;0,0556649
1627,6261;0,0556882
1628,5903;0,0557356
1629,5546;0,055808
1630,5188;0,0558686
1631,4830;0,0558614
1632,4473;0,0557754
1633,4115;0,0556801
1634,3757;0,0556474
1635,3400;0,0556115
1636,3042;0,0554697
1637,2684;0,055332
1638,2327;0,0553557
1639,1969;0,0555133
1640,1611;0,0556802
1641,1254;0,0557637
1642,0896;0,0557392
1643,0538;0,0556477
1644,0181;0,0555743
1644,9823;0,0555741
1645,9465;0,0555737
1646,9108;0,055438
1647,8750;0,0551437
1648,8392;0,0547058
1649,8035;0,0540647
1650,7677;0,0531754
1651,7319;0,0520703
1652,6962;0,0507924
1653,6604;0,0495715
1654,6246;0,0489827
1655,5889;0,0491764
1656,5531;0,0496796
1657,5173;0,0500149
1658,4816;0,0499806
1659,4458;0,0495956
1660,4100;0,0489749
1661,3743;0,0482375
1662,3385;0,0474925
1663,3027;0,0468525
1664,2670;0,0463781
1665,2312;0,046029
1666,1954;0,0457106
1667,1597;0,0453412
1668,1239;0,0448634
1669,0881;0,0442402
1670,0524;0,0434994
1671,0166;0,0427384
1671,9808;0,0420081
1672,9451;0,0412582
1673,9093;0,0404372
1674,8735;0,0396087
1675,8378;0,0389553
1676,8020;0,0386401
1677,7662;0,038643
1678,7305;0,0387616
1679,6947;0,0387575
1680,6589;0,0384815
1681,6232;0,0378909
1682,5874;0,0369835
1683,5516;0,0358096
1684,5159;0,0346658
1685,4801;0,0339738
1686,4443;0,0337986
1687,4086;0,0338535
1688,3728;0,0338418
1689,3370;0,0336259
1690,3013;0,0332141
1691,2655;0,0326919
1692,2297;0,0321652
1693,1940;0,0317327
1694,1582;0,0314638
1695,1224;0,0313552
1696,0867;0,0312852
1697,0509;0,0310416
1698,0151;0,0304705
1698,9794;0,0296625
1699,9436;0,0289641
1700,9078;0,0287188
1701,8721;0,0289874
1702,8363;0,0295467
1703,8005;0,0300901
1704,7648;0,0304037
1705,7290;0,030442
1706,6932;0,0303188
1707,6575;0,0302197
1708,6217;0,0302745
1709,5859;0,0304969
1710,5502;0,0308249
1711,5144;0,0311932
1712,4786;0,0315715
1713,4429;0,0319586
1714,4071;0,0323369
1715,3713;0,0325984
1716,3356;0,0325451
1717,2998;0,0321386
1718,2640;0,0317049
1719,2283;0,0315982
1720,1925;0,0318423
1721,1567;0,0322383
1722,1210;0,0325948
1723,0852;0,032828
1724,0494;0,0329601
1725,0137;0,0330767
1725,9779;0,0332672
1726,9421;0,0335692
1727,9064;0,0339437
1728,8706;0,0342938
1729,8348;0,034511
1730,7991;0,0345183
1731,7633;0,0342859
1732,7275;0,0338428
1733,6918;0,0333288
1734,6560;0,0329859
1735,6202;0,0329487
1736,5845;0,0331069
1737,5487;0,0332444
1738,5129;0,0332216
1739,4772;0,0330338
1740,4414;0,0327717
1741,4056;0,0325417
1742,3699;0,0323944
1743,3341;0,0323036
1744,2983;0,0322025
1745,2626;0,0320294
1746,2268;0,0317398
1747,1910;0,0312814
1748,1553;0,0305764
1749,1195;0,0295784
1750,0837;0,0283915
1751,0480;0,0272716
1752,0122;0,0264313
1752,9764;0,0258919
1753,9407;0,025533
1754,9049;0,0252173
1755,8691;0,0248653
1756,8334;0,0244626
1757,7976;0,0240288
1758,7618;0,0235792
1759,7261;0,0231103
1760,6903;0,0226176
1761,6545;0,0221262
1762,6188;0,0216935
1763,5830;0,0213705
1764,5472;0,0211616
1765,5115;0,0210284
1766,4757;0,0209274
1767,4399;0,020838
1768,4042;0,0207602
1769,3684;0,0206865
1770,3326;0,020575
1771,2969;0,0203624
1772,2611;0,0200405
1773,2253;0,0197132
1774,1896;0,0195156
1775,1538;0,0194857
1776,1180;0,0195543
1777,0823;0,0196268
1778,0465;0,0196435
1779,0107;0,0195879
1779,9750;0,0194672
1780,9392;0,0192963
1781,9034;0,0190944
1782,8677;0,0188894
1783,8319;0,0187205
1784,7961;0,0186299
1785,7604;0,0186395
1786,7246;0,0187302
1787,6888;0,0188509
1788,6531;0,0189532
1789,6173;0,0190195
1790,5815;0,0190536
1791,5458;0,0190536
1792,5100;0,0190238
1793,4742;0,0190078
1794,4385;0,0190476
1795,4027;0,0191225
1796,3669;0,0191713
1797,3312;0,0191521
1798,2954;0,019066
1799,2596;0,0189391
1800,2239;0,0187981
1801,1881;0,0186624
1802,1523;0,0185486
1803,1166;0,0184689
1804,0808;0,018428
1805,0450;0,0184257
1806,0093;0,0184603
1806,9735;0,0185263
1807,9377;0,0186067
1808,9020;0,0186689
1809,8662;0,0186744
1810,8304;0,0186041
1811,7947;0,0184761
1812,7589;0,0183328
1813,7231;0,018212
1814,6874;0,0181309
1815,6516;0,0180901
1816,6158;0,0180809
1817,5801;0,0180918
1818,5443;0,0181142
1819,5085;0,0181443
1820,4728;0,0181809
1821,4370;0,0182235
1822,4012;0,0182722
1823,3655;0,018328
1824,3297;0,0183925
1825,2939;0,0184693
1826,2582;0,018559
1827,2224;0,018647
1828,1866;0,0186971
1829,1509;0,0186651
1830,1151;0,0185386
1831,0793;0,0183648
1832,0436;0,0182175
1833,0078;0,0181364
1833,9720;0,0181127
1834,9363;0,0181205
1835,9005;0,0181423
1836,8647;0,0181715
1837,8290;0,0182051
1838,7932;0,0182349
1839,7574;0,0182481
1840,7217;0,0182413
1841,6859;0,0182313
1842,6501;0,0182401
1843,6144;0,018261
1844,5786;0,0182627
1845,5428;0,0182299
1846,5071;0,0181715
1847,4713;0,0180926
1848,4355;0,0179931
1849,3998;0,0178881
1850,3640;0,0178097
1851,3282;0,0177852
1852,2925;0,0178146
1853,2567;0,01787
1854,2209;0,017916
1855,1852;0,0179336
1856,1494;0,017927
1857,1136;0,0179153
1858,0779;0,017915
1859,0421;0,0179311
1860,0063;0,0179621
1860,9706;0,0180102
1861,9348;0,0180844
1862,8990;0,0181941
1863,8633;0,0183396
1864,8275;0,0185103
1865,7917;0,0186833
1866,7560;0,0188162
1867,7202;0,0188494
1868,6844;0,0187498
1869,6487;0,0185605
1870,6129;0,0183714
1871,5771;0,0182375
1872,5414;0,0181525
1873,5056;0,0180859
1874,4698;0,0180203
1875,4341;0,0179589
1876,3983;0,0179139
1877,3625;0,0178908
1878,3268;0,0178845
1879,2910;0,0178842
1880,2552;0,0178844
1881,2195;0,0178913
1882,1837;0,0179199
1883,1479;0,0179832
1884,1122;0,0180816
1885,0764;0,0182004
1886,0406;0,0183147
1887,0049;0,0183981
1887,9691;0,0184305
1888,9333;0,0184072
1889,8976;0,0183462
1890,8618;0,0182822
1891,8260;0,0182455
1892,7903;0,0182442
1893,7545;0,018263
1894,7188;0,0182751
1895,6830;0,018257
1896,6472;0,0182023
1897,6115;0,0181239
1898,5757;0,0180455
1899,5399;0,0179886
1900,5042;0,0179654
1901,4684;0,0179784
1902,4326;0,0180237
1903,3969;0,0180935
1904,3611;0,0181789
1905,3253;0,0182702
1906,2896;0,0183578
1907,2538;0,0184328
1908,2180;0,0184887
1909,1823;0,0185228
1910,1465;0,0185377
1911,1107;0,018539
1912,0750;0,0185302
1913,0392;0,0185111
1914,0034;0,0184846
1914,9677;0,0184631
1915,9319;0,0184663
1916,8961;0,0185092
1917,8604;0,0185928
1918,8246;0,0187032
1919,7888;0,0188158
1920,7531;0,0189007
1921,7173;0,0189301
1922,6815;0,0188877
1923,6458;0,0187785
1924,6100;0,0186294
1925,5742;0,018478
1926,5385;0,018353
1927,5027;0,0182639
1928,4669;0,0182035
1929,4312;0,018157
1930,3954;0,0181142
1931,3596;0,0180777
1932,3239;0,0180603
1933,2881;0,0180728
1934,2523;0,0181113
1935,2166;0,0181551
1936,1808;0,0181798
1937,1450;0,0181798
1938,1093;0,0181804
1939,0735;0,0182312
1940,0377;0,0183772
1941,0020;0,018621
1941,9662;0,0189014
1942,9304;0,0191178
1943,8947;0,0191916
1944,8589;0,019111
1945,8231;0,0189235
1946,7874;0,018697
1947,7516;0,0184892
1948,7158;0,0183384
1949,6801;0,0182691
1950,6443;0,0182969
1951,6085;0,0184235
1952,5728;0,0186232
1953,5370;0,0188369
1954,5012;0,0189875
1955,4655;0,0190159
1956,4297;0,0189174
1957,3939;0,0187498
1958,3582;0,0186022
1959,3224;0,0185419
1960,2866;0,0185717
1961,2509;0,0186312
1962,2151;0,0186424
1963,1793;0,0185655
1964,1436;0,0184247
1965,1078;0,018292
1966,0720;0,0182409
1967,0363;0,0183023
1968,0005;0,0184491
1968,9647;0,0186188
1969,9290;0,0187533
1970,8932;0,0188265
1971,8574;0,0188493
1972,8217;0,0188612
1973,7859;0,018916
1974,7501;0,01906
1975,7144;0,0193068
1976,6786;0,0196112
1977,6428;0,0198698
1978,6071;0,019964
1979,5713;0,0198275
1980,5355;0,0194894
1981,4998;0,0190647
1982,4640;0,0187025
1983,4282;0,0185197
1984,3925;0,0185514
1985,3567;0,0187406
1986,3209;0,0189788
1987,2852;0,0191735
1988,2494;0,0193005
1989,2136;0,0194048
1990,1779;0,0195538
1991,1421;0,0197767
1992,1063;0,0200343
1993,0706;0,0202439
1994,0348;0,0203356
1994,9990;0,02029
1995,9633;0,0201359
1996,9275;0,0199224
1997,8917;0,0196939
1998,8560;0,019484
1999,8202;0,0193266
2000,7844;0,0192631
2001,7487;0,019332
2002,7129;0,0195406
2003,6771;0,0198427
2004,6414;0,0201434
2005,6056;0,0203386
2006,5698;0,0203696
2007,5341;0,0202551
2008,4983;0,0200752
2009,4625;0,0199227
2010,4268;0,0198597
2011,3910;0,0199054
2012,3552;0,0200443
2013,3195;0,0202347
2014,2837;0,0204114
2015,2479;0,0204958
2016,2122;0,020431
2017,1764;0,0202319
2018,1406;0,0200082
2019,1049;0,0199239
2020,0691;0,0201096
2021,0333;0,0205826
2021,9976;0,0212255
2022,9618;0,0218348
2023,9260;0,0222116
2024,8903;0,0222471
2025,8545;0,021958
2026,8187;0,0214609
2027,7830;0,0209105
2028,7472;0,0204409
2029,7114;0,0201323
2030,6757;0,0200039
2031,6399;0,0200255
2032,6041;0,0201385
2033,5684;0,020284
2034,5326;0,0204284
2035,4968;0,0205739
2036,4611;0,0207437
2037,4253;0,0209543
2038,3895;0,0211907
2039,3538;0,0214025
2040,3180;0,0215243
2041,2822;0,0215112
2042,2465;0,0213687
2043,2107;0,0211576
2044,1749;0,02097
2045,1392;0,0208876
2046,1034;0,0209416
2047,0676;0,0210941
2048,0320;0,0212552
2048,9961;0,021332
2049,9604;0,0212793
2050,9246;0,0211157
2051,8889;0,0209031
2052,8530;0,0207073
2053,8174;0,0205671
2054,7815;0,0204834
2055,7458;0,0204348
2056,7100;0,0204034
2057,6743;0,0203945
2058,6384;0,0204335
2059,6028;0,0205418
2060,5669;0,0207131
2061,5313;0,0209055
2062,4954;0,0210587
2063,4597;0,0211242
2064,4238;0,0210896
2065,3882;0,0209823
2066,3523;0,0208509
2067,3167;0,0207395
2068,2808;0,0206711
2069,2451;0,0206487
2070,2092;0,0206645
2071,1736;0,0207092
2072,1377;0,0207703
2073,1021;0,020829
2074,0662;0,0208592
2075,0305;0,0208379
2075,9946;0,0207602
2076,9590;0,020649
2077,9231;0,0205486
2078,8875;0,0205022
2079,8516;0,0205289
2080,8159;0,0206144
2081,7800;0,0207225
2082,7444;0,0208183
2083,7085;0,0208861
2084,6729;0,0209298
2085,6370;0,0209583
2086,6013;0,0209692
2087,5654;0,0209467
2088,5298;0,020875
2089,4939;0,0207578
2090,4583;0,0206256
2091,4224;0,0205237
2092,3867;0,0204879
2093,3508;0,0205245
2094,3152;0,0206064
2095,2793;0,0206894
2096,2437;0,0207379
2097,2078;0,0207412
2098,1721;0,0207132
2099,1362;0,0206771
2100,1006;0,0206509
2101,0647;0,0206336
2102,0291;0,0206211
2102,9932;0,0206079
2103,9575;0,020596
2104,9216;0,0205949
2105,8860;0,020616
2106,8501;0,0206654
2107,8145;0,0207413
2108,7786;0,0208357
2109,7429;0,0209396
2110,7070;0,0210461
2111,6714;0,0211491
2112,6355;0,021241
2113,5999;0,0213096
2114,5640;0,0213405
2115,5283;0,0213241
2116,4924;0,0212627
2117,4568;0,0211737
2118,4209;0,0210852
2119,3853;0,0210258
2120,3494;0,0210118
2121,3137;0,0210399
2122,2778;0,0210893
2123,2422;0,021134
2124,2063;0,0211583
2125,1707;0,0211676
2126,1348;0,0211861
2127,0991;0,0212416
2128,0632;0,0213469
2129,0276;0,02149
2129,9917;0,0216399
2130,9561;0,0217658
2131,9202;0,0218549
2132,8845;0,0219167
2133,8486;0,0219686
2134,8130;0,0220156
2135,7771;0,0220419
2136,7415;0,0220249
2137,7056;0,0219614
2138,6699;0,02188
2139,6340;0,0218302
2140,5984;0,0218543
2141,5625;0,0219645
2142,5269;0,0221413
2143,4910;0,0223503
2144,4553;0,0225613
2145,4194;0,0227556
2146,3838;0,0229203
2147,3479;0,0230441
2148,3123;0,0231209
2149,2764;0,0231578
2150,2407;0,0231747
2151,2048;0,0231919
2152,1692;0,0232168
2153,1333;0,0232438
2154,0977;0,0232713
2155,0618;0,0233198
2156,0261;0,0234287
2156,9902;0,0236219
2157,9546;0,0238669
2158,9187;0,0240722
2159,8831;0,0241479
2160,8472;0,0240751
2161,8115;0,0239133
2162,7756;0,0237464
2163,7400;0,0236262
2164,7041;0,023552
2165,6685;0,0234886
2166,6326;0,0233991
2167,5969;0,0232693
2168,5610;0,0231116
2169,5254;0,0229556
2170,4895;0,0228375
2171,4539;0,0227911
2172,4180;0,0228363
2173,3823;0,0229625
2174,3464;0,0231211
2175,3108;0,0232395
2176,2749;0,0232596
2177,2393;0,0231769
2178,2034;0,0230499
2179,1677;0,0229663
2180,1318;0,0229883
2181,0962;0,0231095
2182,0603;0,023257
2183,0247;0,0233362
2183,9888;0,0232871
2184,9531;0,0231124
2185,9172;0,0228657
2186,8816;0,0226166
2187,8457;0,0224235
2188,8101;0,0223218
2189,7742;0,0223246
2190,7385;0,0224205
2191,7026;0,0225702
2192,6670;0,0227091
2193,6311;0,022768
2194,5955;0,0227039
2195,5596;0,0225262
2196,5239;0,0222946
2197,4880;0,0220873
2198,4524;0,0219577
2199,4165;0,0219078
2200,3809;0,0218957
2201,3450;0,0218715
2202,3093;0,0218147
2203,2734;0,0217474
2204,2378;0,0217162
2205,2019;0,021756
2206,1663;0,0218638
2207,1304;0,0219978
2208,0947;0,0221021
2209,0588;0,0221372
2210,0232;0,0220961
2210,9873;0,0219999
2211,9517;0,0218793
2212,9158;0,0217592
2213,8801;0,0216543
2214,8442;0,0215752
2215,8086;0,0215336
2216,7727;0,0215386
2217,7371;0,0215885
2218,7012;0,0216652
2219,6655;0,0217399
2220,6296;0,0217876
2221,5940;0,0217997
2222,5581;0,0217862
2223,5225;0,0217649
2224,4866;0,0217494
2225,4509;0,0217434
2226,4150;0,0217454
2227,3794;0,0217561
2228,3435;0,0217802
2229,3079;0,0218171
2230,2720;0,0218501
2231,2363;0,0218454
2232,2004;0,021767
2233,1648;0,0216011
2234,1289;0,0213729
2235,0933;0,0211424
2236,0574;0,0209788
2237,0217;0,0209258
2237,9858;0,02098
2238,9502;0,0210941
2239,9143;0,021203
2240,8787;0,0212569
2241,8428;0,021243
2242,8071;0,0211846
2243,7712;0,0211223
2244,7356;0,02109
2245,6997;0,0211008
2246,6641;0,0211461
2247,6282;0,0212059
2248,5925;0,0212602
2249,5566;0,0212965
2250,5210;0,0213119
2251,4851;0,0213116
2252,4495;0,0213065
2253,4136;0,0213086
2254,3779;0,021325
2255,3420;0,0213538
2256,3064;0,0213841
2257,2705;0,0214013
2258,2349;0,0213958
2259,1990;0,0213684
2260,1633;0,021329
2261,1274;0,021291
2262,0918;0,0212656
2263,0559;0,0212586
2264,0203;0,0212708
2264,9844;0,0212991
2265,9487;0,0213372
2266,9128;0,0213757
2267,8772;0,0214063
2268,8413;0,021425
2269,8057;0,0214355
2270,7698;0,0214455
2271,7341;0,0214597
2272,6982;0,021473
2273,6626;0,021471
2274,6267;0,0214384
2275,5911;0,0213697
2276,5552;0,0212734
2277,5195;0,021168
2278,4836;0,0210716
2279,4480;0,0209955
2280,4121;0,0209437
2281,3765;0,0209189
2282,3406;0,0209269
2283,3049;0,0209751
2284,2690;0,021065
2285,2334;0,0211869
2286,1975;0,0213198
2287,1619;0,021441
2288,1260;0,0215372
2289,0903;0,0216118
2290,0544;0,0216822
2291,0188;0,0217684
2291,9829;0,0218816
2292,9473;0,0220176
2293,9114;0,0221596
2294,8757;0,0222876
2295,8398;0,0223856
2296,8042;0,0224453
2297,7683;0,0224634
2298,7327;0,0224382
2299,6968;0,0223698
2300,6611;0,0222642
2301,6252;0,022139
2302,5896;0,0220221
2303,5537;0,021944
2304,5181;0,0219239
2305,4822;0,0219573
2306,4465;0,0220129
2307,4106;0,0220421
2308,3750;0,0220002
2309,3391;0,0218665
2310,3035;0,0216541
2311,2676;0,0214031
2312,2319;0,0211604
2313,1960;0,0209589
2314,1604;0,0208064
2315,1245;0,0206897
2316,0889;0,0205884
2317,0530;0,0204902
2318,0173;0,0203999
2318,9814;0,0203392
2319,9458;0,0203392
2320,9099;0,0204285
2321,8743;0,0206209
2322,8384;0,0209022
2323,8027;0,0212239
2324,7668;0,0215109
2325,7312;0,0216875
2326,6953;0,0217109
2327,6597;0,0215939
2328,6238;0,0214033
2329,5881;0,0212333
2330,5522;0,0211663
2331,5166;0,0212382
2332,4807;0,0214265
2333,4451;0,0216667
2334,4092;0,0218868
2335,3735;0,022042
2336,3376;0,0221311
2337,3020;0,0221922
2338,2661;0,0222788
2339,2305;0,0224242
2340,1946;0,022605
2341,1589;0,0227208
2342,1230;0,0226239
2343,0874;0,0222471
2344,0515;0,0217728
2345,0159;0,0215787
2345,9800;0,0218904
2346,9443;0,0225632
2347,9084;0,0232292
2348,8728;0,0235655
2349,8369;0,0234556
2350,8013;0,0230146
2351,7654;0,0225094
2352,7297;0,0222018
2353,6938;0,0221961
2354,6582;0,0224231
2355,6223;0,0227661
2356,5867;0,0231488
2357,5508;0,0235043
2358,5151;0,0237362
2359,4792;0,0237593
2360,4436;0,0235619
2361,4077;0,0232007
2362,3721;0,0227364
2363,3362;0,0221972
2364,3005;0,0215993
2365,2646;0,0209776
2366,2290;0,0203811
2367,1931;0,0198448
2368,1575;0,0193735
2369,1216;0,0189545
2370,0859;0,0185803
2371,0500;0,0182601
2372,0144;0,018018
2372,9785;0,0178829
2373,9429;0,01788
2374,9070;0,0180233
2375,8713;0,0183103
2376,8354;0,0187181
2377,7998;0,0192054
2378,7639;0,0197199
2379,7283;0,0202079
2380,6924;0,0206253
2381,6567;0,0209444
2382,6208;0,021157
2383,5852;0,0212719
2384,5493;0,0213108
2385,5137;0,021301
2386,4778;0,0212694
2387,4421;0,0212373
2388,4063;0,0212179
2389,3706;0,0212159
2390,3347;0,0212285
2391,2991;0,0212489
2392,2632;0,021269
2393,2275;0,0212829
2394,1917;0,0212884
2395,1560;0,0212867
2396,1201;0,0212815
2397,0845;0,0212769
2398,0486;0,0212782
2399,0129;0,0212882
2399,9771;0,021308
2400,9414;0,0213366
2401,9055;0,0213699
2402,8699;0,0214018
2403,8340;0,0214269
2404,7983;0,0214426
2405,7625;0,0214512
2406,7268;0,0214578
2407,6909;0,0214683
2408,6553;0,0214863
2409,6194;0,0215115
2410,5837;0,0215422
2411,5479;0,0215769
2412,5122;0,0216153
2413,4763;0,021657
2414,4407;0,0216995
2415,4048;0,021738
2416,3691;0,0217675
2417,3333;0,0217863
2418,2976;0,0217976
2419,2617;0,0218082
2420,2261;0,0218245
2421,1902;0,0218475
2422,1545;0,0218726
2423,1187;0,0218928
2424,0830;0,0219035
2425,0471;0,0219062
2426,0115;0,0219082
2426,9756;0,0219182
2427,9399;0,0219409
2428,9041;0,0219745
2429,8684;0,0220116
2430,8325;0,0220443
2431,7969;0,0220688
2432,7610;0,0220869
2433,7253;0,0221043
2434,6895;0,0221259
2435,6538;0,022151
2436,6179;0,0221733
2437,5823;0,0221839
2438,5464;0,0221771
2439,5107;0,0221551
2440,4749;0,0221292
2441,4392;0,0221155
2442,4033;0,0221277
2443,3677;0,0221703
2444,3318;0,0222346
2445,2961;0,0223027
2446,2603;0,0223549
2447,2246;0,0223794
2448,1887;0,022377
2449,1531;0,022359
2450,1172;0,0223403
2451,0815;0,0223307
2452,0457;0,0223311
2453,0100;0,022336
2453,9741;0,0223392
2454,9385;0,0223395
2455,9026;0,0223407
2456,8669;0,0223482
2457,8311;0,0223643
2458,7954;0,0223864
2459,7595;0,0224094
2460,7239;0,0224302
2461,6880;0,0224508
2462,6523;0,0224771
2463,6165;0,0225145
2464,5808;0,0225637
2465,5449;0,0226183
2466,5093;0,0226673
2467,4734;0,0227005
2468,4377;0,0227142
2469,4019;0,0227137
2470,3662;0,0227112
2471,3303;0,02272
2472,2947;0,022748
2473,2588;0,0227929
2474,2231;0,0228435
2475,1873;0,0228849
2476,1516;0,0229062
2477,1157;0,0229064
2478,0801;0,0228945
2479,0442;0,0228844
2480,0085;0,022887
2480,9727;0,0229045
2481,9370;0,0229304
2482,9011;0,0229549
2483,8655;0,0229727
2484,8296;0,0229868
2485,7939;0,0230053
2486,7581;0,0230335
2487,7224;0,023068
2488,6865;0,0230971
2489,6509;0,0231081
2490,6150;0,023097
2491,5793;0,0230721
2492,5435;0,0230488
2493,5078;0,0230395
2494,4719;0,0230466
2495,4363;0,0230624
2496,4004;0,0230776
2497,3647;0,0230885
2498,3289;0,0230996
2499,2932;0,023118
2500,2573;0,0231458
2501,2217;0,0231772
2502,1858;0,0232017
2503,1501;0,0232117
2504,1143;0,023207
2505,0786;0,0231944
2506,0427;0,0231827
2507,0071;0,0231777
2507,9712;0,0231807
2508,9355;0,0231906
2509,8997;0,0232063
2510,8640;0,0232278
2511,8281;0,0232548
2512,7925;0,0232844
2513,7566;0,0233116
2514,7209;0,0233313
2515,6851;0,0233402
2516,6494;0,0233389
2517,6135;0,023332
2518,5779;0,0233262
2519,5420;0,023329
2520,5063;0,0233463
2521,4705;0,0233804
2522,4348;0,0234287
2523,3989;0,0234843
2524,3633;0,0235383
2525,3274;0,0235821
2526,2917;0,0236103
2527,2559;0,0236208
2528,2202;0,0236142
2529,1843;0,0235933
2530,1487;0,0235629
2531,1128;0,02353
2532,0771;0,0235029
2533,0413;0,0234888
2534,0056;0,0234903
2534,9697;0,0235053
2535,9341;0,0235286
2536,8982;0,0235564
2537,8625;0,0235881
2538,8267;0,0236254
2539,7910;0,023667
2540,7551;0,023706
2541,7195;0,0237309
2542,6836;0,0237322
2543,6479;0,0237096
2544,6121;0,0236736
2545,5764;0,02364
2546,5405;0,0236212
2547,5049;0,0236195
2548,4690;0,0236271
2549,4333;0,0236319
2550,3975;0,0236252
2551,3618;0,0236058
2552,3259;0,0235797
2553,2903;0,0235567
2554,2544;0,0235466
2555,2188;0,0235567
2556,1829;0,0235893
2557,1472;0,023641
2558,1113;0,0237035
2559,0757;0,023765
2560,0398;0,0238154
2561,0042;0,0238488
2561,9683;0,0238645
2562,9326;0,0238656
2563,8967;0,0238565
2564,8611;0,0238419
2565,8252;0,0238263
2566,7896;0,0238144
2567,7537;0,0238091
2568,7180;0,0238101
2569,6821;0,0238134
2570,6465;0,0238151
2571,6106;0,0238145
2572,5750;0,0238162
2573,5391;0,0238262
2574,5034;0,0238465
2575,4675;0,023871
2576,4319;0,0238881
2577,3960;0,0238885
2578,3604;0,0238722
2579,3245;0,0238504
2580,2888;0,0238389
2581,2529;0,0238491
2582,2173;0,0238817
2583,1814;0,0239274
2584,1458;0,0239742
2585,1099;0,0240145
2586,0742;0,0240479
2587,0383;0,0240778
2588,0027;0,0241059
2588,9668;0,0241291
2589,9312;0,0241417
2590,8953;0,0241404
2591,8596;0,0241282
2592,8237;0,0241135
2593,7881;0,0241056
2594,7522;0,0241098
2595,7166;0,0241248
2596,6807;0,0241451
2597,6450;0,0241658
2598,6091;0,0241855
2599,5735;0,0242069
2600,5376;0,0242336
2601,5020;0,0242672
2602,4661;0,0243056
2603,4304;0,0243443
2604,3945;0,024378
2605,3589;0,0244029
2606,3230;0,0244181
2607,2874;0,0244258
2608,2515;0,024431
2609,2158;0,0244408
2610,1799;0,0244615
2611,1443;0,0244959
2612,1084;0,0245413
2613,0728;0,0245898
2614,0369;0,0246317
2615,0012;0,0246592
2615,9653;0,0246706
2616,9297;0,0246699
2617,8938;0,0246655
2618,8582;0,0246662
2619,8223;0,0246785
2620,7866;0,0247042
2621,7507;0,0247403
2622,7151;0,02478
2623,6792;0,0248147
2624,6436;0,0248375
2625,6077;0,024846
2626,5720;0,0248444
2627,5361;0,0248419
2628,5005;0,024849
2629,4646;0,0248726
2630,4290;0,0249131
2631,3931;0,0249644
2632,3574;0,0250172
2633,3215;0,0250632
2634,2859;0,0250979
2635,2500;0,0251206
2636,2144;0,0251338
2637,1785;0,0251407
2638,1428;0,0251458
2639,1069;0,025154
2640,0713;0,0251699
2641,0354;0,0251966
2641,9998;0,0252339
2642,9639;0,0252777
2643,9282;0,0253221
2644,8923;0,0253619
2645,8567;0,0253951
2646,8208;0,0254225
2647,7852;0,0254459
2648,7493;0,0254665
2649,7136;0,0254838
2650,6777;0,0254976
2651,6421;0,0255087
2652,6062;0,0255206
2653,5706;0,0255371
2654,5347;0,0255608
2655,4990;0,0255908
2656,4631;0,0256238
2657,4275;0,0256557
2658,3916;0,025684
2659,3560;0,0257086
2660,3201;0,0257314
2661,2844;0,0257545
2662,2485;0,0257791
2663,2129;0,0258056
2664,1770;0,0258339
2665,1414;0,0258638
2666,1055;0,0258953
2667,0698;0,0259272
2668,0339;0,0259576
2668,9983;0,0259841
2669,9624;0,0260052
2670,9268;0,0260216
2671,8909;0,0260366
2672,8552;0,0260547
2673,8193;0,0260793
2674,7837;0,026111
2675,7478;0,026147
2676,7122;0,0261825
2677,6763;0,0262131
2678,6406;0,0262365
2679,6047;0,0262541
2680,5691;0,0262701
2681,5332;0,0262894
2682,4976;0,026316
2683,4617;0,0263511
2684,4260;0,0263929
2685,3901;0,0264375
2686,3545;0,026481
2687,3186;0,0265211
2688,2830;0,0265578
2689,2471;0,0265927
2690,2114;0,0266274
2691,1755;0,0266624
2692,1399;0,0266963
2693,1040;0,0267276
2694,0684;0,0267559
2695,0325;0,0267827
2695,9968;0,0268112
2696,9609;0,026844
2697,9253;0,0268824
2698,8894;0,0269248
2699,8538;0,0269681
2700,8179;0,0270085
2701,7822;0,0270434
2702,7463;0,0270726
2703,7107;0,0270982
2704,6748;0,0271241
2705,6392;0,0271541
2706,6033;0,0271903
2707,5676;0,0272321
2708,5317;0,0272761
2709,4961;0,0273185
2710,4602;0,0273563
2711,4246;0,0273892
2712,3887;0,0274194
2713,3530;0,0274491
2714,3171;0,0274798
2715,2815;0,0275107
2716,2456;0,0275402
2717,2100;0,0275668
2718,1741;0,0275912
2719,1384;0,0276157
2720,1025;0,0276423
2721,0669;0,0276715
2722,0310;0,0277012
2722,9954;0,027728
2723,9595;0,0277497
2724,9238;0,0277674
2725,8879;0,0277856
2726,8523;0,0278095
2727,8164;0,0278424
2728,7808;0,0278839
2729,7449;0,0279305
2730,7092;0,0279778
2731,6733;0,0280221
2732,6377;0,0280617
2733,6018;0,0280948
2734,5662;0,0281193
2735,5303;0,0281334
2736,4946;0,0281374
2737,4587;0,0281355
2738,4231;0,0281353
2739,3872;0,0281448
2740,3516;0,0281688
2741,3157;0,0282068
2742,2800;0,0282529
2743,2441;0,0282979
2744,2085;0,0283333
2745,1726;0,0283537
2746,1370;0,0283594
2747,1011;0,0283569
2748,0654;0,0283571
2749,0295;0,0283711
2749,9939;0,0284052
2750,9580;0,0284571
2751,9224;0,0285166
2752,8865;0,0285706
2753,8508;0,0286093
2754,8149;0,0286313
2755,7793;0,0286428
2756,7434;0,0286539
2757,7078;0,0286727
2758,6719;0,0287027
2759,6362;0,0287426
2760,6003;0,0287889
2761,5647;0,0288376
2762,5288;0,0288856
2763,4932;0,0289299
2764,4573;0,0289681
2765,4216;0,0289997
2766,3857;0,0290267
2767,3501;0,0290536
2768,3142;0,029085
2769,2786;0,0291224
2770,2427;0,0291637
2771,2070;0,0292042
2772,1711;0,029241
2773,1355;0,0292752
2774,0996;0,0293129
2775,0640;0,0293609
2776,0281;0,0294228
2776,9924;0,0294952
2777,9565;0,0295698
2778,9209;0,0296376
2779,8850;0,029694
2780,8494;0,0297409
2781,8135;0,0297838
2782,7778;0,029828
2783,7419;0,0298746
2784,7063;0,0299211
2785,6704;0,0299639
2786,6348;0,0300029
2787,5989;0,0300423
2788,5632;0,0300891
2789,5273;0,0301498
2790,4917;0,0302264
2791,4558;0,0303156
2792,4202;0,0304098
2793,3843;0,0305
2794,3486;0,0305789
2795,3127;0,0306438
2796,2771;0,0306972
2797,2412;0,0307464
2798,2056;0,0308002
2799,1697;0,0308656
2800,1340;0,0309446
2801,0981;0,0310342
2802,0625;0,0311293
2803,0266;0,0312257
2803,9910;0,0313224
2804,9551;0,0314204
2805,9194;0,0315204
2806,8835;0,0316209
2807,8479;0,0317192
2808,8120;0,0318134
2809,7764;0,031905
2810,7405;0,0319987
2811,7048;0,0321
2812,6689;0,0322115
2813,6333;0,0323319
2814,5974;0,0324567
2815,5618;0,0325814
2816,5259;0,0327046
2817,4902;0,0328288
2818,4543;0,0329582
2819,4187;0,0330958
2820,3828;0,0332415
2821,3472;0,0333913
2822,3113;0,0335398
2823,2756;0,0336837
2824,2397;0,033824
2825,2041;0,0339661
2826,1682;0,0341186
2827,1326;0,0342891
2828,0967;0,0344821
2829,0610;0,0346969
2830,0251;0,0349283
2830,9895;0,0351687
2831,9536;0,0354104
2832,9180;0,0356476
2833,8821;0,0358784
2834,8464;0,0361051
2835,8105;0,0363332
2836,7749;0,0365703
2837,7390;0,0368231
2838,7034;0,0370956
2839,6675;0,0373888
2840,6318;0,0377019
2841,5959;0,0380337
2842,5603;0,0383835
2843,5244;0,0387498
2844,4888;0,0391278
2845,4529;0,0395077
2846,4172;0,0398748
2847,3813;0,0402124
2848,3457;0,0405053
2849,3098;0,0407432
2850,2742;0,0409219
2851,2383;0,0410441
2852,2026;0,0411187
2853,1667;0,0411595
2854,1311;0,0411829
2855,0952;0,0412044
2856,0596;0,0412348
2857,0237;0,0412781
2857,9880;0,041333
2858,9521;0,0413966
2859,9165;0,0414682
2860,8806;0,041551
2861,8450;0,0416498
2862,8091;0,0417682
2863,7734;0,0419057
2864,7375;0,0420586
2865,7019;0,042222
2866,6660;0,0423921
2867,6304;0,0425654
2868,5945;0,0427373
2869,5588;0,0429004
2870,5229;0,0430458
2871,4873;0,0431669
2872,4514;0,0432627
2873,4158;0,043339
2874,3799;0,0434053
2875,3442;0,0434704
2876,3083;0,0435385
2877,2727;0,0436094
2878,2368;0,0436812
2879,2012;0,0437537
2880,1653;0,0438293
2881,1296;0,0439117
2882,0938;0,0440029
2883,0581;0,0441011
2884,0222;0,0442012
2884,9866;0,0442967
2885,9507;0,0443825
2886,9150;0,0444562
2887,8792;0,0445192
2888,8435;0,0445758
2889,8076;0,0446317
2890,7720;0,0446922
2891,7361;0,0447606
2892,7004;0,0448379
2893,6646;0,0449227
2894,6289;0,0450129
2895,5930;0,0451062
2896,5574;0,0452001
2897,5215;0,045291
2898,4858;0,0453742
2899,4500;0,0454447
2900,4143;0,0454999
2901,3784;0,0455417
2902,3428;0,0455763
2903,3069;0,0456119
2904,2712;0,0456549
2905,2354;0,0457081
2906,1997;0,0457713
2907,1638;0,045844
2908,1282;0,0459279
2909,0923;0,0460264
2910,0566;0,0461428
2911,0208;0,046277
2911,9851;0,0464238
2912,9492;0,0465737
2913,9136;0,0467152
2914,8777;0,046837
2915,8420;0,0469294
2916,8062;0,0469851
2917,7705;0,0469989
2918,7346;0,0469692
2919,6990;0,0468983
2920,6631;0,0467927
2921,6274;0,0466617
2922,5916;0,0465151
2923,5559;0,0463599
2924,5200;0,0461994
2925,4844;0,0460327
2926,4485;0,0458568
2927,4128;0,045669
2928,3770;0,0454689
2929,3413;0,0452596
2930,3054;0,045047
2931,2698;0,0448378
2932,2339;0,0446375
2933,1982;0,0444474
2934,1624;0,0442648
2935,1267;0,0440839
2936,0908;0,0438982
2937,0552;0,0437037
2938,0193;0,0434994
2938,9836;0,043287
2939,9478;0,0430673
2940,9121;0,042839
2941,8762;0,0425984
2942,8406;0,0423418
2943,8047;0,0420687
2944,7690;0,0417835
2945,7332;0,0414945
2946,6975;0,0412114
2947,6616;0,0409423
2948,6260;0,0406931
2949,5901;0,0404668
2950,5544;0,040264
2951,5186;0,0400823
2952,4829;0,0399161
2953,4470;0,0397577
2954,4114;0,0396001
2955,3755;0,03944
2956,3398;0,0392788
2957,3040;0,0391204
2958,2683;0,0389678
2959,2324;0,0388204
2960,1968;0,0386748
2961,1609;0,0385282
2962,1252;0,0383813
2963,0894;0,0382386
2964,0537;0,0381042
2965,0178;0,0379783
2965,9822;0,0378545
2966,9463;0,0377232
2967,9106;0,0375759
2968,8748;0,0374099
2969,8391;0,0372287
2970,8032;0,03704
2971,7676;0,0368523
2972,7317;0,036673
2973,6960;0,0365071
2974,6602;0,0363573
2975,6245;0,0362233
2976,5886;0,0361021
2977,5530;0,0359891
2978,5171;0,0358803
2979,4814;0,0357751
2980,4456;0,0356765
2981,4099;0,0355888
2982,3740;0,0355145
2983,3384;0,0354513
2984,3025;0,0353936
2985,2668;0,035336
2986,2310;0,0352763
2987,1953;0,0352174
2988,1594;0,0351642
2989,1238;0,0351214
2990,0879;0,0350906
2991,0522;0,0350704
2992,0164;0,0350582
2992,9807;0,0350514
2993,9448;0,0350489
2994,9092;0,0350509
2995,8733;0,0350593
2996,8376;0,0350771
2997,8018;0,035107
2998,7661;0,0351491
2999,7302;0,0351994
3000,6946;0,0352503
3001,6587;0,035294
3002,6230;0,0353266
3003,5872;0,0353512
3004,5515;0,0353772
3005,5156;0,0354148
3006,4800;0,0354699
3007,4441;0,0355404
3008,4084;0,0356179
3009,3726;0,0356913
3010,3369;0,0357527
3011,3010;0,0357995
3012,2654;0,0358346
3013,2295;0,0358637
3014,1938;0,0358925
3015,1580;0,0359254
3016,1223;0,0359662
3017,0864;0,036019
3018,0508;0,0360875
3019,0149;0,0361738
3019,9792;0,036275
3020,9434;0,0363833
3021,9077;0,0364879
3022,8718;0,0365803
3023,8362;0,0366592
3024,8003;0,0367327
3025,7646;0,0368146
3026,7288;0,0369173
3027,6931;0,0370441
3028,6572;0,0371864
3029,6216;0,037327
3030,5857;0,0374477
3031,5500;0,0375381
3032,5142;0,0376002
3033,4785;0,0376468
3034,4426;0,0376949
3035,4070;0,0377583
3036,3711;0,0378429
3037,3354;0,0379463
3038,2996;0,0380605
3039,2639;0,0381764
3040,2280;0,0382871
3041,1924;0,0383908
3042,1565;0,038491
3043,1208;0,0385948
3044,0850;0,0387088
3045,0493;0,0388358
3046,0134;0,0389729
3046,9778;0,0391132
3047,9419;0,0392503
3048,9063;0,0393824
3049,8704;0,0395138
3050,8347;0,0396512
3051,7988;0,0397979
3052,7632;0,0399501
3053,7273;0,0400979
3054,6917;0,0402315
3055,6558;0,0403474
3056,6201;0,0404517
3057,5842;0,0405574
3058,5486;0,0406775
3059,5127;0,0408189
3060,4771;0,0409797
3061,4412;0,0411516
3062,4055;0,0413237
3063,3696;0,0414854
3064,3340;0,0416284
3065,2981;0,0417486
3066,2625;0,0418466
3067,2266;0,0419289
3068,1909;0,0420068
3069,1550;0,0420926
3070,1194;0,0421959
3071,0835;0,0423201
3072,0479;0,0424625
3073,0120;0,0426166
3073,9763;0,0427756
3074,9404;0,0429351
3075,9048;0,0430925
3076,8689;0,0432464
3077,8333;0,0433944
3078,7974;0,0435343
3079,7617;0,0436643
3080,7258;0,043785
3081,6902;0,0438992
3082,6543;0,044011
3083,6187;0,0441231
3084,5828;0,0442367
3085,5471;0,0443508
3086,5112;0,0444638
3087,4756;0,0445753
3088,4397;0,0446873
3089,4041;0,044804
3090,3682;0,0449299
3091,3325;0,0450676
3092,2966;0,0452169
3093,2610;0,0453749
3094,2251;0,0455381
3095,1895;0,0457039
3096,1536;0,0458707
3097,1179;0,0460367
3098,0820;0,0461976
3099,0464;0,0463476
3100,0105;0,0464821
3100,9749;0,0466011
3101,9390;0,0467118
3102,9033;0,0468258
3103,8674;0,0469538
3104,8318;0,0471007
3105,7959;0,0472638
3106,7603;0,0474357
3107,7244;0,0476094
3108,6887;0,0477816
3109,6528;0,0479536
3110,6172;0,0481281
3111,5813;0,0483056
3112,5457;0,0484838
3113,5098;0,0486585
3114,4741;0,0488274
3115,4382;0,0489912
3116,4026;0,0491531
3117,3667;0,0493153
3118,3311;0,0494769
3119,2952;0,0496341
3120,2595;0,0497832
3121,2236;0,049924
3122,1880;0,050061
3123,1521;0,0502011
3124,1165;0,05035
3125,0806;0,0505088
3126,0449;0,0506749
3127,0090;0,0508441
3127,9734;0,0510134
3128,9375;0,0511822
3129,9019;0,0513502
3130,8660;0,0515172
3131,8303;0,0516825
3132,7944;0,0518468
3133,7588;0,0520129
3134,7229;0,0521842
3135,6873;0,0523625
3136,6514;0,0525456
3137,6157;0,0527284
3138,5798;0,0529057
3139,5442;0,0530753
3140,5083;0,053239
3141,4727;0,0534006
3142,4368;0,0535635
3143,4011;0,05373
3144,3652;0,0539026
3145,3296;0,0540856
3146,2937;0,0542834
3147,2581;0,0544977
3148,2222;0,0547236
3149,1865;0,0549504
3150,1506;0,0551653
3151,1150;0,0553601
3152,0791;0,0555354
3153,0435;0,0557
3154,0076;0,0558658
3154,9719;0,0560419
3155,9360;0,0562311
3156,9004;0,0564302
3157,8645;0,0566329
3158,8289;0,0568333
3159,7930;0,0570283
3160,7573;0,057218
3161,7214;0,0574052
3162,6858;0,057594
3163,6499;0,0577882
3164,6143;0,0579901
3165,5784;0,0581993
3166,5427;0,0584128
3167,5068;0,058626
3168,4712;0,0588336
3169,4353;0,0589043
3170,3997;0,059094
3171,3638;0,0592791
3172,3281;0,0594659
3173,2922;0,059661
3174,2566;0,0598695
3175,2207;0,0600914
3176,1851;0,0603215
3177,1492;0,060551
3178,1135;0,0607709
3179,0776;0,0609758
3180,0420;0,0611655
3181,0061;0,0613435
3181,9705;0,0615147
3182,9346;0,0616834
3183,8989;0,0618531
3184,8630;0,0620273
3185,8274;0,0622091
3186,7915;0,0624005
3187,7559;0,0626006
3188,7200;0,0628055
3189,6843;0,0630095
3190,6484;0,0632078
3191,6128;0,0633986
3192,5769;0,0635834
3193,5413;0,0637648
3194,5054;0,0639444
3195,4697;0,0641221
3196,4338;0,0642965
3197,3982;0,0644678
3198,3623;0,064638
3199,3267;0,0648109
3200,2908;0,0649896
3201,2551;0,0651748
3202,2192;0,0653646
3203,1836;0,0655562
3204,1477;0,0657478
3205,1121;0,0659386
3206,0762;0,0661289
3207,0405;0,0663183
3208,0046;0,0665051
3208,9690;0,0666869
3209,9331;0,0668618
3210,8975;0,0670299
3211,8616;0,0671937
3212,8259;0,0673573
3213,7900;0,0675245
3214,7544;0,0676979
3215,7185;0,0678769
3216,6829;0,068058
3217,6470;0,0682355
3218,6113;0,0684041
3219,5754;0,0685618
3220,5398;0,0687116
3221,5039;0,068862
3222,4683;0,0690229
3223,4324;0,0692011
3224,3967;0,0693962
3225,3608;0,0696005
3226,3252;0,0698014
3227,2893;0,0699872
3228,2537;0,0701521
3229,2178;0,0702989
3230,1821;0,0704376
3231,1462;0,0705806
3232,1106;0,0707374
3233,0747;0,0709105
3234,0391;0,0710955
3235,0032;0,0712836
3235,9675;0,071467
3236,9316;0,0716432
3237,8960;0,0718153
3238,8601;0,0719903
3239,8245;0,0721738
3240,7886;0,0723661
3241,7529;0,0725615
3242,7170;0,072751
3243,6814;0,0729271
3244,6455;0,0730885
3245,6099;0,0732418
3246,5740;0,0733989
3247,5383;0,073571
3248,5024;0,0737633
3249,4668;0,0739721
3250,4309;0,0741867
3251,3953;0,0743936
3252,3594;0,074583
3253,3237;0,0747535
3254,2878;0,0749132
3255,2522;0,0750759
3256,2163;0,0752542
3257,1807;0,0754531
3258,1448;0,0756675
3259,1091;0,0758847
3260,0732;0,0760904
3261,0376;0,0762745
3262,0017;0,0764356
3262,9661;0,0765803
3263,9302;0,0767195
3264,8945;0,0768641
3265,8586;0,0770209
3266,8230;0,0771906
3267,7871;0,0773694
3268,7515;0,0775502
3269,7156;0,077724
3270,6799;0,0778808
3271,6440;0,0780109
3272,6084;0,0781072
3273,5725;0,0781684
3274,5369;0,0782019
3275,5010;0,0782223
3276,4653;0,078247
3277,4294;0,0782889
3278,3938;0,0783506
3279,3579;0,0784242
3280,3223;0,0784964
3281,2864;0,0785562
3282,2507;0,078601
3283,2148;0,0786375
3284,1792;0,078677
3285,1433;0,0787283
3286,1077;0,0787926
3287,0718;0,0788632
3288,0361;0,0789296
3289,0002;0,0789833
3289,9646;0,0790206
3290,9287;0,0790431
3291,8931;0,0790541
3292,8572;0,0790557
3293,8215;0,0790481
3294,7856;0,0790301
3295,7500;0,0790023
3296,7141;0,0789679
3297,6785;0,0789333
3298,6426;0,0789053
3299,6069;0,0788895
3300,5710;0,0788892
3301,5354;0,0789052
3302,4995;0,0789365
3303,4639;0,078979
3304,4280;0,0790257
3305,3923;0,0790675
3306,3564;0,079096
3307,3208;0,0791071
3308,2849;0,0791035
3309,2493;0,0790937
3310,2134;0,0790876
3311,1777;0,0790916
3312,1418;0,0791067
3313,1062;0,0791301
3314,0703;0,0791589
3315,0347;0,0791936
3315,9988;0,079239
3316,9631;0,0793016
3317,9272;0,079386
3318,8916;0,0794921
3319,8557;0,0796143
3320,8201;0,0797436
3321,7842;0,0798697
3322,7485;0,0799844
3323,7126;0,0800833
3324,6770;0,0801667
3325,6411;0,0802387
3326,6055;0,0803045
3327,5696;0,0803682
3328,5339;0,0804325
3329,4980;0,0804989
3330,4624;0,0805685
3331,4265;0,080642
3332,3909;0,0807174
3333,3550;0,0807871
3334,3193;0,0808379
3335,2834;0,0808547
3336,2478;0,0808273
3337,2119;0,0807553
3338,1763;0,0806485
3339,1404;0,0805206
3340,1047;0,0803815
3341,0688;0,0802344
3342,0332;0,0800775
3342,9973;0,0799108
3343,9617;0,07974
3344,9258;0,0795755
3345,8901;0,0794258
3346,8542;0,0792915
3347,8186;0,0791624
3348,7827;0,0790233
3349,7471;0,0788615
3350,7112;0,078675
3351,6755;0,0784723
3352,6396;0,0782675
3353,6040;0,078073
3354,5681;0,0778938
3355,5325;0,0777285
3356,4966;0,0775727
3357,4609;0,0774246
3358,4250;0,0772861
3359,3894;0,0771606
3360,3535;0,0770492
3361,3179;0,0769472
3362,2820;0,076845
3363,2463;0,0767316
3364,2104;0,0765987
3365,1748;0,0764437
3366,1389;0,0762687
3367,1033;0,0760792
3368,0674;0,0758815
3369,0317;0,0756816
3369,9958;0,0754848
3370,9602;0,0752949
3371,9243;0,0751138
3372,8887;0,07494
3373,8528;0,0747705
3374,8171;0,0746022
3375,7813;0,074435
3376,7456;0,0742724
3377,7097;0,0741196
3378,6741;0,073979
3379,6382;0,0738473
3380,6025;0,0737149
3381,5667;0,0735704
3382,5310;0,0734068
3383,4951;0,0732267
3384,4595;0,0730433
3385,4236;0,0728753
3386,3879;0,0727386
3387,3521;0,0726389
3388,3164;0,0725683
3389,2805;0,0725095
3390,2449;0,0724418
3391,2090;0,0723477
3392,1733;0,0722175
3393,1375;0,0720508
3394,1018;0,0718556
3395,0659;0,0716456
3396,0303;0,0714381
3396,9944;0,0712493
3397,9587;0,0710884
3398,9229;0,0709519
3399,8872;0,0708228
3400,8513;0,0706777
3401,8157;0,0704994
3402,7798;0,0702869
3403,7441;0,0700568
3404,7083;0,0698337
3405,6726;0,0696365
3406,6367;0,0694687
3407,6011;0,0693187
3408,5652;0,0691671
3409,5295;0,0689971
3410,4937;0,0688012
3411,4580;0,0685822
3412,4221;0,0683508
3413,3865;0,0681219
3414,3506;0,0679092
3415,3149;0,0677197
3416,2791;0,0675501
3417,2434;0,0673852
3418,2075;0,0672022
3419,1719;0,0669808
3420,1360;0,0667146
3421,1003;0,0664166
3422,0645;0,0661129
3423,0288;0,0658291
3423,9929;0,065578
3424,9573;0,0653563
3425,9214;0,0651506
3426,8857;0,0649466
3427,8499;0,0647354
3428,8142;0,0645154
3429,7783;0,0642886
3430,7427;0,064057
3431,7068;0,0638196
3432,6711;0,0635745
3433,6353;0,0633219
3434,5996;0,0630653
3435,5637;0,062811
3436,5281;0,0625641
3437,4922;0,0623265
3438,4565;0,0620983
3439,4207;0,061881
3440,3850;0,0616798
3441,3491;0,0615013
3442,3135;0,0613457
3443,2776;0,0612002
3444,2419;0,061038
3445,2061;0,0608266
3446,1704;0,0605443
3447,1345;0,0601953
3448,0989;0,0598109
3449,0630;0,0594341
3450,0273;0,0590976
3450,9915;0,0588117
3451,9558;0,0585666
3452,9199;0,0583433
3453,8843;0,0581257
3454,8484;0,0579065
3455,8127;0,0576883
3456,7769;0,0574768
3457,7412;0,0572742
3458,7053;0,057075
3459,6697;0,0568684
3460,6338;0,0566445
3461,5981;0,0564006
3462,5623;0,0561434
3463,5266;0,0558833
3464,4907;0,055627
3465,4551;0,0553718
3466,4192;0,0551075
3467,3835;0,0548247
3468,3477;0,0545234
3469,3120;0,0542153
3470,2761;0,053918
3471,2405;0,0536452
3472,2046;0,0534005
3473,1689;0,0531782
3474,1331;0,0529696
3475,0974;0,05277
3476,0615;0,052579
3477,0259;0,0523955
3477,9900;0,0522122
3478,9543;0,0520153
3479,9185;0,0517901
3480,8828;0,0515315
3481,8469;0,0512487
3482,8113;0,0509618
3483,7754;0,0506885
3484,7397;0,0504339
3485,7039;0,0501902
3486,6682;0,0499454
3487,6323;0,0496934
3488,5967;0,0494394
3489,5608;0,0491969
3490,5251;0,048977
3491,4893;0,0487798
3492,4536;0,048593
3493,4177;0,0483985
3494,3821;0,0481846
3495,3462;0,0479562
3496,3105;0,0477355
3497,2747;0,0475491
3498,2390;0,047409
3499,2031;0,0473008
3500,1675;0,0471861
3501,1316;0,0470178
3502,0959;0,0467668
3503,0601;0,0464448
3504,0244;0,0461019
3504,9885;0,0457925
3505,9529;0,0455404
3506,9170;0,0453298
3507,8813;0,0451219
3508,8455;0,0448807
3509,8098;0,0445946
3510,7739;0,0442823
3511,7383;0,0439769
3512,7024;0,0437023
3513,6667;0,0434625
3514,6309;0,0432484
3515,5952;0,0430521
3516,5593;0,042876
3517,5237;0,0427305
3518,4878;0,0426222
3519,4521;0,0425447
3520,4163;0,0424764
3521,3806;0,0423886
3522,3447;0,0422595
3523,3091;0,0420827
3524,2732;0,0418664
3525,2375;0,0416204
3526,2017;0,041345
3527,1660;0,0410326
3528,1301;0,0406813
3529,0945;0,0403083
3530,0586;0,0399474
3531,0229;0,0396301
3531,9871;0,0393673
3532,9514;0,0391463
3533,9155;0,0389395
3534,8799;0,0387208
3535,8440;0,0384823
3536,8083;0,0382424
3537,7725;0,0380386
3538,7368;0,0379053
3539,7009;0,0378537
3540,6653;0,0378645
3541,6294;0,0378929
3542,5938;0,0378796
3543,5579;0,0377659
3544,5222;0,0375208
3545,4863;0,0371691
3546,4507;0,0367862
3547,4148;0,0364498
3548,3792;0,0361879
3549,3433;0,0359719
3550,3076;0,0357473
3551,2717;0,0354728
3552,2361;0,0351462
3553,2002;0,034807
3554,1646;0,0345092
3555,1287;0,0342847
3556,0930;0,0341296
3557,0571;0,0340202
3558,0215;0,0339394
3558,9856;0,0338905
3559,9500;0,0338914
3560,9141;0,0339546
3561,8784;0,0340662
3562,8425;0,034179
3563,8069;0,0342134
3564,7710;0,0340615
3565,7354;0,0336218
3566,6995;0,0329059
3567,6638;0,0321136
3568,6279;0,0314996
3569,5923;0,031165
3570,5564;0,0310342
3571,5208;0,0309732
3572,4849;0,0308855
3573,4492;0,0307386
3574,4133;0,0305473
3575,3777;0,0303437
3576,3418;0,0301527
3577,3062;0,0299854
3578,2703;0,0298497
3579,2346;0,0297611
3580,1987;0,0297373
3581,1631;0,0297789
3582,1272;0,029854
3583,0916;0,0299035
3584,0557;0,0298611
3585,0200;0,0296707
3585,9841;0,0293099
3586,9485;0,0288382
3587,9126;0,0284184
3588,8770;0,0282105
3589,8411;0,0282332
3590,8054;0,0283704
3591,7695;0,0284803
3592,7339;0,0284772
3593,6980;0,0283546
3594,6624;0,0281696
3595,6265;0,0279981
3596,5908;0,0278768
3597,5549;0,0277771
3598,5193;0,0276346
3599,4834;0,0274079
3600,4478;0,0271171
3601,4119;0,0268319
3602,3762;0,0266139
3603,3403;0,0264705
3604,3047;0,026358
3605,2688;0,0262136
3606,2332;0,0259868
3607,1973;0,0256644
3608,1616;0,0252905
3609,1257;0,0249547
3610,0901;0,02474
3611,0542;0,0246752
3612,0186;0,0247286
3612,9827;0,0248324
3613,9470;0,0249114
3614,9111;0,0249035
3615,8755;0,0247683
3616,8396;0,0244917
3617,8040;0,0240961
3618,7681;0,0236639
3619,7324;0,0233401
3620,6965;0,0232611
3621,6609;0,0234454
3622,6250;0,0237714
3623,5894;0,0240585
3624,5535;0,0241584
3625,5178;0,0239972
3626,4819;0,0235668
3627,4463;0,0229075
3628,4104;0,0221518
3629,3748;0,0215529
3630,3389;0,0212978
3631,3032;0,0213168
3632,2673;0,0213889
3633,2317;0,0213427
3634,1958;0,0211396
3635,1602;0,0208449
3636,1243;0,0205518
3637,0886;0,0203168
3638,0527;0,0201435
3639,0171;0,0200157
3639,9812;0,0199353
3640,9456;0,0199284
3641,9097;0,0200163
3642,8740;0,0201852
3643,8381;0,0203862
3644,8025;0,0205633
3645,7666;0,0206677
3646,7310;0,0206103
3647,6951;0,0202016
3648,6594;0,0193274
3649,6235;0,018309
3650,5879;0,0176581
3651,5520;0,0174912
3652,5164;0,0175615
3653,4805;0,0175981
3654,4448;0,0174747
3655,4089;0,0172171
3656,3733;0,0169424
3657,3374;0,0167669
3658,3018;0,0167211
3659,2659;0,0167446
3660,2302;0,0167609
3661,1943;0,0167514
3662,1587;0,0167612
3663,1228;0,0168426
3664,0872;0,0169942
3665,0513;0,0171574
3666,0156;0,0172666
3666,9797;0,0173025
3667,9441;0,0172969
3668,9082;0,0172969
3669,8726;0,0173357
3670,8367;0,0174142
3671,8010;0,0174807
3672,7651;0,0174528
3673,7295;0,0172718
3674,6936;0,0169363
3675,6580;0,0165328
3676,6221;0,0162291
3677,5864;0,0161368
3678,5505;0,0162092
3679,5149;0,0163307
3680,4790;0,0164408
3681,4434;0,0165554
3682,4075;0,0167084
3683,3718;0,0168926
3684,3359;0,0170553
3685,3003;0,0171443
3686,2644;0,0171525
3687,2288;0,0171107
3688,1929;0,0170358
3689,1572;0,0169251
3690,1213;0,0168229
3691,0857;0,0168057
3692,0498;0,0168892
3693,0142;0,0170248
3693,9783;0,0171614
3694,9426;0,0172748
3695,9067;0,0173563
3696,8711;0,0173973
3697,8352;0,0173876
3698,7996;0,0173266
3699,7637;0,0172333
3700,7280;0,0171475
3701,6921;0,017122
3702,6565;0,0172023
3703,6206;0,0173971
3704,5850;0,0176649
3705,5491;0,0179366
3706,5134;0,0181511
3707,4775;0,0182672
3708,4419;0,0182384
3709,4060;0,0179821
3710,3704;0,0174365
3711,3345;0,0167206
3712,2988;0,0161362
3713,2629;0,0159074
3714,2273;0,0160236
3715,1914;0,0163369
3716,1558;0,0167064
3717,1199;0,0170603
3718,0842;0,01739
3719,0483;0,0177139
3720,0127;0,0180416
3720,9768;0,0183566
3721,9412;0,0186197
3722,9053;0,01879
3723,8696;0,018849
3724,8337;0,0188204
3725,7981;0,0187639
3726,7622;0,0187379
3727,7266;0,0187636
3728,6907;0,018826
3729,6550;0,0189041
3730,6191;0,0189897
3731,5835;0,0190707
3732,5476;0,0190822
3733,5120;0,0188932
3734,4761;0,0184278
3735,4404;0,0178512
3736,4045;0,0174932
3737,3689;0,0175144
3738,3330;0,0177707
3739,2974;0,0179706
3740,2615;0,0178702
3741,2258;0,0173817
3742,1899;0,0166155
3743,1543;0,0158643
3744,1184;0,0154823
3745,0828;0,0156499
3746,0469;0,0162221
3747,0112;0,0168502
3747,9753;0,0172127
3748,9397;0,0171327
3749,9038;0,0166165
3750,8682;0,0159169
3751,8323;0,0154536
3752,7966;0,0154588
3753,7607;0,0158025
3754,7251;0,0161988
3755,6892;0,0164311
3756,6536;0,0164177
3757,6177;0,0161929
3758,5820;0,0158731
3759,5461;0,0156058
3760,5105;0,0154911
3761,4746;0,0155338
3762,4390;0,0156709
3763,4031;0,0158276
3764,3674;0,0159488
3765,3315;0,0160006
3766,2959;0,0159628
3767,2600;0,0158281
3768,2244;0,01561
3769,1885;0,0153539
3770,1528;0,0151364
3771,1169;0,0150355
3772,0813;0,0150829
3773,0454;0,0152413
3774,0098;0,015431
3774,9739;0,0155759
3775,9382;0,0156367
3776,9023;0,0156152
3777,8667;0,0155427
3778,8308;0,0154694
3779,7952;0,0154472
3780,7593;0,0154993
3781,7236;0,0156016
3782,6877;0,0156981
3783,6521;0,0157321
3784,6162;0,0156726
3785,5806;0,0155304
3786,5447;0,0153549
3787,5090;0,0152113
3788,4731;0,0151475
3789,4375;0,0151736
3790,4016;0,0152666
3791,3660;0,0153947
3792,3301;0,0155444
3793,2944;0,015729
3794,2585;0,0159707
3795,2229;0,0162651
3796,1870;0,0165606
3797,1514;0,0167716
3798,1155;0,0168207
3799,0798;0,0166788
3800,0439;0,0163884
3801,0083;0,0160588
3801,9724;0,0158112
3802,9368;0,0156812
3803,9009;0,0155868
3804,8652;0,0154112
3805,8293;0,01512
3806,7937;0,014816
3807,7578;0,0146802
3808,7222;0,0148213
3809,6863;0,0151717
3810,6506;0,0155478
3811,6147;0,0157925
3812,5791;0,0158703
3813,5432;0,0158703
3814,5076;0,0159325
3815,4717;0,0161417
3816,4360;0,0164619
3817,4001;0,0167573
3818,3645;0,0168726
3819,3286;0,0167174
3820,2930;0,0163342
3821,2571;0,01591
3822,2214;0,0156604
3823,1855;0,0156618
3824,1499;0,0158244
3825,1140;0,0160042
3826,0784;0,0161073
3827,0425;0,0161203
3828,0068;0,0160872
3828,9709;0,0160675
3829,9353;0,0161015
3830,8994;0,0161961
3831,8638;0,0163297
3832,8279;0,0164676
3833,7922;0,0165792
3834,7563;0,016649
3835,7207;0,016676
3836,6848;0,0166611
3837,6492;0,0165984
3838,6133;0,0164869
3839,5776;0,0163375
3840,5417;0,0161586
3841,5061;0,0159506
3842,4702;0,0157338
3843,4346;0,0155748
3844,3987;0,0155664
3845,3630;0,0157655
3846,3271;0,0161384
3847,2915;0,0165619
3848,2556;0,0168749
3849,2200;0,0169413
3850,1841;0,0166853
3851,1484;0,0160864
3852,1125;0,0151825
3853,0769;0,0142095
3854,0410;0,0136648
3855,0054;0,0138475
3855,9695;0,0145435
3856,9338;0,0153427
3857,8979;0,0159638
3858,8623;0,0163185
3859,8264;0,0164544
3860,7908;0,0164757
3861,7549;0,0164714
3862,7192;0,016475
3863,6833;0,0164787
3864,6477;0,016469
3865,6118;0,016439
3866,5762;0,0163848
3867,5403;0,0163082
3868,5046;0,0162176
3869,4688;0,0161181
3870,4331;0,0160103
3871,3972;0,0159042
3872,3616;0,0158246
3873,3257;0,0157941
3874,2900;0,0158128
3875,2542;0,0158592
3876,2185;0,0159102
3877,1826;0,0159597
3878,1470;0,0160206
3879,1111;0,0161039
3880,0754;0,0161907
3881,0396;0,0162284
3882,0039;0,0161577
3882,9680;0,0159561
3883,9324;0,0156698
3884,8965;0,0154091
3885,8608;0,0152889
3886,8250;0,0153473
3887,7893;0,0155178
3888,7534;0,0156818
3889,7178;0,0157498
3890,6819;0,0157126
3891,6462;0,0156464
3892,6104;0,0156597
3893,5747;0,0158012
3894,5388;0,0160196
3895,5032;0,0162198
3896,4673;0,0163413
3897,4316;0,0163843
3898,3958;0,0163818
3899,3601;0,0163553
3900,3242;0,0162957
3901,2886;0,0161761
3902,2527;0,0159801
3903,2170;0,0157282
3904,1812;0,0154816
3905,1455;0,0153064
3906,1096;0,0152256
3907,0740;0,0152127
3908,0381;0,0152267
3909,0024;0,0152474
3909,9666;0,0152822
3910,9309;0,0153486
3911,8950;0,0154519
3912,8594;0,0155752
3913,8235;0,0156856
3914,7878;0,0157501
3915,7520;0,0157514
3916,7163;0,0157022
3917,6804;0,0156486
3918,6448;0,0156464
3919,6089;0,0157203
3920,5732;0,015843
3921,5374;0,0159559
3922,5017;0,0160075
3923,4658;0,0159852
3924,4302;0,0159246
3925,3943;0,015887
3926,3586;0,015914
3927,3228;0,0159971
3928,2871;0,0160859
3929,2512;0,0161193
3930,2156;0,0160558
3931,1797;0,0158978
3932,1440;0,0156975
3933,1082;0,0155299
3934,0725;0,0154471
3935,0366;0,015455
3936,0010;0,0155258
3936,9651;0,0156227
3937,9294;0,0157161
3938,8936;0,0157872
3939,8579;0,0158268
3940,8220;0,0158351
3941,7864;0,0158243
3942,7505;0,0158167
3943,7148;0,0158336
3944,6790;0,0158795
3945,6433;0,0159377
3946,6074;0,0159795
3947,5718;0,0159799
3948,5359;0,0159304
3949,5002;0,015843
3950,4644;0,0157433
3951,4287;0,015655
3952,3928;0,0155897
3953,3572;0,015549
3954,3213;0,0155317
3955,2856;0,0155365
3956,2498;0,0155593
3957,2141;0,0155896
3958,1782;0,0156128
3959,1426;0,0156153
3960,1067;0,0155916
3961,0710;0,0155474
3962,0352;0,0154972
3962,9995;0,0154577
3963,9636;0,0154398
3964,9280;0,0154456
3965,8921;0,0154691
3966,8564;0,0155012
3967,8206;0,015534
3968,7849;0,0155631
3969,7490;0,0155875
3970,7134;0,0156068
3971,6775;0,0156194
3972,6418;0,0156217
3973,6060;0,0156106
3974,5703;0,0155865
3975,5344;0,015555
3976,4988;0,0155252
3977,4629;0,0155046
3978,4272;0,0154957
3979,3914;0,0154952
3980,3557;0,0154966
3981,3198;0,0154937
3982,2842;0,0154834
3983,2483;0,0154672
3984,2126;0,0154496
3985,1768;0,0154368
3986,1411;0,0154341
3987,1052;0,0154447
3988,0696;0,0154681
3989,0337;0,0155
3989,9980;0,015532
3990,9622;0,0155546
3991,9265;0,0155603
3992,8906;0,0155462
3993,8550;0,0155155
3994,8191;0,0154756
3995,7834;0,0154359
3996,7476;0,0154046
3997,7119;0,0153865
3998,6760;0,0153829
3999,6404;0,015392
4000,6045;0,0157105

##### Extended Information
[Comments]
Sample name
Comment
Username
Division
Organization;UNIVERSIDAD INDUSTRIAL DE SANTANDER

[Detailed Information]
Creation date;18/03/2025 1:48 p.m.

Data array type;Linear data array
Horizontal axis;Wavenumber [cm-1]
Vertical axis;Abs
Start;399,193 cm-1
End;4000,6 cm-1
Data interval;0,964233 cm-1
Data points;3736    

[Measurement Information]
Model name;FT/IR-4X1typeA
Serial No.;A035162111

Accessory;ATR PRO 4X
Accessory S/N;A021162126
Incident angle;45 deg

Measurement date;18/03/2025 1:47 p.m.

Light source;Standard
Detector;TGS
Accumulation;40
Resolution;4 cm-1
Zero filling;On
Apodization;Cosine
Gain;Auto (8)
Aperture;Auto (7 mm)
Scan speed;Auto (2 mm/sec)
Filter;Auto (12800 Hz)

