TITLE;
DATA TYPE;INFRARED SPECTRUM
ORIGIN;JASCO
OWNER;
DATE;25/03/18
TIME;14:00:54
SPECTROMETER/DATA SYSTEM;
LOCALE;9226
RESOLUTION;
DELTAX;0,964233
XUNITS;1/CM
YUNITS;ABSORBANCE
FIRSTX;  399,1927
LASTX; 4000,6047
NPOINTS;    3736
FIRSTY;     0,12038
MAXY;     0,17412
MINY;     0,01234
XYDATA
399,1927;0,120384
400,1569;0,121363
401,1211;0,120584
402,0854;0,118796
403,0496;0,11679
404,0138;0,115208
404,9781;0,114445
405,9423;0,114572
406,9065;0,115335
407,8708;0,116318
408,8350;0,117186
409,7992;0,117834
410,7635;0,118373
411,7277;0,118986
412,6919;0,119774
413,6562;0,12071
414,6204;0,121697
415,5846;0,122657
416,5489;0,123586
417,5131;0,124558
418,4773;0,12567
419,4416;0,126902
420,4058;0,12806
421,3700;0,128919
422,3343;0,129331
423,2985;0,129233
424,2627;0,128652
425,2270;0,127746
426,1912;0,12679
427,1554;0,126082
428,1197;0,125816
429,0839;0,126016
430,0481;0,126563
431,0124;0,127256
431,9766;0,127884
432,9408;0,128277
433,9051;0,128348
434,8693;0,12811
435,8335;0,127678
436,7978;0,127235
437,7620;0,126954
438,7262;0,126925
439,6905;0,127115
440,6547;0,127393
441,6189;0,127584
442,5832;0,12755
443,5474;0,127261
444,5116;0,126801
445,4759;0,126294
446,4401;0,125828
447,4043;0,125428
448,3686;0,125087
449,3328;0,124802
450,2970;0,124584
451,2613;0,124446
452,2255;0,124395
453,1897;0,124431
454,1540;0,124568
455,1182;0,124823
456,0824;0,125181
457,0467;0,125535
458,0109;0,125683
458,9751;0,125436
459,9394;0,124762
460,9036;0,123808
461,8678;0,122796
462,8321;0,121921
463,7963;0,121299
464,7605;0,120965
465,7248;0,120889
466,6890;0,121011
467,6532;0,121271
468,6175;0,121612
469,5817;0,121973
470,5459;0,122283
471,5102;0,122476
472,4744;0,12253
473,4386;0,122481
474,4029;0,12239
475,3671;0,122294
476,3313;0,122199
477,2956;0,122109
478,2598;0,12205
479,2240;0,122079
480,1883;0,122257
481,1525;0,122606
482,1167;0,123091
483,0810;0,123626
484,0452;0,124109
485,0094;0,12446
485,9737;0,124656
486,9379;0,124721
487,9021;0,124716
488,8664;0,124709
489,8306;0,12477
490,7948;0,12495
491,7591;0,125269
492,7233;0,125698
493,6875;0,126171
494,6518;0,126618
495,6160;0,126986
496,5802;0,12725
497,5445;0,127406
498,5087;0,127465
499,4729;0,127457
500,4372;0,127439
501,4014;0,127491
502,3656;0,127684
503,3299;0,128033
504,2941;0,128471
505,2583;0,12888
506,2226;0,129157
507,1868;0,129266
508,1510;0,129271
509,1153;0,129298
510,0795;0,12947
511,0437;0,129833
512,0080;0,130347
512,9722;0,130925
513,9365;0,131493
514,9007;0,132029
515,8649;0,132559
516,8292;0,133108
517,7934;0,133651
518,7576;0,134103
519,7219;0,134374
520,6861;0,134444
521,6503;0,134374
522,6146;0,134267
523,5788;0,134212
524,5430;0,134242
525,5073;0,134325
526,4715;0,134395
527,4357;0,134406
528,4000;0,134363
529,3642;0,134305
530,3284;0,134269
531,2927;0,134264
532,2569;0,134267
533,2211;0,134243
534,1854;0,134172
535,1496;0,134055
536,1138;0,133911
537,0781;0,133764
538,0423;0,133633
539,0065;0,133531
539,9708;0,133467
540,9350;0,133447
541,8992;0,133473
542,8635;0,133542
543,8277;0,133653
544,7919;0,133805
545,7562;0,134
546,7204;0,134236
547,6846;0,134504
548,6489;0,134791
549,6131;0,135081
550,5773;0,135368
551,5416;0,135661
552,5058;0,135979
553,4700;0,136341
554,4343;0,136753
555,3985;0,137193
556,3627;0,137611
557,3270;0,137935
558,2912;0,138099
559,2554;0,138056
560,2197;0,137797
561,1839;0,137351
562,1481;0,136777
563,1124;0,136146
564,0766;0,135522
565,0408;0,134948
566,0051;0,134434
566,9693;0,133967
567,9335;0,133522
568,8978;0,133084
569,8620;0,132663
570,8262;0,13229
571,7905;0,132006
572,7547;0,13184
573,7189;0,131793
574,6832;0,131833
575,6474;0,131907
576,6116;0,131957
577,5759;0,131948
578,5401;0,131878
579,5043;0,131774
580,4686;0,131673
581,4328;0,1316
582,3970;0,131556
583,3613;0,131515
584,3255;0,131449
585,2897;0,131349
586,2540;0,131238
587,2182;0,13117
588,1824;0,131194
589,1467;0,131326
590,1109;0,131528
591,0751;0,131713
592,0394;0,131779
593,0036;0,131656
593,9678;0,131341
594,9321;0,130892
595,8963;0,130398
596,8605;0,12995
597,8248;0,129608
598,7890;0,129392
599,7532;0,129276
600,7175;0,129198
601,6817;0,129089
602,6459;0,128901
603,6102;0,128629
604,5744;0,128303
605,5386;0,127969
606,5029;0,127663
607,4671;0,127388
608,4313;0,127117
609,3956;0,126812
610,3598;0,126444
611,3240;0,126003
612,2883;0,125502
613,2525;0,12496
614,2167;0,1244
615,1810;0,123835
616,1452;0,12327
617,1094;0,122698
618,0737;0,122102
619,0379;0,121456
620,0021;0,120741
620,9664;0,119954
621,9306;0,119114
622,8948;0,118256
623,8591;0,117419
624,8233;0,116629
625,7875;0,115889
626,7518;0,115187
627,7160;0,11451
628,6802;0,113863
629,6445;0,113267
630,6087;0,112741
631,5729;0,112285
632,5372;0,111872
633,5014;0,111457
634,4656;0,111004
635,4299;0,110501
636,3941;0,109969
637,3583;0,109441
638,3226;0,108946
639,2868;0,108494
640,2510;0,108075
641,2153;0,107671
642,1795;0,107264
643,1437;0,10684
644,1080;0,106394
645,0722;0,105927
646,0364;0,105448
647,0007;0,104974
647,9649;0,10453
648,9291;0,104144
649,8934;0,10384
650,8576;0,103629
651,8218;0,103515
652,7861;0,103493
653,7503;0,103553
654,7145;0,103673
655,6788;0,103822
656,6430;0,103962
657,6072;0,104061
658,5715;0,104106
659,5357;0,104106
660,4999;0,104085
661,4642;0,104066
662,4284;0,104043
663,3926;0,103981
664,3569;0,103804
665,3211;0,103396
666,2853;0,102601
667,2496;0,101343
668,2138;0,0998832
669,1780;0,0987896
670,1423;0,0982883
671,1065;0,09808
672,0707;0,0978065
673,0350;0,0972752
673,9992;0,0964323
674,9634;0,0953277
675,9277;0,0940888
676,8919;0,0928615
677,8561;0,0917387
678,8204;0,0907405
679,7846;0,0898543
680,7488;0,0890769
681,7131;0,0884175
682,6773;0,0878771
683,6415;0,0874357
684,6058;0,0870627
685,5700;0,0867365
686,5342;0,0864506
687,4985;0,0862047
688,4627;0,0859917
689,4269;0,0857959
690,3912;0,0856015
691,3554;0,0854038
692,3196;0,085212
693,2839;0,0850422
694,2481;0,0849072
695,2123;0,0848084
696,1766;0,084734
697,1408;0,0846622
698,1050;0,0845688
699,0693;0,0844359
700,0335;0,0842581
700,9977;0,0840422
701,9620;0,0838005
702,9262;0,0835426
703,8904;0,0832707
704,8547;0,0829807
705,8189;0,0826695
706,7831;0,0823415
707,7474;0,0820089
708,7116;0,0816845
709,6758;0,0813739
710,6401;0,0810708
711,6043;0,0807591
712,5685;0,0804197
713,5328;0,0800382
714,4970;0,0796088
715,4612;0,0791622
716,4255;0,0786429
717,3897;0,0780945
718,3539;0,077535
719,3182;0,0769876
720,2824;0,0764749
721,2466;0,0760077
722,2109;0,0755771
723,1751;0,0751575
724,1393;0,0747183
725,1036;0,074238
726,0678;0,0737121
727,0320;0,0731538
727,9963;0,0725858
728,9605;0,0720289
729,9247;0,0714954
730,8890;0,0709879
731,8532;0,0705052
732,8174;0,0700463
733,7817;0,0696116
734,7459;0,0692007
735,7101;0,0688109
736,6744;0,068439
737,6386;0,0680837
738,6028;0,0677469
739,5671;0,0674309
740,5313;0,0671334
741,4955;0,0668446
742,4598;0,0665498
743,4240;0,0662352
744,3882;0,0658956
745,3525;0,0655368
746,3167;0,0651731
747,2809;0,0648212
748,2452;0,0644928
749,2094;0,0641908
750,1736;0,0639085
751,1379;0,0636323
752,1021;0,0633467
753,0663;0,0630399
754,0306;0,0627097
754,9948;0,0623655
755,9590;0,0620245
756,9233;0,0617041
757,8875;0,0614125
758,8517;0,0611448
759,8160;0,0608872
760,7802;0,0606272
761,7444;0,0603632
762,7087;0,0601056
763,6729;0,0598686
764,6371;0,0596585
765,6014;0,0594661
766,5656;0,0592709
767,5298;0,0590534
768,4941;0,0588077
769,4583;0,0585446
770,4225;0,0582851
771,3868;0,0580475
772,3510;0,0578383
773,3152;0,0576525
774,2795;0,057481
775,2437;0,0573193
776,2079;0,0571692
777,1722;0,0570345
778,1364;0,0569127
779,1006;0,0567911
780,0649;0,0566499
781,0291;0,0564709
781,9933;0,0562459
782,9576;0,0559804
783,9218;0,0556907
784,8860;0,0553973
785,8503;0,0551186
786,8145;0,0548664
787,7787;0,0546446
788,7430;0,0544502
789,7072;0,0542748
790,6714;0,0541097
791,6357;0,0539494
792,5999;0,0537954
793,5641;0,0536545
794,5284;0,0535343
795,4926;0,0534372
796,4568;0,0533577
797,4211;0,0532857
798,3853;0,0532117
799,3495;0,0531313
800,3138;0,0530446
801,2780;0,0529523
802,2422;0,0528534
803,2065;0,0527463
804,1707;0,0526318
805,1349;0,0525161
806,0992;0,0524075
807,0634;0,0523114
808,0276;0,0522262
808,9919;0,0521451
809,9561;0,0520619
810,9203;0,0519769
811,8846;0,0518972
812,8488;0,0518318
813,8130;0,0517838
814,7773;0,0517472
815,7415;0,0517089
816,7057;0,0516561
817,6700;0,0515828
818,6342;0,0514928
819,5984;0,0513972
820,5627;0,051309
821,5269;0,0512378
822,4911;0,0511863
823,4554;0,0511498
824,4196;0,0511198
825,3839;0,0510884
826,3481;0,051052
827,3123;0,0510117
828,2766;0,0509685
829,2408;0,050919
830,2050;0,0508528
831,1693;0,050758
832,1335;0,0506295
833,0977;0,0504757
834,0620;0,0503154
835,0262;0,0501659
835,9904;0,0500304
836,9547;0,0498944
837,9189;0,0497356
838,8831;0,0495415
839,8474;0,0493209
840,8116;0,0491018
841,7758;0,0489135
842,7401;0,048768
843,7043;0,0486533
844,6685;0,0485435
845,6328;0,0484189
846,5970;0,0482818
847,5612;0,0481558
848,5255;0,048071
849,4897;0,0480428
850,4539;0,0480608
851,4182;0,0480907
852,3824;0,0480911
853,3466;0,048032
854,3109;0,0479085
855,2751;0,0477415
856,2393;0,0475674
857,2036;0,0474221
858,1678;0,0473275
859,1320;0,0472859
860,0963;0,0472839
861,0605;0,0473032
862,0247;0,0473316
862,9890;0,0473665
863,9532;0,0474125
864,9174;0,0474742
865,8817;0,0475511
866,8459;0,0476392
867,8101;0,0477355
868,7744;0,0478415
869,7386;0,0479626
870,7028;0,0481015
871,6671;0,0482533
872,6313;0,0484055
873,5955;0,0485445
874,5598;0,0486621
875,5240;0,0487596
876,4882;0,0488438
877,4525;0,0489221
878,4167;0,0489985
879,3809;0,0490763
880,3452;0,0491635
881,3094;0,0492763
882,2736;0,0494361
883,2379;0,0496615
884,2021;0,0499603
885,1663;0,0503279
886,1306;0,0507518
887,0948;0,0512195
888,0590;0,0517236
889,0233;0,0522604
889,9875;0,0528246
890,9517;0,0534031
891,9160;0,0539725
892,8802;0,0545027
893,8444;0,0549628
894,8087;0,0553276
895,7729;0,0555817
896,7371;0,0557206
897,7014;0,0557487
898,6656;0,0556756
899,6298;0,055511
900,5941;0,0552619
901,5583;0,0549322
902,5225;0,0545268
903,4868;0,0540574
904,4510;0,0535484
905,4152;0,0530371
906,3795;0,0525674
907,3437;0,0521793
908,3079;0,0518968
909,2722;0,0517212
910,2364;0,0516327
911,2007;0,0515999
912,1649;0,051593
913,1292;0,0515944
914,0934;0,0516024
915,0576;0,0516253
916,0219;0,0516727
916,9861;0,0517488
917,9503;0,0518515
918,9146;0,0519781
919,8788;0,0521288
920,8430;0,0523066
921,8073;0,0525108
922,7715;0,0527308
923,7357;0,0529458
924,7000;0,0531323
925,6642;0,0532758
926,6284;0,0533766
927,5927;0,053449
928,5569;0,0535114
929,5211;0,0535782
930,4854;0,0536553
931,4496;0,0537444
932,4138;0,0538471
933,3781;0,0539682
934,3423;0,0541137
935,3065;0,0542875
936,2708;0,0544896
937,2350;0,0547179
938,1992;0,0549719
939,1635;0,0552546
940,1277;0,0555727
941,0919;0,0559348
942,0562;0,056349
943,0204;0,0568215
943,9846;0,0573541
944,9489;0,057943
945,9131;0,0585789
946,8773;0,0592491
947,8416;0,059943
948,8058;0,0606571
949,7700;0,061397
950,7343;0,0621747
951,6985;0,0630025
952,6627;0,0638882
953,6270;0,0648322
954,5912;0,0658298
955,5554;0,0668743
956,5197;0,0679594
957,4839;0,0690797
958,4481;0,0702299
959,4124;0,0714039
960,3766;0,0725953
961,3408;0,0737983
962,3051;0,0750097
963,2693;0,0762296
964,2335;0,0774611
965,1978;0,0787089
966,1620;0,0799777
967,1262;0,0812724
968,0905;0,0825988
969,0547;0,0839662
970,0189;0,0853898
970,9832;0,0868898
971,9474;0,0884895
972,9116;0,0902106
973,8759;0,0920707
974,8401;0,0940832
975,8043;0,096258
976,7686;0,0986025
977,7328;0,101117
978,6970;0,103785
979,6613;0,106568
980,6255;0,1094
981,5897;0,112195
982,5540;0,114858
983,5182;0,117311
984,4824;0,1195
985,4467;0,121406
986,4109;0,123041
987,3751;0,124432
988,3394;0,125618
989,3036;0,126633
990,2678;0,127504
991,2321;0,128257
992,1963;0,128912
993,1605;0,129494
994,1248;0,130028
995,0890;0,13054
996,0532;0,13105
997,0175;0,131571
997,9817;0,132107
998,9459;0,132654
999,9102;0,133214
1000,8744;0,133795
1001,8386;0,134418
1002,8029;0,135112
1003,7671;0,135904
1004,7313;0,136812
1005,6956;0,137844
1006,6598;0,139
1007,6240;0,140281
1008,5883;0,141686
1009,5525;0,143214
1010,5167;0,144852
1011,4810;0,146573
1012,4452;0,14834
1013,4094;0,150121
1014,3737;0,15189
1015,3379;0,153636
1016,3021;0,155349
1017,2664;0,157023
1018,2306;0,158642
1019,1948;0,160194
1020,1591;0,161677
1021,1233;0,163097
1022,0875;0,164469
1023,0518;0,165806
1024,0160;0,167112
1024,9802;0,16838
1025,9445;0,169595
1026,9087;0,170744
1027,8729;0,171803
1028,8372;0,172736
1029,8014;0,173487
1030,7656;0,173976
1031,7299;0,174116
1032,6941;0,173835
1033,6583;0,173098
1034,6226;0,171923
1035,5868;0,170389
1036,5510;0,168622
1037,5153;0,166776
1038,4795;0,165006
1039,4437;0,163442
1040,4080;0,162169
1041,3722;0,161222
1042,3364;0,160584
1043,3007;0,160204
1044,2649;0,160009
1045,2291;0,15992
1046,1934;0,159863
1047,1576;0,159776
1048,1218;0,159608
1049,0861;0,159318
1050,0503;0,158875
1051,0145;0,158254
1051,9788;0,157441
1052,9430;0,156429
1053,9072;0,155223
1054,8715;0,153833
1055,8357;0,152266
1056,7999;0,15052
1057,7642;0,148573
1058,7284;0,146396
1059,6926;0,143962
1060,6569;0,141275
1061,6211;0,138379
1062,5853;0,135365
1063,5496;0,132346
1064,5138;0,129438
1065,4780;0,126726
1066,4423;0,124257
1067,4065;0,122038
1068,3707;0,120042
1069,3350;0,118229
1070,2992;0,116552
1071,2634;0,11497
1072,2277;0,113446
1073,1919;0,111951
1074,1561;0,110466
1075,1204;0,108977
1076,0846;0,107482
1077,0488;0,105987
1078,0131;0,10451
1078,9773;0,103078
1079,9415;0,101722
1080,9058;0,100471
1081,8700;0,0993513
1082,8342;0,0983748
1083,7985;0,0975427
1084,7627;0,0968452
1085,7269;0,0962648
1086,6912;0,0957817
1087,6554;0,0953787
1088,6196;0,0950456
1089,5839;0,0947807
1090,5481;0,0945898
1091,5123;0,0944809
1092,4766;0,0944582
1093,4408;0,0945185
1094,4050;0,0946511
1095,3693;0,0948423
1096,3335;0,095082
1097,2977;0,0953676
1098,2620;0,0957029
1099,2262;0,0960915
1100,1904;0,0965272
1101,1547;0,0969879
1102,1189;0,0974364
1103,0831;0,0978297
1104,0474;0,098131
1105,0116;0,0983205
1105,9758;0,0983972
1106,9401;0,0983712
1107,9043;0,0982503
1108,8685;0,0980274
1109,8328;0,0976766
1110,7970;0,0971621
1111,7612;0,0964552
1112,7255;0,0955536
1113,6897;0,0944917
1114,6539;0,0933375
1115,6182;0,0921747
1116,5824;0,0910785
1117,5466;0,0900946
1118,5109;0,0892279
1119,4751;0,0884444
1120,4393;0,0876828
1121,4036;0,0868715
1122,3678;0,0859462
1123,3320;0,084862
1124,2963;0,0836014
1125,2605;0,0821737
1126,2247;0,0806089
1127,1890;0,0789473
1128,1532;0,0772292
1129,1174;0,0754873
1130,0817;0,073745
1131,0459;0,072019
1132,0101;0,070325
1132,9744;0,0686831
1133,9386;0,0671203
1134,9028;0,0656708
1135,8671;0,0643712
1136,8313;0,0632551
1137,7955;0,0623458
1138,7598;0,0616515
1139,7240;0,0611638
1140,6882;0,0608611
1141,6525;0,0607146
1142,6167;0,0606947
1143,5809;0,0607762
1144,5452;0,0609395
1145,5094;0,0611708
1146,4736;0,0614603
1147,4379;0,0618015
1148,4021;0,0621897
1149,3663;0,0626211
1150,3306;0,0630896
1151,2948;0,0635847
1152,2590;0,0640905
1153,2233;0,0645859
1154,1875;0,0650466
1155,1517;0,0654456
1156,1160;0,0657525
1157,0802;0,0659313
1158,0444;0,0659388
1159,0087;0,0657253
1159,9729;0,0652397
1160,9371;0,0644385
1161,9014;0,0632963
1162,8656;0,0618151
1163,8298;0,0600292
1164,7941;0,0580028
1165,7583;0,0558215
1166,7225;0,0535793
1167,6868;0,0513653
1168,6510;0,0492525
1169,6152;0,0472926
1170,5795;0,0455157
1171,5437;0,0439344
1172,5079;0,0425491
1173,4722;0,0413528
1174,4364;0,0403331
1175,4006;0,0394734
1176,3649;0,0387539
1177,3291;0,0381528
1178,2933;0,0376487
1179,2576;0,0372229
1180,2218;0,0368608
1181,1860;0,0365536
1182,1503;0,0362975
1183,1145;0,0360932
1184,0787;0,0359435
1185,0430;0,0358503
1186,0072;0,0358131
1186,9714;0,0358281
1187,9357;0,0358899
1188,8999;0,0359949
1189,8641;0,0361427
1190,8284;0,036337
1191,7926;0,0365824
1192,7568;0,0368818
1193,7211;0,0372345
1194,6853;0,0376359
1195,6495;0,0380789
1196,6138;0,0385551
1197,5780;0,0390542
1198,5422;0,0395645
1199,5065;0,0398273
1200,4707;0,0403519
1201,4349;0,0408582
1202,3992;0,0413442
1203,3634;0,0418139
1204,3276;0,0422736
1205,2919;0,0427282
1206,2561;0,0431799
1207,2203;0,0436293
1208,1846;0,0440785
1209,1488;0,0445334
1210,1130;0,0450039
1211,0773;0,0455016
1212,0415;0,0460359
1213,0057;0,0466114
1213,9700;0,0472264
1214,9342;0,0478735
1215,8984;0,0485425
1216,8627;0,0492201
1217,8269;0,0498916
1218,7911;0,0505452
1219,7554;0,0511715
1220,7196;0,0517625
1221,6838;0,0523122
1222,6481;0,0528156
1223,6123;0,0532703
1224,5765;0,0536776
1225,5408;0,0540433
1226,5050;0,0543759
1227,4692;0,0546838
1228,4335;0,0549722
1229,3977;0,0552408
1230,3619;0,0554845
1231,3262;0,0556966
1232,2904;0,0558715
1233,2546;0,0560077
1234,2189;0,0561087
1235,1831;0,0561819
1236,1473;0,0562362
1237,1116;0,0562794
1238,0758;0,0563159
1239,0400;0,0563453
1240,0043;0,0563637
1240,9685;0,0563641
1241,9327;0,0563396
1242,8970;0,0562841
1243,8612;0,056193
1244,8254;0,0560634
1245,7897;0,0558948
1246,7539;0,0556902
1247,7181;0,0554569
1248,6824;0,0552056
1249,6466;0,0549472
1250,6108;0,0546898
1251,5751;0,0544366
1252,5393;0,0541878
1253,5035;0,0539434
1254,4678;0,0537055
1255,4320;0,0534763
1256,3962;0,0532546
1257,3605;0,0530328
1258,3247;0,0527969
1259,2889;0,0525324
1260,2532;0,0522311
1261,2174;0,0518945
1262,1816;0,0515323
1263,1459;0,0511557
1264,1101;0,0507708
1265,0743;0,0503774
1266,0386;0,0499699
1267,0028;0,049542
1267,9670;0,0490895
1268,9313;0,0486112
1269,8955;0,0481096
1270,8597;0,0475894
1271,8240;0,0470571
1272,7882;0,0465199
1273,7524;0,045985
1274,7167;0,0454598
1275,6809;0,0449515
1276,6451;0,0444669
1277,6094;0,0440099
1278,5736;0,0435797
1279,5378;0,0431699
1280,5021;0,0427711
1281,4663;0,0423763
1282,4305;0,0419846
1283,3948;0,0416022
1284,3590;0,041239
1285,3232;0,0409045
1286,2875;0,0406044
1287,2517;0,0403411
1288,2159;0,040116
1289,1802;0,0399314
1290,1444;0,0397917
1291,1086;0,0397012
1292,0729;0,0396625
1293,0371;0,0396763
1294,0013;0,0397418
1294,9656;0,0398576
1295,9298;0,040022
1296,8940;0,0402333
1297,8583;0,0404899
1298,8225;0,0407908
1299,7867;0,0411355
1300,7510;0,0415224
1301,7152;0,0419516
1302,6794;0,0424192
1303,6437;0,0429191
1304,6079;0,0434464
1305,5721;0,0439971
1306,5364;0,0445694
1307,5006;0,0451631
1308,4648;0,0457781
1309,4291;0,0464113
1310,3933;0,0470547
1311,3575;0,0476933
1312,3218;0,0483064
1313,2860;0,0488713
1314,2502;0,0493677
1315,2145;0,0497777
1316,1787;0,0500831
1317,1429;0,0502648
1318,1072;0,0503087
1319,0714;0,0502178
1320,0356;0,0500196
1320,9999;0,0497603
1321,9641;0,0494869
1322,9283;0,0492322
1323,8926;0,0490104
1324,8568;0,0488223
1325,8210;0,0486637
1326,7853;0,0485295
1327,7495;0,0484141
1328,7137;0,0483089
1329,6780;0,0482005
1330,6422;0,0480746
1331,6064;0,047923
1332,5707;0,047748
1333,5349;0,0475639
1334,4991;0,0473866
1335,4634;0,04722
1336,4276;0,0470427
1337,3918;0,0468016
1338,3561;0,0464298
1339,3203;0,0458988
1340,2845;0,0452627
1341,2488;0,0446332
1342,2130;0,0441045
1343,1772;0,0437103
1344,1415;0,043438
1345,1057;0,0432591
1346,0699;0,0431484
1347,0342;0,0430893
1347,9984;0,0430752
1348,9626;0,0431089
1349,9269;0,0431978
1350,8911;0,0433465
1351,8553;0,04355
1352,8196;0,0437939
1353,7838;0,0440601
1354,7480;0,0443356
1355,7123;0,0446195
1356,6765;0,0449209
1357,6407;0,0452505
1358,6050;0,0456145
1359,5692;0,0460092
1360,5334;0,0464109
1361,4977;0,0467714
1362,4619;0,0470483
1363,4261;0,0472529
1364,3904;0,0474431
1365,3546;0,047663
1366,3188;0,0479116
1367,2831;0,0481585
1368,2473;0,0483721
1369,2115;0,0485339
1370,1758;0,0486399
1371,1400;0,04869
1372,1042;0,0486751
1373,0685;0,0485709
1374,0327;0,0483519
1374,9969;0,0480222
1375,9612;0,0476206
1376,9254;0,0471824
1377,8896;0,046707
1378,8539;0,0461754
1379,8181;0,0455891
1380,7823;0,0449865
1381,7466;0,0444196
1382,7108;0,0439139
1383,6750;0,0434509
1384,6393;0,0429865
1385,6035;0,0424829
1386,5677;0,041942
1387,5320;0,0414286
1388,4962;0,0410404
1389,4604;0,0408244
1390,4247;0,0407416
1391,3889;0,0407225
1392,3531;0,0407328
1393,3174;0,0407824
1394,2816;0,0408833
1395,2458;0,0410099
1396,2101;0,0411078
1397,1743;0,0411424
1398,1385;0,0411314
1399,1028;0,0411328
1400,0670;0,0412019
1401,0313;0,0413551
1401,9955;0,0415656
1402,9597;0,0417892
1403,9240;0,0419943
1404,8882;0,0421813
1405,8524;0,0423828
1406,8167;0,0426396
1407,7809;0,0429667
1408,7451;0,0433469
1409,7094;0,0437578
1410,6736;0,044197
1411,6378;0,0446792
1412,6021;0,0452087
1413,5663;0,0457546
1414,5305;0,0462585
1415,4948;0,0466682
1416,4590;0,0469582
1417,4232;0,0471203
1418,3875;0,04717
1419,3517;0,0471972
1420,3159;0,0473257
1421,2802;0,0475665
1422,2444;0,0477918
1423,2086;0,0478549
1424,1729;0,0476935
1425,1371;0,0473429
1426,1013;0,0468793
1427,0656;0,0463555
1428,0298;0,0457795
1428,9940;0,0451436
1429,9583;0,0444653
1430,9225;0,0437879
1431,8867;0,0431278
1432,8510;0,0424392
1433,8152;0,0416476
1434,7794;0,0407171
1435,7437;0,0397078
1436,7079;0,0388068
1437,6721;0,0382556
1438,6364;0,0381502
1439,6006;0,0383581
1440,5648;0,038662
1441,5291;0,0389216
1442,4933;0,0391163
1443,4575;0,0392971
1444,4218;0,0395161
1445,3860;0,0397818
1446,3502;0,0400647
1447,3145;0,0403375
1448,2787;0,0406144
1449,2429;0,0409442
1450,2072;0,0413493
1451,1714;0,0417739
1452,1356;0,0421079
1453,0999;0,0422704
1454,0641;0,04228
1455,0283;0,042232
1455,9926;0,0421185
1456,9568;0,0417399
1457,9210;0,0411763
1458,8853;0,0409096
1459,8495;0,0410782
1460,8137;0,0413837
1461,7780;0,0415089
1462,7422;0,0413028
1463,7064;0,0407624
1464,6707;0,0399965
1465,6349;0,0392038
1466,5991;0,038557
1467,5634;0,0380568
1468,5276;0,0375624
1469,4918;0,0369399
1470,4561;0,0361352
1471,4203;0,0351271
1472,3845;0,0338701
1473,3488;0,0324114
1474,3130;0,0310234
1475,2772;0,0299822
1476,2415;0,0293247
1477,2057;0,0289257
1478,1699;0,0286539
1479,1342;0,0284293
1480,0984;0,0282179
1481,0626;0,0280193
1482,0269;0,0278591
1482,9911;0,0277738
1483,9553;0,027789
1484,9196;0,0279125
1485,8838;0,0281435
1486,8480;0,028464
1487,8123;0,0287856
1488,7765;0,0289493
1489,7407;0,0289117
1490,7050;0,0288642
1491,6692;0,0289971
1492,6334;0,0293121
1493,5977;0,0297202
1494,5619;0,0301789
1495,5261;0,0307091
1496,4904;0,0313198
1497,4546;0,031969
1498,4188;0,0326445
1499,3831;0,0333842
1500,3473;0,0341473
1501,3115;0,0347793
1502,2758;0,0351305
1503,2400;0,0351853
1504,2042;0,03513
1505,1685;0,0352687
1506,1327;0,0356144
1507,0969;0,0355872
1508,0612;0,0349798
1509,0254;0,0344158
1509,9896;0,0341972
1510,9539;0,0341399
1511,9181;0,0340394
1512,8823;0,0338352
1513,8466;0,03356
1514,8108;0,0332483
1515,7750;0,0328863
1516,7393;0,0324318
1517,7035;0,0318685
1518,6677;0,0312314
1519,6320;0,0305899
1520,5962;0,0300171
1521,5604;0,029572
1522,5247;0,0292818
1523,4889;0,029114
1524,4531;0,0289875
1525,4174;0,0288383
1526,3816;0,0286725
1527,3458;0,0285478
1528,3101;0,0285041
1529,2743;0,0285297
1530,2385;0,0285974
1531,2028;0,0287113
1532,1670;0,0288982
1533,1312;0,0291585
1534,0955;0,0294472
1535,0597;0,0296918
1536,0239;0,0298237
1536,9882;0,0298555
1537,9524;0,0299681
1538,9166;0,0304428
1539,8809;0,0312386
1540,8451;0,0316739
1541,8093;0,031358
1542,7736;0,0308049
1543,7378;0,0304503
1544,7020;0,030314
1545,6663;0,0303141
1546,6305;0,0304049
1547,5947;0,0305531
1548,5590;0,0307135
1549,5232;0,0308476
1550,4874;0,0309536
1551,4517;0,0310668
1552,4159;0,0312148
1553,3801;0,0313656
1554,3444;0,031433
1555,3086;0,0313479
1556,2728;0,0311085
1557,2371;0,0306771
1558,2013;0,0298539
1559,1655;0,028862
1560,1298;0,028628
1561,0940;0,0294219
1562,0582;0,0306912
1563,0225;0,0318877
1563,9867;0,0327603
1564,9509;0,0332868
1565,9152;0,0335618
1566,8794;0,0337125
1567,8436;0,0338423
1568,8079;0,0340152
1569,7721;0,0342785
1570,7363;0,0346529
1571,7006;0,0350915
1572,6648;0,0355076
1573,6290;0,0358586
1574,5933;0,036169
1575,5575;0,0364642
1576,5217;0,0367432
1577,4860;0,0370689
1578,4502;0,0375325
1579,4144;0,03811
1580,3787;0,0386957
1581,3429;0,0392216
1582,3071;0,0396918
1583,2714;0,040149
1584,2356;0,0406292
1585,1998;0,041144
1586,1641;0,0416837
1587,1283;0,0422281
1588,0925;0,0427551
1589,0568;0,0432411
1590,0210;0,0436624
1590,9852;0,0439943
1591,9495;0,0442115
1592,9137;0,0442893
1593,8779;0,0442119
1594,8422;0,0439863
1595,8064;0,0436503
1596,7706;0,0432631
1597,7349;0,0428808
1598,6991;0,0425362
1599,6633;0,0422331
1600,6276;0,0419555
1601,5918;0,0416854
1602,5560;0,0414199
1603,5203;0,0411743
1604,4845;0,0409649
1605,4487;0,0407871
1606,4130;0,0406112
1607,3772;0,0404025
1608,3414;0,0401549
1609,3057;0,039911
1610,2699;0,0397319
1611,2341;0,0396349
1612,1984;0,039571
1613,1626;0,03947
1614,1268;0,039297
1615,0911;0,0390627
1616,0553;0,0388161
1617,0195;0,0386724
1617,9838;0,0387652
1618,9480;0,0390874
1619,9122;0,0394804
1620,8765;0,0397815
1621,8407;0,0399172
1622,8049;0,039901
1623,7692;0,0397978
1624,7334;0,0396868
1625,6976;0,0396155
1626,6619;0,0395871
1627,6261;0,0395964
1628,5903;0,0396539
1629,5546;0,0397598
1630,5188;0,0398689
1631,4830;0,0399123
1632,4473;0,0398677
1633,4115;0,0397992
1634,3757;0,039776
1635,3400;0,0397274
1636,3042;0,0395586
1637,2684;0,0394152
1638,2327;0,0394786
1639,1969;0,0397124
1640,1611;0,0399712
1641,1254;0,040146
1642,0896;0,0402025
1643,0538;0,0401802
1644,0181;0,0401741
1644,9823;0,0402589
1645,9465;0,0403759
1646,9108;0,0403831
1647,8750;0,0402398
1648,8392;0,0399473
1649,8035;0,0394361
1650,7677;0,0386535
1651,7319;0,0376199
1652,6962;0,0363608
1653,6604;0,0351345
1654,6246;0,0346134
1655,5889;0,0349805
1656,5531;0,0357149
1657,5173;0,0362928
1658,4816;0,0364884
1659,4458;0,0363102
1660,4100;0,0358696
1661,3743;0,0352888
1662,3385;0,034687
1663,3027;0,0341907
1664,2670;0,0338677
1665,2312;0,0336762
1666,1954;0,0335212
1667,1597;0,0333267
1668,1239;0,0330408
1669,0881;0,0326183
1670,0524;0,0320661
1671,0166;0,0314704
1671,9808;0,0308905
1672,9451;0,0302924
1673,9093;0,02964
1674,8735;0,0290057
1675,8378;0,0285704
1676,8020;0,0284843
1677,7662;0,0287114
1678,7305;0,0290388
1679,6947;0,0292258
1680,6589;0,029128
1681,6232;0,02871
1682,5874;0,02797
1683,5516;0,0269454
1684,5159;0,0259302
1685,4801;0,0253694
1686,4443;0,0253438
1687,4086;0,0255656
1688,3728;0,0257328
1689,3370;0,0257022
1690,3013;0,0254755
1691,2655;0,0251317
1692,2297;0,024774
1693,1940;0,0245047
1694,1582;0,0243999
1695,1224;0,0244569
1696,0867;0,0245376
1697,0509;0,0243966
1698,0151;0,0238574
1698,9794;0,023033
1699,9436;0,0223289
1700,9078;0,0221303
1701,8721;0,0224935
1702,8363;0,0231633
1703,8005;0,0238017
1704,7648;0,0241759
1705,7290;0,024237
1706,6932;0,0241127
1707,6575;0,0240104
1708,6217;0,0240769
1709,5859;0,0243294
1710,5502;0,0246998
1711,5144;0,0251114
1712,4786;0,0255191
1713,4429;0,0259017
1714,4071;0,0262153
1715,3713;0,0263252
1716,3356;0,0260371
1717,2998;0,0253878
1718,2640;0,0248083
1719,2283;0,0246791
1720,1925;0,0249725
1721,1567;0,0254313
1722,1210;0,0258302
1723,0852;0,026073
1724,0494;0,0261848
1725,0137;0,0262647
1725,9779;0,0264228
1726,9421;0,0267177
1727,9064;0,0271253
1728,8706;0,0275513
1729,8348;0,0278722
1730,7991;0,027974
1731,7633;0,0277726
1732,7275;0,0272544
1733,6918;0,0265868
1734,6560;0,0261148
1735,6202;0,0260532
1736,5845;0,0262905
1737,5487;0,0265635
1738,5129;0,0266823
1739,4772;0,026605
1740,4414;0,0264072
1741,4056;0,0262091
1742,3699;0,0260952
1743,3341;0,0260701
1744,2983;0,0260766
1745,2626;0,0260413
1746,2268;0,0258943
1747,1910;0,0255532
1748,1553;0,0249173
1749,1195;0,0239419
1750,0837;0,0227667
1751,0480;0,0216934
1752,0122;0,0209536
1752,9764;0,020555
1753,9407;0,0203542
1754,9049;0,0201964
1755,8691;0,0199919
1756,8334;0,0197214
1757,7976;0,0194029
1758,7618;0,019053
1759,7261;0,0186711
1760,6903;0,0182575
1761,6545;0,017842
1762,6188;0,0174864
1763,5830;0,0172438
1764,5472;0,0171185
1765,5115;0,017072
1766,4757;0,017061
1767,4399;0,0170658
1768,4042;0,0170842
1769,3684;0,0171014
1770,3326;0,0170619
1771,2969;0,0168902
1772,2611;0,0165805
1773,2253;0,0162569
1774,1896;0,0160749
1775,1538;0,0160755
1776,1180;0,0161809
1777,0823;0,0162878
1778,0465;0,016336
1779,0107;0,0163159
1779,9750;0,0162437
1780,9392;0,0161368
1781,9034;0,0160056
1782,8677;0,015862
1783,8319;0,0157345
1784,7961;0,015668
1785,7604;0,0156985
1786,7246;0,0158223
1787,6888;0,0159936
1788,6531;0,0161553
1789,6173;0,0162685
1790,5815;0,0163115
1791,5458;0,0162703
1792,5100;0,0161702
1793,4742;0,016102
1794,4385;0,0161417
1795,4027;0,0162678
1796,3669;0,0163951
1797,3312;0,0164522
1798,2954;0,0164148
1799,2596;0,0162955
1800,2239;0,0161253
1801,1881;0,0159455
1802,1523;0,0157985
1803,1166;0,0157118
1804,0808;0,0156896
1805,0450;0,0157216
1806,0093;0,0157933
1806,9735;0,0158882
1807,9377;0,0159827
1808,9020;0,0160436
1809,8662;0,0160395
1810,8304;0,0159639
1811,7947;0,0158464
1812,7589;0,0157316
1813,7231;0,0156475
1814,6874;0,0155953
1815,6516;0,0155623
1816,6158;0,0155376
1817,5801;0,0155212
1818,5443;0,0155233
1819,5085;0,0155546
1820,4728;0,0156157
1821,4370;0,0156963
1822,4012;0,0157843
1823,3655;0,015873
1824,3297;0,0159627
1825,2939;0,0160561
1826,2582;0,0161462
1827,2224;0,0162053
1828,1866;0,0161886
1829,1509;0,0160649
1830,1151;0,0158593
1831,0793;0,0156606
1832,0436;0,0155552
1833,0078;0,0155595
1833,9720;0,0156256
1834,9363;0,0156953
1835,9005;0,0157403
1836,8647;0,0157688
1837,8290;0,0158053
1838,7932;0,0158613
1839,7574;0,0159204
1840,7217;0,0159554
1841,6859;0,0159544
1842,6501;0,0159234
1843,6144;0,015871
1844,5786;0,0158094
1845,5428;0,0157651
1846,5071;0,0157516
1847,4713;0,0157443
1848,4355;0,0157049
1849,3998;0,0156229
1850,3640;0,0155252
1851,3282;0,0154533
1852,2925;0,0154315
1853,2567;0,0154547
1854,2209;0,0154994
1855,1852;0,0155445
1856,1494;0,0155828
1857,1136;0,0156176
1858,0779;0,0156518
1859,0421;0,015683
1860,0063;0,0157106
1860,9706;0,0157464
1861,9348;0,0158134
1862,8990;0,0159333
1863,8633;0,0161116
1864,8275;0,016332
1865,7917;0,016554
1866,7560;0,0167063
1867,7202;0,0167
1868,6844;0,0164935
1869,6487;0,0161578
1870,6129;0,0158309
1871,5771;0,0156061
1872,5414;0,0154942
1873,5056;0,015464
1874,4698;0,0154841
1875,4341;0,0155333
1876,3983;0,0155941
1877,3625;0,0156489
1878,3268;0,0156853
1879,2910;0,015701
1880,2552;0,0157048
1881,2195;0,0157108
1882,1837;0,0157311
1883,1479;0,0157682
1884,1122;0,0158148
1885,0764;0,0158574
1886,0406;0,0158833
1887,0049;0,0158846
1887,9691;0,0158589
1888,9333;0,0158113
1889,8976;0,0157571
1890,8618;0,0157194
1891,8260;0,0157163
1892,7903;0,0157506
1893,7545;0,0158092
1894,7188;0,0158695
1895,6830;0,0159074
1896,6472;0,0159074
1897,6115;0,0158701
1898,5757;0,0158121
1899,5399;0,0157585
1900,5042;0,0157344
1901,4684;0,0157554
1902,4326;0,0158221
1903,3969;0,015919
1904,3611;0,0160226
1905,3253;0,0161122
1906,2896;0,0161762
1907,2538;0,0162128
1908,2180;0,0162244
1909,1823;0,016214
1910,1465;0,0161866
1911,1107;0,0161496
1912,0750;0,0161101
1913,0392;0,016071
1914,0034;0,0160337
1914,9677;0,0160041
1915,9319;0,0159927
1916,8961;0,0160098
1917,8604;0,0160592
1918,8246;0,0161347
1919,7888;0,0162172
1920,7531;0,0162767
1921,7173;0,0162847
1922,6815;0,0162321
1923,6458;0,0161391
1924,6100;0,0160475
1925,5742;0,0159952
1926,5385;0,0159926
1927,5027;0,01602
1928,4669;0,0160451
1929,4312;0,0160442
1930,3954;0,0160142
1931,3596;0,0159723
1932,3239;0,0159406
1933,2881;0,0159302
1934,2523;0,0159356
1935,2166;0,0159434
1936,1808;0,0159459
1937,1450;0,0159505
1938,1093;0,0159777
1939,0735;0,0160499
1940,0377;0,016176
1941,0020;0,0163364
1941,9662;0,0164801
1942,9304;0,0165466
1943,8947;0,0165014
1944,8589;0,0163545
1945,8231;0,0161492
1946,7874;0,0159411
1947,7516;0,015782
1948,7158;0,0157085
1949,6801;0,015732
1950,6443;0,0158335
1951,6085;0,0159708
1952,5728;0,0160947
1953,5370;0,0161682
1954,5012;0,0161765
1955,4655;0,0161246
1956,4297;0,0160242
1957,3939;0,0158814
1958,3582;0,0156954
1959,3224;0,0154725
1960,2866;0,015244
1961,2509;0,0150715
1962,2151;0,0150253
1963,1793;0,015149
1964,1436;0,0154285
1965,1078;0,015786
1966,0720;0,0161068
1967,0363;0,0162911
1968,0005;0,0163063
1968,9647;0,0161972
1969,9290;0,0160446
1970,8932;0,0159084
1971,8574;0,0157977
1972,8217;0,0156809
1973,7859;0,015523
1974,7501;0,015325
1975,7144;0,0151436
1976,6786;0,0150676
1977,6428;0,0151627
1978,6071;0,0154227
1979,5713;0,0157658
1980,5355;0,0160785
1981,4998;0,0162703
1982,4640;0,0163086
1983,4282;0,0162239
1984,3925;0,0160883
1985,3567;0,0159801
1986,3209;0,0159488
1987,2852;0,0159991
1988,2494;0,016101
1989,2136;0,0162136
1990,1779;0,0163075
1991,1421;0,0163749
1992,1063;0,0164242
1993,0706;0,0164677
1994,0348;0,0165098
1994,9990;0,0165448
1995,9633;0,0165636
1996,9275;0,0165629
1997,8917;0,0165497
1998,8560;0,0165401
1999,8202;0,0165533
2000,7844;0,0166041
2001,7487;0,0166996
2002,7129;0,0168389
2003,6771;0,0170166
2004,6414;0,0172244
2005,6056;0,017447
2006,5698;0,0176565
2007,5341;0,01781
2008,4983;0,01786
2009,4625;0,0177774
2010,4268;0,0175716
2011,3910;0,0172941
2012,3552;0,0170198
2013,3195;0,0168134
2014,2837;0,0167002
2015,2479;0,0166564
2016,2122;0,0166278
2017,1764;0,0165704
2018,1406;0,0164855
2019,1049;0,0164222
2020,0691;0,016445
2021,0333;0,0165896
2021,9976;0,0168345
2022,9618;0,0171047
2023,9260;0,0173051
2024,8903;0,0173678
2025,8545;0,0172868
2026,8187;0,017119
2027,7830;0,0169495
2028,7472;0,0168453
2029,7114;0,0168288
2030,6757;0,0168842
2031,6399;0,016987
2032,6041;0,0171278
2033,5684;0,01731
2034,5326;0,0175252
2035,4968;0,0177346
2036,4611;0,0178791
2037,4253;0,0179151
2038,3895;0,0178447
2039,3538;0,0177166
2040,3180;0,0175963
2041,2822;0,0175251
2042,2465;0,0175001
2043,2107;0,0174877
2044,1749;0,0174603
2045,1392;0,0174222
2046,1034;0,0174073
2047,0676;0,0174488
2048,0320;0,0175477
2048,9961;0,0176659
2049,9604;0,0177506
2050,9246;0,0177663
2051,8889;0,0177115
2052,8530;0,0176144
2053,8174;0,0175176
2054,7815;0,0174591
2055,7458;0,017461
2056,7100;0,0175249
2057,6743;0,0176353
2058,6384;0,0177689
2059,6028;0,0179019
2060,5669;0,0180143
2061,5313;0,0180897
2062,4954;0,0181161
2063,4597;0,0180881
2064,4238;0,0180134
2065,3882;0,0179154
2066,3523;0,0178273
2067,3167;0,0177768
2068,2808;0,01777
2069,2451;0,0177864
2070,2092;0,0177896
2071,1736;0,0177501
2072,1377;0,0176634
2073,1021;0,0175537
2074,0662;0,0174576
2075,0305;0,0173996
2075,9946;0,0173774
2076,9590;0,0173666
2077,9231;0,0173403
2078,8875;0,0172887
2079,8516;0,0172271
2080,8159;0,017187
2081,7800;0,0171984
2082,7444;0,0172734
2083,7085;0,0173997
2084,6729;0,0175444
2085,6370;0,0176665
2086,6013;0,0177325
2087,5654;0,0177303
2088,5298;0,0176739
2089,4939;0,0175977
2090,4583;0,0175391
2091,4224;0,0175204
2092,3867;0,0175387
2093,3508;0,0175716
2094,3152;0,0175942
2095,2793;0,0175976
2096,2437;0,0175955
2097,2078;0,0176138
2098,1721;0,017672
2099,1362;0,0177695
2100,1006;0,0178862
2101,0647;0,0179876
2102,0291;0,0180496
2102,9932;0,0180607
2103,9575;0,0180272
2104,9216;0,0179703
2105,8860;0,0179186
2106,8501;0,0178978
2107,8145;0,0179193
2108,7786;0,0179741
2109,7429;0,018035
2110,7070;0,0180705
2111,6714;0,018062
2112,6355;0,0180141
2113,5999;0,0179521
2114,5640;0,0179052
2115,5283;0,0178902
2116,4924;0,0179032
2117,4568;0,0179267
2118,4209;0,017944
2119,3853;0,0179518
2120,3494;0,0179623
2121,3137;0,0179937
2122,2778;0,0180581
2123,2422;0,0181527
2124,2063;0,0182607
2125,1707;0,0183577
2126,1348;0,0184217
2127,0991;0,0184404
2128,0632;0,0184159
2129,0276;0,0183661
2129,9917;0,0183232
2130,9561;0,0183279
2131,9202;0,0184171
2132,8845;0,0186088
2133,8486;0,018887
2134,8130;0,0191979
2135,7771;0,0194629
2136,7415;0,0196075
2137,7056;0,0195908
2138,6699;0,0194223
2139,6340;0,0191594
2140,5984;0,0188882
2141,5625;0,0186958
2142,5269;0,0186417
2143,4910;0,0187379
2144,4553;0,018944
2145,4194;0,0191837
2146,3838;0,0193758
2147,3479;0,0194701
2148,3123;0,0194687
2149,2764;0,0194193
2150,2407;0,0193836
2151,2048;0,0193985
2152,1692;0,0194546
2153,1333;0,019507
2154,0977;0,0195103
2155,0618;0,0194583
2156,0261;0,0193991
2156,9902;0,019416
2157,9546;0,0195753
2158,9187;0,0198783
2159,8831;0,0202589
2160,8472;0,0206304
2161,8115;0,0209294
2162,7756;0,0211218
2163,7400;0,0211865
2164,7041;0,0211094
2165,6685;0,0208944
2166,6326;0,0205743
2167,5969;0,0202069
2168,5610;0,0198533
2169,5254;0,0195575
2170,4895;0,0193423
2171,4539;0,0192197
2172,4180;0,0192008
2173,3823;0,0192884
2174,3464;0,0194579
2175,3108;0,0196469
2176,2749;0,0197734
2177,2393;0,0197781
2178,2034;0,0196601
2179,1677;0,0194772
2180,1318;0,019306
2181,0962;0,019191
2182,0603;0,019118
2183,0247;0,0190361
2183,9888;0,0189085
2184,9531;0,0187507
2185,9172;0,0186233
2186,8816;0,0185884
2187,8457;0,0186629
2188,8101;0,0188038
2189,7742;0,0189342
2190,7385;0,018989
2191,7026;0,0189512
2192,6670;0,0188549
2193,6311;0,0187587
2194,5955;0,0187082
2195,5596;0,0187114
2196,5239;0,0187394
2197,4880;0,0187499
2198,4524;0,0187172
2199,4165;0,0186511
2200,3809;0,0185919
2201,3450;0,0185856
2202,3093;0,0186527
2203,2734;0,0187717
2204,2378;0,0188875
2205,2019;0,0189419
2206,1663;0,0189068
2207,1304;0,0188002
2208,0947;0,0186748
2209,0588;0,018587
2210,0232;0,0185666
2210,9873;0,018604
2211,9517;0,0186614
2212,9158;0,018698
2213,8801;0,0186921
2214,8442;0,018648
2215,8086;0,0185888
2216,7727;0,0185402
2217,7371;0,0185191
2218,7012;0,0185302
2219,6655;0,0185683
2220,6296;0,018623
2221,5940;0,0186807
2222,5581;0,0187262
2223,5225;0,0187458
2224,4866;0,0187325
2225,4509;0,0186905
2226,4150;0,0186352
2227,3794;0,0185868
2228,3435;0,0185592
2229,3079;0,0185537
2230,2720;0,0185592
2231,2363;0,0185606
2232,2004;0,0185486
2233,1648;0,0185241
2234,1289;0,0184953
2235,0933;0,0184701
2236,0574;0,018449
2237,0217;0,0184255
2237,9858;0,0183914
2238,9502;0,0183452
2239,9143;0,0182952
2240,8787;0,0182569
2241,8428;0,0182435
2242,8071;0,0182573
2243,7712;0,0182858
2244,7356;0,018308
2245,6997;0,0183059
2246,6641;0,018277
2247,6282;0,018238
2248,5925;0,0182161
2249,5566;0,0182324
2250,5210;0,0182864
2251,4851;0,0183524
2252,4495;0,0183921
2253,4136;0,0183763
2254,3779;0,018302
2255,3420;0,0181952
2256,3064;0,0180953
2257,2705;0,0180337
2258,2349;0,0180187
2259,1990;0,0180365
2260,1633;0,0180633
2261,1274;0,0180797
2262,0918;0,0180779
2263,0559;0,0180607
2264,0203;0,0180353
2264,9844;0,0180083
2265,9487;0,017985
2266,9128;0,0179691
2267,8772;0,0179631
2268,8413;0,0179663
2269,8057;0,0179725
2270,7698;0,0179712
2271,7341;0,0179512
2272,6982;0,0179064
2273,6626;0,0178392
2274,6267;0,0177618
2275,5911;0,0176934
2276,5552;0,0176544
2277,5195;0,0176598
2278,4836;0,0177126
2279,4480;0,0178018
2280,4121;0,0179044
2281,3765;0,0179943
2282,3406;0,0180512
2283,3049;0,0180677
2284,2690;0,0180484
2285,2334;0,018005
2286,1975;0,0179494
2287,1619;0,0178889
2288,1260;0,0178278
2289,0903;0,0177702
2290,0544;0,0177233
2291,0188;0,0176973
2291,9829;0,0177003
2292,9473;0,0177333
2293,9114;0,0177869
2294,8757;0,0178435
2295,8398;0,017885
2296,8042;0,0179012
2297,7683;0,0178962
2298,7327;0,0178869
2299,6968;0,0178958
2300,6611;0,0179398
2301,6252;0,0180215
2302,5896;0,0181274
2303,5537;0,0182336
2304,5181;0,018316
2305,4822;0,01836
2306,4465;0,0183674
2307,4106;0,0183561
2308,3750;0,0183547
2309,3391;0,0183912
2310,3035;0,0184813
2311,2676;0,0186202
2312,2319;0,0187829
2313,1960;0,0189353
2314,1604;0,0190497
2315,1245;0,019117
2316,0889;0,0191481
2317,0530;0,0191648
2318,0173;0,0191859
2318,9814;0,0192155
2319,9458;0,0192395
2320,9099;0,0192307
2321,8743;0,0191637
2322,8384;0,0190309
2323,8027;0,0188508
2324,7668;0,0186633
2325,7312;0,018516
2326,6953;0,0184459
2327,6597;0,0184665
2328,6238;0,0185593
2329,5881;0,0186785
2330,5522;0,0187684
2331,5166;0,0187907
2332,4807;0,0187421
2333,4451;0,0186477
2334,4092;0,0185355
2335,3735;0,0184132
2336,3376;0,0182657
2337,3020;0,0180743
2338,2661;0,0178395
2339,2305;0,017589
2340,1946;0,0173662
2341,1589;0,0172155
2342,1230;0,0171769
2343,0874;0,0172713
2344,0515;0,017462
2345,0159;0,0176528
2345,9800;0,0177688
2346,9443;0,0178244
2347,9084;0,017894
2348,8728;0,0180403
2349,8369;0,0182686
2350,8013;0,018527
2351,7654;0,0187453
2352,7297;0,0188947
2353,6938;0,0190172
2354,6582;0,0191673
2355,6223;0,0193172
2356,5867;0,0193525
2357,5508;0,0191731
2358,5151;0,0187872
2359,4792;0,018315
2360,4436;0,0179075
2361,4077;0,017658
2362,3721;0,0175759
2363,3362;0,0176172
2364,3005;0,0177258
2365,2646;0,0178589
2366,2290;0,0179954
2367,1931;0,018132
2368,1575;0,0182739
2369,1216;0,0184245
2370,0859;0,0185813
2371,0500;0,0187355
2372,0144;0,0188744
2372,9785;0,0189827
2373,9429;0,0190452
2374,9070;0,0190509
2375,8713;0,0189989
2376,8354;0,0189008
2377,7998;0,0187787
2378,7639;0,0186575
2379,7283;0,0185576
2380,6924;0,01849
2381,6567;0,0184572
2382,6208;0,0184572
2383,5852;0,0184871
2384,5493;0,0185446
2385,5137;0,0186268
2386,4778;0,0187276
2387,4421;0,0188362
2388,4063;0,0189385
2389,3706;0,0190204
2390,3347;0,0190731
2391,2991;0,0190956
2392,2632;0,0190949
2393,2275;0,0190824
2394,1917;0,0190703
2395,1560;0,0190673
2396,1201;0,0190773
2397,0845;0,0190985
2398,0486;0,0191255
2399,0129;0,0191519
2399,9771;0,0191737
2400,9414;0,0191904
2401,9055;0,0192058
2402,8699;0,0192244
2403,8340;0,0192483
2404,7983;0,0192745
2405,7625;0,0192962
2406,7268;0,0193066
2407,6909;0,0193038
2408,6553;0,0192924
2409,6194;0,0192819
2410,5837;0,0192815
2411,5479;0,0192963
2412,5122;0,0193253
2413,4763;0,0193626
2414,4407;0,0194005
2415,4048;0,0194317
2416,3691;0,019451
2417,3333;0,0194559
2418,2976;0,0194481
2419,2617;0,0194336
2420,2261;0,0194219
2421,1902;0,0194233
2422,1545;0,019444
2423,1187;0,0194829
2424,0830;0,019531
2425,0471;0,019574
2426,0115;0,0195989
2426,9756;0,0196
2427,9399;0,0195822
2428,9041;0,0195602
2429,8684;0,0195521
2430,8325;0,0195713
2431,7969;0,0196194
2432,7610;0,0196851
2433,7253;0,019749
2434,6895;0,0197925
2435,6538;0,0198065
2436,6179;0,0197945
2437,5823;0,01977
2438,5464;0,0197483
2439,5107;0,0197402
2440,4749;0,0197473
2441,4392;0,019764
2442,4033;0,0197821
2443,3677;0,019796
2444,3318;0,0198064
2445,2961;0,0198194
2446,2603;0,0198428
2447,2246;0,0198812
2448,1887;0,0199313
2449,1531;0,0199822
2450,1172;0,0200191
2451,0815;0,0200299
2452,0457;0,0200116
2453,0100;0,0199726
2453,9741;0,01993
2454,9385;0,0199021
2455,9026;0,0199011
2456,8669;0,0199276
2457,8311;0,0199718
2458,7954;0,0200185
2459,7595;0,0200538
2460,7239;0,0200711
2461,6880;0,0200721
2462,6523;0,0200638
2463,6165;0,020054
2464,5808;0,0200472
2465,5449;0,0200446
2466,5093;0,0200459
2467,4734;0,0200524
2468,4377;0,0200669
2469,4019;0,020092
2470,3662;0,0201265
2471,3303;0,020165
2472,2947;0,0201993
2473,2588;0,0202235
2474,2231;0,0202361
2475,1873;0,0202405
2476,1516;0,0202408
2477,1157;0,0202388
2478,0801;0,0202339
2479,0442;0,0202258
2480,0085;0,0202179
2480,9727;0,0202172
2481,9370;0,0202306
2482,9011;0,0202585
2483,8655;0,0202932
2484,8296;0,0203216
2485,7939;0,0203329
2486,7581;0,0203265
2487,7224;0,0203131
2488,6865;0,0203093
2489,6509;0,0203283
2490,6150;0,020372
2491,5793;0,0204303
2492,5435;0,0204863
2493,5078;0,0205255
2494,4719;0,0205422
2495,4363;0,0205406
2496,4004;0,020531
2497,3647;0,0205226
2498,3289;0,0205192
2499,2932;0,0205187
2500,2573;0,0205162
2501,2217;0,0205086
2502,1858;0,0204976
2503,1501;0,0204895
2504,1143;0,0204926
2505,0786;0,0205122
2506,0427;0,0205478
2507,0071;0,0205922
2507,9712;0,0206336
2508,9355;0,0206606
2509,8997;0,0206671
2510,8640;0,0206553
2511,8281;0,0206354
2512,7925;0,0206209
2513,7566;0,0206223
2514,7209;0,0206412
2515,6851;0,0206702
2516,6494;0,0206972
2517,6135;0,0207128
2518,5779;0,0207154
2519,5420;0,0207112
2520,5063;0,020709
2521,4705;0,0207141
2522,4348;0,0207251
2523,3989;0,0207349
2524,3633;0,0207368
2525,3274;0,0207287
2526,2917;0,0207149
2527,2559;0,0207027
2528,2202;0,0206981
2529,1843;0,0207014
2530,1487;0,020708
2531,1128;0,0207115
2532,0771;0,0207087
2533,0413;0,0207017
2534,0056;0,0206982
2534,9697;0,0207059
2535,9341;0,0207277
2536,8982;0,0207583
2537,8625;0,0207862
2538,8267;0,0207997
2539,7910;0,0207942
2540,7551;0,0207757
2541,7195;0,0207581
2542,6836;0,0207557
2543,6479;0,0207757
2544,6121;0,0208134
2545,5764;0,0208552
2546,5405;0,020885
2547,5049;0,0208924
2548,4690;0,0208768
2549,4333;0,0208472
2550,3975;0,0208167
2551,3618;0,0207969
2552,3259;0,020793
2553,2903;0,0208037
2554,2544;0,0208243
2555,2188;0,0208501
2556,1829;0,0208784
2557,1472;0,0209079
2558,1113;0,0209355
2559,0757;0,0209553
2560,0398;0,0209605
2561,0042;0,0209472
2561,9683;0,0209182
2562,9326;0,0208824
2563,8967;0,0208506
2564,8611;0,0208301
2565,8252;0,0208221
2566,7896;0,0208241
2567,7537;0,0208339
2568,7180;0,020852
2569,6821;0,0208804
2570,6465;0,0209181
2571,6106;0,0209583
2572,5750;0,0209905
2573,5391;0,0210056
2574,5034;0,0210018
2575,4675;0,0209862
2576,4319;0,0209711
2577,3960;0,0209671
2578,3604;0,0209786
2579,3245;0,0210028
2580,2888;0,0210323
2581,2529;0,021059
2582,2173;0,0210772
2583,1814;0,021084
2584,1458;0,0210802
2585,1099;0,0210698
2586,0742;0,0210597
2587,0383;0,0210581
2588,0027;0,021071
2588,9668;0,0210988
2589,9312;0,0211355
2590,8953;0,0211706
2591,8596;0,0211938
2592,8237;0,0212001
2593,7881;0,0211916
2594,7522;0,0211761
2595,7166;0,0211628
2596,6807;0,0211589
2597,6450;0,0211668
2598,6091;0,0211851
2599,5735;0,0212093
2600,5376;0,0212347
2601,5020;0,0212569
2602,4661;0,0212733
2603,4304;0,0212834
2604,3945;0,0212891
2605,3589;0,0212932
2606,3230;0,0212987
2607,2874;0,0213073
2608,2515;0,0213197
2609,2158;0,0213357
2610,1799;0,0213554
2611,1443;0,0213788
2612,1084;0,0214046
2613,0728;0,0214293
2614,0369;0,0214476
2615,0012;0,0214553
2615,9653;0,0214517
2616,9297;0,0214409
2617,8938;0,0214297
2618,8582;0,0214244
2619,8223;0,0214281
2620,7866;0,0214408
2621,7507;0,0214609
2622,7151;0,0214875
2623,6792;0,0215204
2624,6436;0,0215583
2625,6077;0,0215976
2626,5720;0,0216326
2627,5361;0,021659
2628,5005;0,0216758
2629,4646;0,0216864
2630,4290;0,0216954
2631,3931;0,0217057
2632,3574;0,0217169
2633,3215;0,0217262
2634,2859;0,0217324
2635,2500;0,021737
2636,2144;0,0217441
2637,1785;0,0217569
2638,1428;0,0217755
2639,1069;0,0217965
2640,0713;0,0218153
2641,0354;0,0218297
2641,9998;0,0218407
2642,9639;0,0218522
2643,9282;0,0218674
2644,8923;0,0218874
2645,8567;0,0219101
2646,8208;0,0219318
2647,7852;0,0219495
2648,7493;0,0219626
2649,7136;0,0219726
2650,6777;0,0219822
2651,6421;0,0219936
2652,6062;0,0220074
2653,5706;0,022023
2654,5347;0,0220393
2655,4990;0,0220561
2656,4631;0,0220741
2657,4275;0,0220946
2658,3916;0,0221179
2659,3560;0,0221433
2660,3201;0,022169
2661,2844;0,0221932
2662,2485;0,0222153
2663,2129;0,022235
2664,1770;0,0222527
2665,1414;0,0222681
2666,1055;0,0222811
2667,0698;0,022292
2668,0339;0,0223024
2668,9983;0,0223151
2669,9624;0,0223327
2670,9268;0,0223569
2671,8909;0,0223875
2672,8552;0,0224227
2673,8193;0,0224588
2674,7837;0,0224918
2675,7478;0,0225173
2676,7122;0,0225326
2677,6763;0,0225381
2678,6406;0,0225376
2679,6047;0,0225371
2680,5691;0,0225424
2681,5332;0,0225558
2682,4976;0,0225754
2683,4617;0,022597
2684,4260;0,0226169
2685,3901;0,0226342
2686,3545;0,0226504
2687,3186;0,0226678
2688,2830;0,0226873
2689,2471;0,0227078
2690,2114;0,0227274
2691,1755;0,0227456
2692,1399;0,0227638
2693,1040;0,0227848
2694,0684;0,022811
2695,0325;0,0228427
2695,9968;0,0228778
2696,9609;0,0229122
2697,9253;0,0229415
2698,8894;0,0229624
2699,8538;0,022974
2700,8179;0,022979
2701,7822;0,0229826
2702,7463;0,0229908
2703,7107;0,0230083
2704,6748;0,0230364
2705,6392;0,0230726
2706,6033;0,0231119
2707,5676;0,023149
2708,5317;0,0231802
2709,4961;0,0232039
2710,4602;0,0232204
2711,4246;0,0232321
2712,3887;0,0232423
2713,3530;0,0232552
2714,3171;0,0232742
2715,2815;0,0233005
2716,2456;0,023332
2717,2100;0,0233639
2718,1741;0,0233913
2719,1384;0,0234112
2720,1025;0,0234242
2721,0669;0,0234331
2722,0310;0,0234404
2722,9954;0,0234471
2723,9595;0,0234526
2724,9238;0,0234572
2725,8879;0,0234629
2726,8523;0,0234739
2727,8164;0,0234936
2728,7808;0,0235227
2729,7449;0,0235579
2730,7092;0,0235942
2731,6733;0,0236277
2732,6377;0,0236565
2733,6018;0,0236814
2734,5662;0,0237029
2735,5303;0,0237207
2736,4946;0,0237333
2737,4587;0,0237398
2738,4231;0,0237419
2739,3872;0,0237437
2740,3516;0,02375
2741,3157;0,0237643
2742,2800;0,0237866
2743,2441;0,0238137
2744,2085;0,02384
2745,1726;0,0238603
2746,1370;0,0238719
2747,1011;0,0238758
2748,0654;0,0238769
2749,0295;0,0238816
2749,9939;0,0238947
2750,9580;0,0239172
2751,9224;0,0239449
2752,8865;0,0239717
2753,8508;0,0239921
2754,8149;0,0240055
2755,7793;0,0240158
2756,7434;0,0240299
2757,7078;0,0240533
2758,6719;0,0240873
2759,6362;0,0241281
2760,6003;0,0241689
2761,5647;0,0242031
2762,5288;0,0242267
2763,4932;0,0242398
2764,4573;0,0242461
2765,4216;0,0242513
2766,3857;0,0242614
2767,3501;0,0242811
2768,3142;0,024312
2769,2786;0,0243522
2770,2427;0,0243965
2771,2070;0,024438
2772,1711;0,0244708
2773,1355;0,0244935
2774,0996;0,0245099
2775,0640;0,0245274
2776,0281;0,0245538
2776,9924;0,0245926
2777,9565;0,0246412
2778,9209;0,0246927
2779,8850;0,0247397
2780,8494;0,0247783
2781,8135;0,0248102
2782,7778;0,02484
2783,7419;0,0248721
2784,7063;0,024907
2785,6704;0,0249412
2786,6348;0,0249701
2787,5989;0,0249916
2788,5632;0,0250085
2789,5273;0,0250281
2790,4917;0,0250588
2791,4558;0,0251056
2792,4202;0,025167
2793,3843;0,0252359
2794,3486;0,0253028
2795,3127;0,0253603
2796,2771;0,0254067
2797,2412;0,0254455
2798,2056;0,025483
2799,1697;0,0255246
2800,1340;0,0255727
2801,0981;0,0256262
2802,0625;0,0256833
2803,0266;0,025743
2803,9910;0,0258054
2804,9551;0,0258706
2805,9194;0,0259376
2806,8835;0,0260043
2807,8479;0,0260692
2808,8120;0,0261326
2809,7764;0,0261964
2810,7405;0,0262625
2811,7048;0,0263316
2812,6689;0,0264024
2813,6333;0,0264734
2814,5974;0,026545
2815,5618;0,0266198
2816,5259;0,0267016
2817,4902;0,0267928
2818,4543;0,0268931
2819,4187;0,0269989
2820,3828;0,0271059
2821,3472;0,0272104
2822,3113;0,0273111
2823,2756;0,0274096
2824,2397;0,0275094
2825,2041;0,0276148
2826,1682;0,0277295
2827,1326;0,0278557
2828,0967;0,0279933
2829,0610;0,0281407
2830,0251;0,0282955
2830,9895;0,028456
2831,9536;0,0286212
2832,9180;0,0287903
2833,8821;0,0289627
2834,8464;0,0291376
2835,8105;0,0293153
2836,7749;0,0294987
2837,7390;0,0296929
2838,7034;0,0299046
2839,6675;0,0301404
2840,6318;0,0304049
2841,5959;0,030701
2842,5603;0,0310291
2843,5244;0,0313869
2844,4888;0,0317663
2845,4529;0,0321515
2846,4172;0,0325178
2847,3813;0,032835
2848,3457;0,0330742
2849,3098;0,0332166
2850,2742;0,0332598
2851,2383;0,0332182
2852,2026;0,0331177
2853,1667;0,0329875
2854,1311;0,0328519
2855,0952;0,0327262
2856,0596;0,032618
2857,0237;0,0325301
2857,9880;0,0324644
2858,9521;0,0324226
2859,9165;0,0324053
2860,8806;0,0324112
2861,8450;0,0324366
2862,8091;0,0324774
2863,7734;0,0325308
2864,7375;0,032596
2865,7019;0,0326724
2866,6660;0,032758
2867,6304;0,0328476
2868,5945;0,0329339
2869,5588;0,0330092
2870,5229;0,0330685
2871,4873;0,0331112
2872,4514;0,0331411
2873,4158;0,0331652
2874,3799;0,0331907
2875,3442;0,0332226
2876,3083;0,033262
2877,2727;0,0333066
2878,2368;0,0333521
2879,2012;0,0333951
2880,1653;0,0334352
2881,1296;0,0334744
2882,0938;0,0335166
2883,0581;0,033565
2884,0222;0,0336214
2884,9866;0,0336857
2885,9507;0,0337567
2886,9150;0,0338326
2887,8792;0,0339112
2888,8435;0,0339902
2889,8076;0,0340676
2890,7720;0,0341423
2891,7361;0,0342147
2892,7004;0,0342865
2893,6646;0,0343599
2894,6289;0,0344367
2895,5930;0,0345176
2896,5574;0,0346021
2897,5215;0,0346883
2898,4858;0,0347732
2899,4500;0,0348536
2900,4143;0,034927
2901,3784;0,0349935
2902,3428;0,0350567
2903,3069;0,0351231
2904,2712;0,0352003
2905,2354;0,0352941
2906,1997;0,0354069
2907,1638;0,0355386
2908,1282;0,0356896
2909,0923;0,0358625
2910,0566;0,0360618
2911,0208;0,0362902
2911,9851;0,0365422
2912,9492;0,0368017
2913,9136;0,0370427
2914,8777;0,0372375
2915,8420;0,0373648
2916,8062;0,0374165
2917,7705;0,0373969
2918,7346;0,0373184
2919,6990;0,0371949
2920,6631;0,0370378
2921,6274;0,036856
2922,5916;0,0366571
2923,5559;0,0364479
2924,5200;0,0362334
2925,4844;0,0360155
2926,4485;0,0357936
2927,4128;0,035568
2928,3770;0,0353424
2929,3413;0,0351238
2930,3054;0,0349193
2931,2698;0,0347315
2932,2339;0,0345573
2933,1982;0,0343893
2934,1624;0,0342207
2935,1267;0,0340478
2936,0908;0,0338702
2937,0552;0,0336888
2938,0193;0,0335031
2938,9836;0,0333113
2939,9478;0,0331124
2940,9121;0,0329082
2941,8762;0,0327042
2942,8406;0,0325082
2943,8047;0,0323266
2944,7690;0,0321625
2945,7332;0,0320139
2946,6975;0,0318757
2947,6616;0,0317419
2948,6260;0,0316086
2949,5901;0,0314758
2950,5544;0,0313468
2951,5186;0,0312258
2952,4829;0,0311153
2953,4470;0,0310145
2954,4114;0,0309194
2955,3755;0,0308251
2956,3398;0,0307276
2957,3040;0,0306246
2958,2683;0,0305157
2959,2324;0,0304016
2960,1968;0,0302839
2961,1609;0,0301647
2962,1252;0,0300459
2963,0894;0,0299279
2964,0537;0,0298092
2965,0178;0,0296866
2965,9822;0,0295582
2966,9463;0,0294253
2967,9106;0,029293
2968,8748;0,029168
2969,8391;0,029055
2970,8032;0,0289546
2971,7676;0,0288628
2972,7317;0,0287737
2973,6960;0,0286826
2974,6602;0,0285871
2975,6245;0,0284877
2976,5886;0,0283861
2977,5530;0,0282849
2978,5171;0,0281874
2979,4814;0,0280973
2980,4456;0,0280185
2981,4099;0,0279533
2982,3740;0,0279008
2983,3384;0,027857
2984,3025;0,0278159
2985,2668;0,0277722
2986,2310;0,0277243
2987,1953;0,0276751
2988,1594;0,0276314
2989,1238;0,0276005
2990,0879;0,0275871
2991,0522;0,027591
2992,0164;0,0276066
2992,9807;0,0276249
2993,9448;0,0276376
2994,9092;0,0276402
2995,8733;0,0276347
2996,8376;0,0276286
2997,8018;0,0276316
2998,7661;0,0276515
2999,7302;0,0276896
3000,6946;0,0277405
3001,6587;0,027794
3002,6230;0,02784
3003,5872;0,0278736
3004,5515;0,0278975
3005,5156;0,0279205
3006,4800;0,0279521
3007,4441;0,0279971
3008,4084;0,0280528
3009,3726;0,02811
3010,3369;0,0281574
3011,3010;0,0281874
3012,2654;0,028199
3013,2295;0,0281981
3014,1938;0,0281938
3015,1580;0,0281947
3016,1223;0,0282055
3017,0864;0,0282274
3018,0508;0,0282598
3019,0149;0,0283015
3019,9792;0,0283522
3020,9434;0,0284117
3021,9077;0,0284784
3022,8718;0,0285493
3023,8362;0,0286212
3024,8003;0,0286921
3025,7646;0,0287629
3026,7288;0,0288365
3027,6931;0,0289152
3028,6572;0,0289977
3029,6216;0,0290782
3030,5857;0,0291483
3031,5500;0,029201
3032,5142;0,0292353
3033,4785;0,0292566
3034,4426;0,0292749
3035,4070;0,0292992
3036,3711;0,0293346
3037,3354;0,02938
3038,2996;0,029431
3039,2639;0,0294831
3040,2280;0,0295355
3041,1924;0,029592
3042,1565;0,0296592
3043,1208;0,0297425
3044,0850;0,0298413
3045,0493;0,0299479
3046,0134;0,0300493
3046,9778;0,0301335
3047,9419;0,0301961
3048,9063;0,030244
3049,8704;0,0302928
3050,8347;0,030359
3051,7988;0,0304508
3052,7632;0,0305631
3053,7273;0,0306792
3054,6917;0,0307789
3055,6558;0,0308493
3056,6201;0,0308918
3057,5842;0,0309225
3058,5486;0,030965
3059,5127;0,0310385
3060,4771;0,0311494
3061,4412;0,0312882
3062,4055;0,0314333
3063,3696;0,0315606
3064,3340;0,0316528
3065,2981;0,031706
3066,2625;0,0317288
3067,2266;0,0317373
3068,1909;0,031747
3069,1550;0,0317684
3070,1194;0,0318069
3071,0835;0,0318652
3072,0479;0,0319446
3073,0120;0,0320454
3073,9763;0,0321645
3074,9404;0,0322941
3075,9048;0,0324223
3076,8689;0,0325364
3077,8333;0,0326267
3078,7974;0,03269
3079,7617;0,0327304
3080,7258;0,0327579
3081,6902;0,0327851
3082,6543;0,0328234
3083,6187;0,0328786
3084,5828;0,0329497
3085,5471;0,0330292
3086,5112;0,0331073
3087,4756;0,0331774
3088,4397;0,0332404
3089,4041;0,0333041
3090,3682;0,0333795
3091,3325;0,0334736
3092,2966;0,0335853
3093,2610;0,0337057
3094,2251;0,0338236
3095,1895;0,0339315
3096,1536;0,034028
3097,1179;0,0341165
3098,0820;0,0341999
3099,0464;0,0342776
3100,0105;0,0343459
3100,9749;0,0344022
3101,9390;0,0344492
3102,9033;0,0344945
3103,8674;0,0345472
3104,8318;0,0346118
3105,7959;0,0346868
3106,7603;0,0347667
3107,7244;0,0348481
3108,6887;0,034933
3109,6528;0,0350287
3110,6172;0,0351425
3111,5813;0,035276
3112,5457;0,0354219
3113,5098;0,0355673
3114,4741;0,0356985
3115,4382;0,0358078
3116,4026;0,0358957
3117,3667;0,0359688
3118,3311;0,0360353
3119,2952;0,0361012
3120,2595;0,0361693
3121,2236;0,0362399
3122,1880;0,0363129
3123,1521;0,0363889
3124,1165;0,0364686
3125,0806;0,0365527
3126,0449;0,0366407
3127,0090;0,036732
3127,9734;0,0368259
3128,9375;0,0369219
3129,9019;0,0370187
3130,8660;0,0371141
3131,8303;0,0372054
3132,7944;0,0372906
3133,7588;0,0373705
3134,7229;0,0374484
3135,6873;0,0375291
3136,6514;0,0376175
3137,6157;0,0377161
3138,5798;0,0378248
3139,5442;0,0379403
3140,5083;0,0380573
3141,4727;0,0381699
3142,4368;0,0382738
3143,4011;0,0383682
3144,3652;0,0384569
3145,3296;0,0385472
3146,2937;0,0386459
3147,2581;0,0387562
3148,2222;0,0388755
3149,1865;0,0389968
3150,1506;0,0391128
3151,1150;0,0392194
3152,0791;0,0393178
3153,0435;0,0394125
3154,0076;0,0395086
3154,9719;0,0396091
3155,9360;0,0397149
3156,9004;0,0398256
3157,8645;0,039941
3158,8289;0,0400604
3159,7930;0,0401819
3160,7573;0,0403017
3161,7214;0,0404157
3162,6858;0,0405213
3163,6499;0,0406197
3164,6143;0,0407156
3165,5784;0,0408152
3166,5427;0,0409223
3167,5068;0,0410368
3168,4712;0,0411546
3169,4353;0,041124
3170,3997;0,0412367
3171,3638;0,0413483
3172,3281;0,041463
3173,2922;0,0415847
3174,2566;0,0417144
3175,2207;0,0418483
3176,1851;0,0419792
3177,1492;0,0421003
3178,1135;0,0422088
3179,0776;0,0423079
3180,0420;0,0424051
3181,0061;0,042508
3181,9705;0,0426197
3182,9346;0,0427369
3183,8989;0,042852
3184,8630;0,0429579
3185,8274;0,0430525
3186,7915;0,0431405
3187,7559;0,0432305
3188,7200;0,0433302
3189,6843;0,0434426
3190,6484;0,0435649
3191,6128;0,0436908
3192,5769;0,0438136
3193,5413;0,0439292
3194,5054;0,0440361
3195,4697;0,0441354
3196,4338;0,0442295
3197,3982;0,0443217
3198,3623;0,0444151
3199,3267;0,0445121
3200,2908;0,0446133
3201,2551;0,0447181
3202,2192;0,0448263
3203,1836;0,0449394
3204,1477;0,0450597
3205,1121;0,0451879
3206,0762;0,0453211
3207,0405;0,0454523
3208,0046;0,0455734
3208,9690;0,0456793
3209,9331;0,0457711
3210,8975;0,0458553
3211,8616;0,0459409
3212,8259;0,0460345
3213,7900;0,046138
3214,7544;0,0462489
3215,7185;0,0463619
3216,6829;0,0464717
3217,6470;0,046574
3218,6113;0,0466673
3219,5754;0,0467531
3220,5398;0,0468359
3221,5039;0,0469213
3222,4683;0,0470145
3223,4324;0,047117
3224,3967;0,0472271
3225,3608;0,0473404
3226,3252;0,047453
3227,2893;0,0475631
3228,2537;0,047672
3229,2178;0,0477826
3230,1821;0,0478983
3231,1462;0,04802
3232,1106;0,0481457
3233,0747;0,0482704
3234,0391;0,0483872
3235,0032;0,0484906
3235,9675;0,0485796
3236,9316;0,0486588
3237,8960;0,0487377
3238,8601;0,048826
3239,8245;0,0489285
3240,7886;0,0490426
3241,7529;0,0491589
3242,7170;0,0492666
3243,6814;0,0493601
3244,6455;0,0494425
3245,6099;0,0495251
3246,5740;0,0496216
3247,5383;0,049741
3248,5024;0,0498828
3249,4668;0,0500379
3250,4309;0,0501936
3251,3953;0,050339
3252,3594;0,0504687
3253,3237;0,0505844
3254,2878;0,050692
3255,2522;0,0507987
3256,2163;0,0509096
3257,1807;0,0510266
3258,1448;0,0511489
3259,1091;0,0512742
3260,0732;0,0514
3261,0376;0,051524
3262,0017;0,0516449
3262,9661;0,0517618
3263,9302;0,051875
3264,8945;0,0519852
3265,8586;0,0520942
3266,8230;0,0522037
3267,7871;0,0523155
3268,7515;0,0524302
3269,7156;0,0525465
3270,6799;0,0526605
3271,6440;0,0527663
3272,6084;0,0528574
3273,5725;0,0529299
3274,5369;0,0529839
3275,5010;0,0530242
3276,4653;0,0530587
3277,4294;0,0530949
3278,3938;0,0531371
3279,3579;0,0531846
3280,3223;0,053233
3281,2864;0,0532766
3282,2507;0,0533109
3283,2148;0,0533352
3284,1792;0,0533531
3285,1433;0,0533706
3286,1077;0,0533935
3287,0718;0,0534236
3288,0361;0,0534585
3289,0002;0,0534921
3289,9646;0,0535181
3290,9287;0,0535329
3291,8931;0,0535375
3292,8572;0,0535352
3293,8215;0,0535294
3294,7856;0,0535212
3295,7500;0,0535094
3296,7141;0,0534923
3297,6785;0,0534699
3298,6426;0,0534445
3299,6069;0,0534189
3300,5710;0,053396
3301,5354;0,0533782
3302,4995;0,0533681
3303,4639;0,053369
3304,4280;0,0533838
3305,3923;0,0534121
3306,3564;0,0534487
3307,3208;0,0534847
3308,2849;0,0535102
3309,2493;0,0535195
3310,2134;0,0535129
3311,1777;0,0534965
3312,1418;0,0534788
3313,1062;0,0534681
3314,0703;0,0534703
3315,0347;0,0534891
3315,9988;0,0535261
3316,9631;0,0535806
3317,9272;0,0536496
3318,8916;0,053727
3319,8557;0,0538056
3320,8201;0,053879
3321,7842;0,0539451
3322,7485;0,0540057
3323,7126;0,0540655
3324,6770;0,0541277
3325,6411;0,054191
3326,6055;0,0542494
3327,5696;0,0542948
3328,5339;0,0543224
3329,4980;0,0543338
3330,4624;0,0543368
3331,4265;0,0543414
3332,3909;0,054355
3333,3550;0,0543781
3334,3193;0,0544033
3335,2834;0,0544186
3336,2478;0,0544119
3337,2119;0,0543762
3338,1763;0,0543121
3339,1404;0,0542266
3340,1047;0,054129
3341,0688;0,0540271
3342,0332;0,0539246
3342,9973;0,0538212
3343,9617;0,0537148
3344,9258;0,0536048
3345,8901;0,0534932
3346,8542;0,0533837
3347,8186;0,0532791
3348,7827;0,0531794
3349,7471;0,0530812
3350,7112;0,0529796
3351,6755;0,0528708
3352,6396;0,0527533
3353,6040;0,0526288
3354,5681;0,0525006
3355,5325;0,0523729
3356,4966;0,0522495
3357,4609;0,0521334
3358,4250;0,0520262
3359,3894;0,0519281
3360,3535;0,0518379
3361,3179;0,0517531
3362,2820;0,0516704
3363,2463;0,0515848
3364,2104;0,0514901
3365,1748;0,0513796
3366,1389;0,0512489
3367,1033;0,0510981
3368,0674;0,0509331
3369,0317;0,0507643
3369,9958;0,0506031
3370,9602;0,0504579
3371,9243;0,0503315
3372,8887;0,0502206
3373,8528;0,0501168
3374,8171;0,05001
3375,7813;0,0498917
3376,7456;0,0497594
3377,7097;0,0496183
3378,6741;0,0494801
3379,6382;0,0493571
3380,6025;0,0492552
3381,5667;0,0491697
3382,5310;0,0490872
3383,4951;0,048994
3384,4595;0,0488857
3385,4236;0,0487715
3386,3879;0,0486677
3387,3521;0,0485864
3388,3164;0,0485254
3389,2805;0,0484685
3390,2449;0,0483948
3391,2090;0,0482912
3392,1733;0,0481596
3393,1375;0,0480139
3394,1018;0,0478688
3395,0659;0,0477299
3396,0303;0,0475933
3396,9944;0,0474533
3397,9587;0,04731
3398,9229;0,0471709
3399,8872;0,0470442
3400,8513;0,0469303
3401,8157;0,0468201
3402,7798;0,0466997
3403,7441;0,0465604
3404,7083;0,0464043
3405,6726;0,046243
3406,6367;0,0460896
3407,6011;0,0459512
3408,5652;0,0458253
3409,5295;0,045703
3410,4937;0,0455747
3411,4580;0,0454375
3412,4221;0,0452972
3413,3865;0,0451663
3414,3506;0,0450571
3415,3149;0,0449736
3416,2791;0,0449076
3417,2434;0,0448385
3418,2075;0,0447407
3419,1719;0,0445948
3420,1360;0,0443976
3421,1003;0,0441655
3422,0645;0,0439258
3423,0288;0,0437031
3423,9929;0,043509
3424,9573;0,043341
3425,9214;0,0431896
3426,8857;0,0430457
3427,8499;0,0429039
3428,8142;0,0427613
3429,7783;0,0426144
3430,7427;0,0424572
3431,7068;0,042284
3432,6711;0,0420943
3433,6353;0,0418954
3434,5996;0,0417013
3435,5637;0,0415262
3436,5281;0,0413768
3437,4922;0,0412499
3438,4565;0,0411349
3439,4207;0,0410227
3440,3850;0,0409105
3441,3491;0,0408022
3442,3135;0,0407
3443,2776;0,040596
3444,2419;0,0404702
3445,2061;0,0402989
3446,1704;0,0400703
3447,1345;0,0397969
3448,0989;0,0395134
3449,0630;0,0392588
3450,0273;0,0390553
3450,9915;0,0389007
3451,9558;0,0387761
3452,9199;0,0386586
3453,8843;0,038533
3454,8484;0,0383958
3455,8127;0,038253
3456,7769;0,038114
3457,7412;0,0379845
3458,7053;0,0378627
3459,6697;0,0377395
3460,6338;0,0376024
3461,5981;0,0374412
3462,5623;0,0372536
3463,5266;0,037047
3464,4907;0,036834
3465,4551;0,0366278
3466,4192;0,0364368
3467,3835;0,0362644
3468,3477;0,0361103
3469,3120;0,0359722
3470,2761;0,0358453
3471,2405;0,0357215
3472,2046;0,0355911
3473,1689;0,0354482
3474,1331;0,0352966
3475,0974;0,0351497
3476,0615;0,0350231
3477,0259;0,0349226
3477,9900;0,0348373
3478,9543;0,0347441
3479,9185;0,0346199
3480,8828;0,0344568
3481,8469;0,0342681
3482,8113;0,03408
3483,7754;0,0339129
3484,7397;0,0337684
3485,7039;0,0336323
3486,6682;0,0334874
3487,6323;0,0333277
3488,5967;0,033163
3489,5608;0,0330107
3490,5251;0,0328824
3491,4893;0,0327735
3492,4536;0,0326665
3493,4177;0,0325426
3494,3821;0,0323965
3495,3462;0,0322441
3496,3105;0,0321168
3497,2747;0,0320423
3498,2390;0,0320256
3499,2031;0,0320414
3500,1675;0,032043
3501,1316;0,031982
3502,0959;0,0318335
3503,0601;0,0316154
3504,0244;0,0313792
3504,9885;0,0311738
3505,9529;0,0310132
3506,9170;0,0308746
3507,8813;0,0307204
3508,8455;0,0305253
3509,8098;0,0302932
3510,7739;0,0300543
3511,7383;0,0298431
3512,7024;0,0296753
3513,6667;0,0295436
3514,6309;0,0294315
3515,5952;0,0293308
3516,5593;0,0292477
3517,5237;0,0291954
3518,4878;0,0291809
3519,4521;0,0291963
3520,4163;0,0292207
3521,3806;0,029231
3522,3447;0,0292118
3523,3091;0,029159
3524,2732;0,0290731
3525,2375;0,0289492
3526,2017;0,0287742
3527,1660;0,0285374
3528,1301;0,0282472
3529,0945;0,0279385
3530,0586;0,0276591
3531,0229;0,0274429
3531,9871;0,0272931
3532,9514;0,0271849
3533,9155;0,027081
3534,8799;0,0269508
3535,8440;0,0267877
3536,8083;0,0266164
3537,7725;0,0264821
3538,7368;0,0264263
3539,7009;0,0264636
3540,6653;0,0265733
3541,6294;0,0267051
3542,5938;0,0267908
3543,5579;0,0267628
3544,5222;0,0265872
3545,4863;0,0262968
3546,4507;0,0259827
3547,4148;0,0257336
3548,3792;0,0255758
3549,3433;0,0254682
3550,3076;0,0253424
3551,2717;0,025149
3552,2361;0,0248891
3553,2002;0,0246132
3554,1646;0,0243853
3555,1287;0,0242382
3556,0930;0,0241607
3557,0571;0,0241229
3558,0215;0,0241098
3558,9856;0,0241365
3559,9500;0,0242342
3560,9141;0,0244179
3561,8784;0,024659
3562,8425;0,0248828
3563,8069;0,0249818
3564,7710;0,0248319
3565,7354;0,0243427
3566,6995;0,0235717
3567,6638;0,0227763
3568,6279;0,0222339
3569,5923;0,0220218
3570,5564;0,0220276
3571,5208;0,0220944
3572,4849;0,0221192
3573,4492;0,0220706
3574,4133;0,0219626
3575,3777;0,0218211
3576,3418;0,0216635
3577,3062;0,0214997
3578,2703;0,0213478
3579,2346;0,0212429
3580,1987;0,0212243
3581,1631;0,021305
3582,1272;0,0214507
3583,0916;0,0215843
3584,0557;0,0216089
3585,0200;0,0214299
3585,9841;0,0209934
3586,9485;0,0203654
3587,9126;0,0197676
3588,8770;0,0194289
3589,8411;0,0193944
3590,8054;0,019534
3591,7695;0,0196796
3592,7339;0,0197264
3593,6980;0,0196588
3594,6624;0,0195296
3595,6265;0,0194082
3596,5908;0,0193211
3597,5549;0,0192332
3598,5193;0,0190889
3599,4834;0,018874
3600,4478;0,018642
3601,4119;0,0184778
3602,3762;0,0184288
3603,3403;0,0184698
3604,3047;0,0185313
3605,2688;0,0185504
3606,2332;0,018505
3607,1973;0,018422
3608,1616;0,0183644
3609,1257;0,0183943
3610,0901;0,0185295
3611,0542;0,0187307
3612,0186;0,0189283
3612,9827;0,0190598
3613,9470;0,0190875
3614,9111;0,0189926
3615,8755;0,0187564
3616,8396;0,0183552
3617,8040;0,0177846
3618,7681;0,0171155
3619,7324;0,0165258
3620,6965;0,016214
3621,6609;0,0162434
3622,6250;0,0164981
3623,5894;0,0167775
3624,5535;0,0169078
3625,5178;0,0167927
3626,4819;0,0164072
3627,4463;0,0157849
3628,4104;0,0150739
3629,3748;0,0145655
3630,3389;0,014472
3631,3032;0,0147157
3632,2673;0,0150547
3633,2317;0,0153015
3634,1958;0,0154053
3635,1602;0,0154197
3636,1243;0,0154265
3637,0886;0,0154744
3638,0527;0,0155663
3639,0171;0,0156901
3639,9812;0,0158524
3640,9456;0,0160809
3641,9097;0,0163946
3642,8740;0,0167745
3643,8381;0,0171656
3644,8025;0,0175049
3645,7666;0,0177323
3646,7310;0,0177399
3647,6951;0,0173178
3648,6594;0,016371
3649,6235;0,0153084
3650,5879;0,0147063
3651,5520;0,014654
3652,5164;0,0148463
3653,4805;0,0149731
3654,4448;0,0148949
3655,4089;0,0146467
3656,3733;0,0143735
3657,3374;0,0142212
3658,3018;0,0142308
3659,2659;0,0143289
3660,2302;0,0144188
3661,1943;0,0144696
3662,1587;0,0145288
3663,1228;0,0146617
3664,0872;0,0148793
3665,0513;0,0151259
3666,0156;0,0153259
3666,9797;0,0154396
3667,9441;0,0154744
3668,9082;0,015463
3669,8726;0,0154485
3670,8367;0,0154569
3671,8010;0,015446
3672,7651;0,0153179
3673,7295;0,0149902
3674,6936;0,0144622
3675,6580;0,0138694
3676,6221;0,0134478
3677,5864;0,0133308
3678,5505;0,0134374
3679,5149;0,0136057
3680,4790;0,0137481
3681,4434;0,0138768
3682,4075;0,0140371
3683,3718;0,014237
3684,3359;0,0144292
3685,3003;0,0145479
3686,2644;0,0145475
3687,2288;0,014401
3688,1929;0,0140808
3689,1572;0,0136119
3690,1213;0,0131483
3691,0857;0,012864
3692,0498;0,0127881
3693,0142;0,01283
3693,9783;0,0128954
3694,9426;0,0129388
3695,9067;0,0129526
3696,8711;0,0129385
3697,8352;0,0128899
3698,7996;0,0127943
3699,7637;0,0126473
3700,7280;0,0124743
3701,6921;0,0123437
3702,6565;0,0123455
3703,6206;0,0125314
3704,5850;0,0128733
3705,5491;0,0132843
3706,5134;0,0136701
3707,4775;0,0139586
3708,4419;0,0140883
3709,4060;0,0139875
3710,3704;0,0136289
3711,3345;0,0131571
3712,2988;0,0128521
3713,2629;0,0128726
3714,2273;0,0131438
3715,1914;0,013482
3716,1558;0,0137363
3717,1199;0,0138437
3718,0842;0,0138208
3719,0483;0,0137246
3720,0127;0,0136081
3720,9768;0,013486
3721,9412;0,0133333
3722,9053;0,0131173
3723,8696;0,0128448
3724,8337;0,0125861
3725,7981;0,0124454
3726,7622;0,0124923
3727,7266;0,0127194
3728,6907;0,0130617
3729,6550;0,0134476
3730,6191;0,0138263
3731,5835;0,0141498
3732,5476;0,0143282
3733,5120;0,0142322
3734,4761;0,0138372
3735,4404;0,0133963
3736,4045;0,0132917
3737,3689;0,0136604
3738,3330;0,0143009
3739,2974;0,0148782
3740,2615;0,0151265
3741,2258;0,0149454
3742,1899;0,0144344
3743,1543;0,0138821
3744,1184;0,0136586
3745,0828;0,0139767
3746,0469;0,0147124
3747,0112;0,0155093
3747,9753;0,0160143
3748,9397;0,0160043
3749,9038;0,0154527
3750,8682;0,014642
3751,8323;0,0140805
3752,7966;0,0140575
3753,7607;0,014431
3754,7251;0,0148759
3755,6892;0,0151431
3756,6536;0,015136
3757,6177;0,0148951
3758,5820;0,0145617
3759,5461;0,0143082
3760,5105;0,0142374
3761,4746;0,0143344
3762,4390;0,0145108
3763,4031;0,0146752
3764,3674;0,0147698
3765,3315;0,0147703
3766,2959;0,0146724
3767,2600;0,0144819
3768,2244;0,0142179
3769,1885;0,0139259
3770,1528;0,0136847
3771,1169;0,0135784
3772,0813;0,0136445
3773,0454;0,0138459
3774,0098;0,0140952
3774,9739;0,0143026
3775,9382;0,0144106
3776,9023;0,0144041
3777,8667;0,0143087
3778,8308;0,0141876
3779,7952;0,0141185
3780,7593;0,0141446
3781,7236;0,0142448
3782,6877;0,0143516
3783,6521;0,0143929
3784,6162;0,0143279
3785,5806;0,0141679
3786,5447;0,0139723
3787,5090;0,0138198
3788,4731;0,0137683
3789,4375;0,0138309
3790,4016;0,0139793
3791,3660;0,0141698
3792,3301;0,0143745
3793,2944;0,0145964
3794,2585;0,0148576
3795,2229;0,015167
3796,1870;0,0154917
3797,1514;0,0157578
3798,1155;0,0158824
3799,0798;0,0158153
3800,0439;0,0155744
3801,0083;0,0152585
3801,9724;0,0149969
3802,9368;0,0148353
3803,9009;0,0146875
3804,8652;0,0144231
3805,8293;0,0140057
3806,7937;0,0135655
3807,7578;0,0133351
3808,7222;0,0134607
3809,6863;0,0138717
3810,6506;0,0143517
3811,6147;0,0147049
3812,5791;0,0148641
3813,5432;0,0149015
3814,5076;0,0149633
3815,4717;0,0151597
3816,4360;0,0154756
3817,4001;0,01577
3818,3645;0,0158608
3819,3286;0,0156376
3820,2930;0,015156
3821,2571;0,0146491
3822,2214;0,014372
3823,1855;0,0143999
3824,1499;0,0146125
3825,1140;0,0148353
3826,0784;0,0149585
3827,0425;0,01497
3828,0068;0,0149279
3828,9709;0,0149106
3829,9353;0,0149718
3830,8994;0,0151209
3831,8638;0,0153287
3832,8279;0,0155459
3833,7922;0,0157241
3834,7563;0,0158312
3835,7207;0,0158535
3836,6848;0,0157896
3837,6492;0,015647
3838,6133;0,0154502
3839,5776;0,0152335
3840,5417;0,0150116
3841,5061;0,0147773
3842,4702;0,0145423
3843,4346;0,0143731
3844,3987;0,0143723
3845,3630;0,01461
3846,3271;0,0150621
3847,2915;0,0156072
3848,2556;0,0160766
3849,2200;0,0163129
3850,1841;0,016197
3851,1484;0,0156374
3852,1125;0,0146034
3853,0769;0,013358
3854,0410;0,0125467
3855,0054;0,0125774
3855,9695;0,0132305
3856,9338;0,014056
3857,8979;0,0147442
3858,8623;0,0151877
3859,8264;0,0154137
3860,7908;0,0155035
3861,7549;0,0155281
3862,7192;0,0155212
3863,6833;0,0154974
3864,6477;0,0154733
3865,6118;0,0154565
3866,5762;0,0154341
3867,5403;0,0153832
3868,5046;0,015285
3869,4688;0,0151291
3870,4331;0,0149231
3871,3972;0,0147057
3872,3616;0,0145354
3873,3257;0,0144556
3874,2900;0,0144682
3875,2542;0,0145393
3876,2185;0,0146275
3877,1826;0,0147102
3878,1470;0,0147919
3879,1111;0,0148875
3880,0754;0,0149915
3881,0396;0,0150592
3882,0039;0,0150221
3882,9680;0,0148334
3883,9324;0,0145209
3884,8965;0,0142004
3885,8608;0,0140161
3886,8250;0,0140371
3887,7893;0,0142061
3888,7534;0,0143901
3889,7178;0,0144744
3890,6819;0,014435
3891,6462;0,0143584
3892,6104;0,0143808
3893,5747;0,0145693
3894,5388;0,0148672
3895,5032;0,0151585
3896,4673;0,0153589
3897,4316;0,0154519
3898,3958;0,0154655
3899,3601;0,0154277
3900,3242;0,0153353
3901,2886;0,0151569
3902,2527;0,0148668
3903,2170;0,0144917
3904,1812;0,0141224
3905,1455;0,0138606
3906,1096;0,0137462
3907,0740;0,0137461
3908,0381;0,0138005
3909,0024;0,0138701
3909,9666;0,0139507
3910,9309;0,0140563
3911,8950;0,0141937
3912,8594;0,014346
3913,8235;0,0144752
3914,7878;0,0145386
3915,7520;0,0145132
3916,7163;0,0144184
3917,6804;0,0143205
3918,6448;0,0142961
3919,6089;0,0143771
3920,5732;0,0145264
3921,5374;0,0146673
3922,5017;0,0147329
3923,4658;0,014706
3924,4302;0,0146312
3925,3943;0,014585
3926,3586;0,0146186
3927,3228;0,0147217
3928,2871;0,0148338
3929,2512;0,0148815
3930,2156;0,0148151
3931,1797;0,0146368
3932,1440;0,0144055
3933,1082;0,0142039
3934,0725;0,0140892
3935,0366;0,0140699
3936,0010;0,0141219
3936,9651;0,0142128
3937,9294;0,0143152
3938,8936;0,014407
3939,8579;0,0144691
3940,8220;0,0144906
3941,7864;0,0144782
3942,7505;0,0144594
3943,7148;0,0144669
3944,6790;0,014514
3945,6433;0,014582
3946,6074;0,0146321
3947,5718;0,0146283
3948,5359;0,0145601
3949,5002;0,0144506
3950,4644;0,0143426
3951,4287;0,0142695
3952,3928;0,0142371
3953,3572;0,0142288
3954,3213;0,0142228
3955,2856;0,0142073
3956,2498;0,014183
3957,2141;0,0141578
3958,1782;0,014137
3959,1426;0,0141201
3960,1067;0,0141028
3961,0710;0,0140838
3962,0352;0,0140689
3962,9995;0,0140678
3963,9636;0,0140861
3964,9280;0,014119
3965,8921;0,0141523
3966,8564;0,0141704
3967,8206;0,0141662
3968,7849;0,0141452
3969,7490;0,0141222
3970,7134;0,0141112
3971,6775;0,0141157
3972,6418;0,0141272
3973,6060;0,0141315
3974,5703;0,0141195
3975,5344;0,0140939
3976,4988;0,0140665
3977,4629;0,0140493
3978,4272;0,0140462
3979,3914;0,0140496
3980,3557;0,0140464
3981,3198;0,0140264
3982,2842;0,0139901
3983,2483;0,0139499
3984,2126;0,0139237
3985,1768;0,0139255
3986,1411;0,0139583
3987,1052;0,014013
3988,0696;0,0140734
3989,0337;0,0141239
3989,9980;0,0141549
3990,9622;0,0141642
3991,9265;0,0141546
3992,8906;0,0141308
3993,8550;0,0140973
3994,8191;0,0140586
3995,7834;0,01402
3996,7476;0,0139867
3997,7119;0,0139624
3998,6760;0,0139483
3999,6404;0,0139445
4000,6045;0,0142118

##### Extended Information
[Comments]
Sample name
Comment
Username
Division
Organization;UNIVERSIDAD INDUSTRIAL DE SANTANDER

[Detailed Information]
Creation date;18/03/2025 2:00 p.m.

Data array type;Linear data array
Horizontal axis;Wavenumber [cm-1]
Vertical axis;Abs
Start;399,193 cm-1
End;4000,6 cm-1
Data interval;0,964233 cm-1
Data points;3736    

[Measurement Information]
Model name;FT/IR-4X1typeA
Serial No.;A035162111

Accessory;ATR PRO 4X
Accessory S/N;A021162126
Incident angle;45 deg

Measurement date;18/03/2025 2:00 p.m.

Light source;Standard
Detector;TGS
Accumulation;40
Resolution;4 cm-1
Zero filling;On
Apodization;Cosine
Gain;Auto (8)
Aperture;Auto (7 mm)
Scan speed;Auto (2 mm/sec)
Filter;Auto (12800 Hz)

