TITLE;
DATA TYPE;INFRARED SPECTRUM
ORIGIN;JASCO
OWNER;
DATE;25/03/18
TIME;12:32:05
SPECTROMETER/DATA SYSTEM;
LOCALE;9226
RESOLUTION;
DELTAX;0,964233
XUNITS;1/CM
YUNITS;ABSORBANCE
FIRSTX;  399,1927
LASTX; 4000,6047
NPOINTS;    3736
FIRSTY;     0,19798
MAXY;     0,23954
MINY;     0,00970
XYDATA
399,1927;0,197982
400,1569;0,195069
401,1211;0,193993
402,0854;0,194409
403,0496;0,195586
404,0138;0,196797
404,9781;0,197506
405,9423;0,1975
406,9065;0,196914
407,8708;0,19609
408,8350;0,195351
409,7992;0,194885
410,7635;0,19477
411,7277;0,195063
412,6919;0,195836
413,6562;0,19712
414,6204;0,198845
415,5846;0,200796
416,5489;0,20259
417,5131;0,203707
418,4773;0,203771
419,4416;0,203026
420,4058;0,202266
421,3700;0,202071
422,3343;0,202478
423,2985;0,203254
424,2627;0,204172
425,2270;0,205107
426,1912;0,206016
427,1554;0,206865
428,1197;0,207585
429,0839;0,208092
430,0481;0,208345
431,0124;0,208403
431,9766;0,208412
432,9408;0,208511
433,9051;0,208729
434,8693;0,208945
435,8335;0,208957
436,7978;0,208608
437,7620;0,207875
438,7262;0,206862
439,6905;0,20573
440,6547;0,204638
441,6189;0,203728
442,5832;0,203113
443,5474;0,20284
444,5116;0,202857
445,4759;0,203022
446,4401;0,203176
447,4043;0,203216
448,3686;0,20312
449,3328;0,202935
450,2970;0,202735
451,2613;0,20257
452,2255;0,202446
453,1897;0,202321
454,1540;0,202127
455,1182;0,201798
456,0824;0,201303
457,0467;0,200685
458,0109;0,200078
458,9751;0,199653
459,9394;0,199517
460,9036;0,199648
461,8678;0,199926
462,8321;0,200184
463,7963;0,200266
464,7605;0,200063
465,7248;0,199551
466,6890;0,198795
467,6532;0,197906
468,6175;0,197001
469,5817;0,196182
470,5459;0,195557
471,5102;0,195261
472,4744;0,195402
473,4386;0,195979
474,4029;0,196827
475,3671;0,197686
476,3313;0,198317
477,2956;0,198602
478,2598;0,198573
479,2240;0,198386
480,1883;0,198238
481,1525;0,198273
482,1167;0,198527
483,0810;0,198939
484,0452;0,199412
485,0094;0,199879
485,9737;0,200321
486,9379;0,200745
487,9021;0,201141
488,8664;0,201482
489,8306;0,201739
490,7948;0,201903
491,7591;0,20199
492,7233;0,202027
493,6875;0,202036
494,6518;0,202037
495,6160;0,202061
496,5802;0,202159
497,5445;0,202382
498,5087;0,20275
499,4729;0,20323
500,4372;0,203741
501,4014;0,204191
502,3656;0,204527
503,3299;0,204763
504,2941;0,204961
505,2583;0,205187
506,2226;0,20548
507,1868;0,205853
508,1510;0,206297
509,1153;0,206798
510,0795;0,207341
511,0437;0,207911
512,0080;0,208504
512,9722;0,209134
513,9365;0,209822
514,9007;0,210571
515,8649;0,211327
516,8292;0,211955
517,7934;0,212277
518,7576;0,212175
519,7219;0,211688
520,6861;0,211013
521,6503;0,210399
522,6146;0,210045
523,5788;0,21003
524,5430;0,210294
525,5073;0,210661
526,4715;0,210919
527,4357;0,210929
528,4000;0,210677
529,3642;0,210244
530,3284;0,209728
531,2927;0,209199
532,2569;0,208687
533,2211;0,208204
534,1854;0,207774
535,1496;0,20744
536,1138;0,207257
537,0781;0,207258
538,0423;0,207427
539,0065;0,207693
539,9708;0,207954
540,9350;0,208122
541,8992;0,208161
542,8635;0,208108
543,8277;0,208052
544,7919;0,20809
545,7562;0,208279
546,7204;0,208611
547,6846;0,209025
548,6489;0,209448
549,6131;0,20984
550,5773;0,210206
551,5416;0,210591
552,5058;0,211049
553,4700;0,211617
554,4343;0,212283
555,3985;0,212977
556,3627;0,213556
557,3270;0,213836
558,2912;0,213643
559,2554;0,212884
560,2197;0,211598
561,1839;0,209959
562,1481;0,208218
563,1124;0,206609
564,0766;0,205266
565,0408;0,2042
566,0051;0,20333
566,9693;0,202549
567,9335;0,201789
568,8978;0,201047
569,8620;0,200369
570,8262;0,199806
571,7905;0,199384
572,7547;0,199088
573,7189;0,198874
574,6832;0,198691
575,6474;0,198496
576,6116;0,198264
577,5759;0,197991
578,5401;0,197688
579,5043;0,197374
580,4686;0,197071
581,4328;0,196804
582,3970;0,196589
583,3613;0,19643
584,3255;0,196314
585,2897;0,196214
586,2540;0,196107
587,2182;0,19598
588,1824;0,19584
589,1467;0,195698
590,1109;0,195566
591,0751;0,195441
592,0394;0,195306
593,0036;0,195143
593,9678;0,194935
594,9321;0,194673
595,8963;0,194352
596,8605;0,193979
597,8248;0,19357
598,7890;0,193162
599,7532;0,192787
600,7175;0,192458
601,6817;0,192144
602,6459;0,191785
603,6102;0,191323
604,5744;0,190743
605,5386;0,190084
606,5029;0,189412
607,4671;0,188781
608,4313;0,188193
609,3956;0,187607
610,3598;0,186982
611,3240;0,186323
612,2883;0,185685
613,2525;0,185138
614,2167;0,184699
615,1810;0,184287
616,1452;0,18374
617,1094;0,182881
618,0737;0,181626
619,0379;0,180034
620,0021;0,178274
620,9664;0,176535
621,9306;0,174953
622,8948;0,173593
623,8591;0,172464
624,8233;0,171513
625,7875;0,170759
626,7518;0,170158
627,7160;0,16965
628,6802;0,169163
629,6445;0,168626
630,6087;0,167984
631,5729;0,167225
632,5372;0,16638
633,5014;0,165524
634,4656;0,164747
635,4299;0,164125
636,3941;0,163684
637,3583;0,163394
638,3226;0,163183
639,2868;0,162965
640,2510;0,162678
641,2153;0,1623
642,1795;0,161854
643,1437;0,161389
644,1080;0,160953
645,0722;0,160578
646,0364;0,160269
647,0007;0,160018
647,9649;0,159814
648,9291;0,159661
649,8934;0,159573
650,8576;0,159564
651,8218;0,159636
652,7861;0,159769
653,7503;0,159935
654,7145;0,160111
655,6788;0,160284
656,6430;0,160463
657,6072;0,160664
658,5715;0,160885
659,5357;0,161085
660,4999;0,161173
661,4642;0,161038
662,4284;0,160592
663,3926;0,159798
664,3569;0,158697
665,3211;0,157482
666,2853;0,156527
667,2496;0,156166
668,2138;0,156166
669,1780;0,155837
670,1423;0,15502
671,1065;0,153967
672,0707;0,152714
673,0350;0,151166
673,9992;0,149323
674,9634;0,147313
675,9277;0,14531
676,8919;0,143439
677,8561;0,141739
678,8204;0,140197
679,7846;0,138815
680,7488;0,137615
681,7131;0,136613
682,6773;0,135777
683,6415;0,135041
684,6058;0,134338
685,5700;0,133641
686,5342;0,13296
687,4985;0,132319
688,4627;0,131736
689,4269;0,1312
690,3912;0,130697
691,3554;0,130214
692,3196;0,129747
693,2839;0,129288
694,2481;0,128831
695,2123;0,12837
696,1766;0,127902
697,1408;0,127433
698,1050;0,126966
699,0693;0,126498
700,0335;0,126018
700,9977;0,125509
701,9620;0,124957
702,9262;0,124353
703,8904;0,123689
704,8547;0,122977
705,8189;0,12224
706,7831;0,121507
707,7474;0,1208
708,7116;0,120124
709,6758;0,119458
710,6401;0,118759
711,6043;0,117979
712,5685;0,117098
713,5328;0,116151
714,4970;0,115222
715,4612;0,113803
716,4255;0,113298
717,3897;0,112999
718,3539;0,112751
719,3182;0,112329
720,2824;0,111545
721,2466;0,110356
722,2109;0,108885
723,1751;0,107347
724,1393;0,105932
725,1036;0,104736
726,0678;0,103754
727,0320;0,102919
727,9963;0,102151
728,9605;0,101394
729,9247;0,100631
730,8890;0,0998645
731,8532;0,0991098
732,8174;0,0983799
733,7817;0,0976838
734,7459;0,0970262
735,7101;0,0964079
736,6744;0,0958269
737,6386;0,0952806
738,6028;0,094767
739,5671;0,0942848
740,5313;0,0938301
741,4955;0,0933939
742,4598;0,0929616
743,4240;0,0925174
744,3882;0,09205
745,3525;0,0915561
746,3167;0,0910409
747,2809;0,0905154
748,2452;0,0899931
749,2094;0,0894868
750,1736;0,0890059
751,1379;0,0885533
752,1021;0,088123
753,0663;0,0877004
754,0306;0,0872671
754,9948;0,0868086
755,9590;0,0863215
756,9233;0,0858154
757,8875;0,0853099
758,8517;0,0848269
759,8160;0,0843838
760,7802;0,08399
761,7444;0,0836468
762,7087;0,0833476
763,6729;0,0830788
764,6371;0,082821
765,6014;0,082553
766,5656;0,082258
767,5298;0,0819307
768,4941;0,0815782
769,4583;0,0812157
770,4225;0,0808577
771,3868;0,0805125
772,3510;0,0801825
773,3152;0,0798706
774,2795;0,0795861
775,2437;0,0793421
776,2079;0,0791464
777,1722;0,0789898
778,1364;0,0788425
779,1006;0,0786636
780,0649;0,0784171
781,0291;0,0780876
781,9933;0,0776837
782,9576;0,0772306
783,9218;0,0767563
784,8860;0,0762836
785,8503;0,0758284
786,8145;0,0754051
787,7787;0,0750285
788,7430;0,0747112
789,7072;0,0744553
790,6714;0,0742478
791,6357;0,0740634
792,5999;0,0738746
793,5641;0,0736633
794,5284;0,0734267
795,4926;0,0731741
796,4568;0,0729195
797,4211;0,0726742
798,3853;0,072444
799,3495;0,0722304
800,3138;0,0720326
801,2780;0,0718476
802,2422;0,07167
803,2065;0,0714931
804,1707;0,0713123
805,1349;0,0711286
806,0992;0,0709509
807,0634;0,0707923
808,0276;0,0706632
808,9919;0,0705645
809,9561;0,0704849
810,9203;0,0704048
811,8846;0,0703044
812,8488;0,0701727
813,8130;0,070012
814,7773;0,0698382
815,7415;0,069675
816,7057;0,0695477
817,6700;0,0694749
818,6342;0,0694636
819,5984;0,0695049
820,5627;0,0695744
821,5269;0,0696372
822,4911;0,0696578
823,4554;0,0696119
824,4196;0,0694948
825,3839;0,0693213
826,3481;0,0691179
827,3123;0,0689114
828,2766;0,06872
829,2408;0,0685511
830,2050;0,0684043
831,1693;0,0682737
832,1335;0,0681489
833,0977;0,0680133
834,0620;0,0678452
835,0262;0,0676245
835,9904;0,0673429
836,9547;0,0670101
837,9189;0,0666515
838,8831;0,0662987
839,8474;0,0659768
840,8116;0,0656993
841,7758;0,0654701
842,7401;0,0652888
843,7043;0,0651537
844,6685;0,0650575
845,6328;0,0649831
846,5970;0,0649045
847,5612;0,064797
848,5255;0,0646505
849,4897;0,0644771
850,4539;0,0643048
851,4182;0,0641614
852,3824;0,0640583
853,3466;0,0639864
854,3109;0,0639248
855,2751;0,0638555
856,2393;0,0637731
857,2036;0,063684
858,1678;0,063599
859,1320;0,0635264
860,0963;0,0634715
861,0605;0,0634407
862,0247;0,0634433
862,9890;0,0634878
863,9532;0,0635765
864,9174;0,0637024
865,8817;0,0638544
866,8459;0,0640262
867,8101;0,0642216
868,7744;0,0644505
869,7386;0,0647168
870,7028;0,0650089
871,6671;0,0653015
872,6313;0,0655677
873,5955;0,0657956
874,5598;0,0659949
875,5240;0,0661905
876,4882;0,0664069
877,4525;0,066656
878,4167;0,0669352
879,3809;0,0672382
880,3452;0,0675674
881,3094;0,0679389
882,2736;0,0683777
883,2379;0,0689057
884,2021;0,069533
885,1663;0,0702555
886,1306;0,0710601
887,0948;0,0719308
888,0590;0,0728512
889,0233;0,0738028
889,9875;0,0747618
890,9517;0,0756989
891,9160;0,0765806
892,8802;0,0773735
893,8444;0,0780466
894,8087;0,078574
895,7729;0,0789367
896,7371;0,0791247
897,7014;0,0791392
898,6656;0,0789917
899,6298;0,0787011
900,5941;0,0782889
901,5583;0,0777772
902,5225;0,0771896
903,4868;0,0765543
904,4510;0,0759057
905,4152;0,0752831
906,3795;0,0747236
907,3437;0,0742543
908,3079;0,0738855
909,2722;0,0736101
910,2364;0,0734084
911,2007;0,0732589
912,1649;0,0731481
913,1292;0,073077
914,0934;0,0730598
915,0576;0,0731155
916,0219;0,0732561
916,9861;0,0734794
917,9503;0,073769
918,9146;0,0741008
919,8788;0,0744528
920,8430;0,0748107
921,8073;0,0751674
922,7715;0,0755193
923,7357;0,0758614
924,7000;0,0761868
925,6642;0,076489
926,6284;0,0767646
927,5927;0,077016
928,5569;0,0772517
929,5211;0,0774857
930,4854;0,0777348
931,4496;0,0780144
932,4138;0,0783333
933,3781;0,0786904
934,3423;0,0790774
935,3065;0,079487
936,2708;0,0799214
937,2350;0,0803966
938,1992;0,0809366
939,1635;0,0815624
940,1277;0,0822822
941,0919;0,0830889
942,0562;0,0839671
943,0204;0,0849041
943,9846;0,0858972
944,9489;0,0869546
945,9131;0,0880891
946,8773;0,0893114
947,8416;0,0906231
948,8058;0,092015
949,7700;0,0934674
950,7343;0,0949554
951,6985;0,096457
952,6627;0,0979614
953,6270;0,0994738
954,5912;0,101014
955,5554;0,102605
956,5197;0,104266
957,4839;0,106
958,4481;0,107797
959,4124;0,109642
960,3766;0,111518
961,3408;0,113415
962,3051;0,115323
963,2693;0,117235
964,2335;0,119145
965,1978;0,121053
966,1620;0,122968
967,1262;0,124911
968,0905;0,126911
969,0547;0,128996
970,0189;0,131189
970,9832;0,13351
971,9474;0,135979
972,9116;0,13862
973,8759;0,14146
974,8401;0,14452
975,8043;0,147808
976,7686;0,151305
977,7328;0,154966
978,6970;0,15872
979,6613;0,162476
980,6255;0,166134
981,5897;0,169593
982,5540;0,172767
983,5182;0,175591
984,4824;0,178042
985,4467;0,180139
986,4109;0,181937
987,3751;0,183515
988,3394;0,18495
989,3036;0,186298
990,2678;0,18758
991,2321;0,188791
992,1963;0,189906
993,1605;0,190904
994,1248;0,191778
995,0890;0,192543
996,0532;0,193227
997,0175;0,193864
997,9817;0,194476
998,9459;0,19508
999,9102;0,19569
1000,8744;0,196326
1001,8386;0,197026
1002,8029;0,197837
1003,7671;0,198808
1004,7313;0,199975
1005,6956;0,201355
1006,6598;0,202943
1007,6240;0,204724
1008,5883;0,206674
1009,5525;0,208764
1010,5167;0,210959
1011,4810;0,213218
1012,4452;0,21549
1013,4094;0,217728
1014,3737;0,219885
1015,3379;0,221929
1016,3021;0,223836
1017,2664;0,225597
1018,2306;0,227214
1019,1948;0,228697
1020,1591;0,23006
1021,1233;0,231322
1022,0875;0,232503
1023,0518;0,23362
1024,0160;0,234687
1024,9802;0,235714
1025,9445;0,236697
1026,9087;0,23762
1027,8729;0,238442
1028,8372;0,239097
1029,8014;0,239496
1030,7656;0,239535
1031,7299;0,239115
1032,6941;0,238162
1033,6583;0,236653
1034,6226;0,234632
1035,5868;0,232216
1036,5510;0,229577
1037,5153;0,226923
1038,4795;0,224453
1039,4437;0,222329
1040,4080;0,220645
1041,3722;0,219427
1042,3364;0,218633
1043,3007;0,21818
1044,2649;0,217966
1045,2291;0,21789
1046,1934;0,217865
1047,1576;0,217817
1048,1218;0,217682
1049,0861;0,217399
1050,0503;0,216914
1051,0145;0,216185
1051,9788;0,215188
1052,9430;0,213923
1053,9072;0,212409
1054,8715;0,210665
1055,8357;0,208694
1056,7999;0,206464
1057,7642;0,203917
1058,7284;0,200994
1059,6926;0,197672
1060,6569;0,193989
1061,6211;0,190059
1062,5853;0,186042
1063,5496;0,182107
1064,5138;0,178391
1065,4780;0,174969
1066,4423;0,171861
1067,4065;0,169042
1068,3707;0,166467
1069,3350;0,164087
1070,2992;0,161856
1071,2634;0,159725
1072,2277;0,157642
1073,1919;0,155554
1074,1561;0,153419
1075,1204;0,151213
1076,0846;0,14894
1077,0488;0,146633
1078,0131;0,144348
1078,9773;0,142147
1079,9415;0,140092
1080,9058;0,138232
1081,8700;0,136598
1082,8342;0,1352
1083,7985;0,134028
1084,7627;0,133062
1085,7269;0,132274
1086,6912;0,131641
1087,6554;0,131146
1088,6196;0,13078
1089,5839;0,130541
1090,5481;0,130422
1091,5123;0,130409
1092,4766;0,13048
1093,4408;0,130611
1094,4050;0,130784
1095,3693;0,130993
1096,3335;0,131243
1097,2977;0,131542
1098,2620;0,131886
1099,2262;0,132259
1100,1904;0,132626
1101,1547;0,132946
1102,1189;0,13318
1103,0831;0,1333
1104,0474;0,133295
1105,0116;0,133171
1105,9758;0,132949
1106,9401;0,132652
1107,9043;0,13229
1108,8685;0,131841
1109,8328;0,13125
1110,7970;0,130439
1111,7612;0,129343
1112,7255;0,127941
1113,6897;0,126277
1114,6539;0,124455
1115,6182;0,122605
1116,5824;0,12084
1117,5466;0,119227
1118,5109;0,117777
1119,4751;0,116453
1120,4393;0,115185
1121,4036;0,113893
1122,3678;0,112497
1123,3320;0,110931
1124,2963;0,109153
1125,2605;0,107159
1126,2247;0,104976
1127,1890;0,102659
1128,1532;0,100274
1129,1174;0,0978744
1130,0817;0,0955023
1131,0459;0,093184
1132,0101;0,0909414
1132,9744;0,0887996
1133,9386;0,0867921
1134,9028;0,0849584
1135,8671;0,0833393
1136,8313;0,0819715
1137,7955;0,0808827
1138,7598;0,080088
1139,7240;0,0795866
1140,6882;0,0793605
1141,6525;0,0793762
1142,6167;0,07959
1143,5809;0,0799562
1144,5452;0,0804353
1145,5094;0,0809977
1146,4736;0,0816249
1147,4379;0,0823056
1148,4021;0,0830322
1149,3663;0,0837977
1150,3306;0,0845928
1151,2948;0,0854042
1152,2590;0,0862125
1153,2233;0,0869905
1154,1875;0,0877029
1155,1517;0,0883077
1156,1160;0,0887583
1157,0802;0,0890037
1158,0444;0,0889881
1159,0087;0,0886507
1159,9729;0,0879281
1160,9371;0,086764
1161,9014;0,0851226
1162,8656;0,0830039
1163,8298;0,0804533
1164,7941;0,0775613
1165,7583;0,0744528
1166,7225;0,0712688
1167,6868;0,0681445
1168,6510;0,0651905
1169,6152;0,0624795
1170,5795;0,0600436
1171,5437;0,0578809
1172,5079;0,05597
1173,4722;0,0542849
1174,4364;0,0528053
1175,4006;0,051519
1176,3649;0,0504166
1177,3291;0,0494842
1178,2933;0,0487009
1179,2576;0,0480405
1180,2218;0,0474782
1181,1860;0,0469964
1182,1503;0,0465877
1183,1145;0,0462525
1184,0787;0,0459953
1185,0430;0,0458215
1186,0072;0,0457357
1186,9714;0,0457416
1187,9357;0,0458415
1188,8999;0,046036
1189,8641;0,0463226
1190,8284;0,0466957
1191,7926;0,0471465
1192,7568;0,0476654
1193,7211;0,0482429
1194,6853;0,0488703
1195,6495;0,0495391
1196,6138;0,0502391
1197,5780;0,0509578
1198,5422;0,051681
1199,5065;0,052339
1200,4707;0,0530403
1201,4349;0,0537157
1202,3992;0,05436
1203,3634;0,0549663
1204,3276;0,0555249
1205,2919;0,0560249
1206,2561;0,0564613
1207,2203;0,0568417
1208,1846;0,0571893
1209,1488;0,0575402
1210,1130;0,0579349
1211,0773;0,0584074
1212,0415;0,0589781
1213,0057;0,0596501
1213,9700;0,0604119
1214,9342;0,0612424
1215,8984;0,0621179
1216,8627;0,0630158
1217,8269;0,0639179
1218,7911;0,0648129
1219,7554;0,0656947
1220,7196;0,0665599
1221,6838;0,0674044
1222,6481;0,0682206
1223,6123;0,0689991
1224,5765;0,0697312
1225,5408;0,0704131
1226,5050;0,071047
1227,4692;0,0716384
1228,4335;0,0721926
1229,3977;0,0727115
1230,3619;0,0731923
1231,3262;0,0736293
1232,2904;0,0740159
1233,2546;0,0743456
1234,2189;0,0746133
1235,1831;0,0748159
1236,1473;0,0749541
1237,1116;0,0750341
1238,0758;0,0750667
1239,0400;0,0750651
1240,0043;0,0750394
1240,9685;0,0749939
1241,9327;0,0749252
1242,8970;0,0748247
1243,8612;0,0746821
1244,8254;0,0744892
1245,7897;0,0742426
1246,7539;0,0739447
1247,7181;0,073603
1248,6824;0,073229
1249,6466;0,0728351
1250,6108;0,072433
1251,5751;0,0720323
1252,5393;0,0716409
1253,5035;0,0712652
1254,4678;0,0709098
1255,4320;0,0705753
1256,3962;0,0702571
1257,3605;0,0699439
1258,3247;0,0696213
1259,2889;0,0692752
1260,2532;0,0688968
1261,2174;0,0684836
1262,1816;0,0680383
1263,1459;0,067565
1264,1101;0,0670664
1265,0743;0,0665434
1266,0386;0,0659968
1267,0028;0,0654284
1267,9670;0,0648428
1268,9313;0,0642455
1269,8955;0,063641
1270,8597;0,0630307
1271,8240;0,0624118
1272,7882;0,0617805
1273,7524;0,0611364
1274,7167;0,0604864
1275,6809;0,0598443
1276,6451;0,0592258
1277,6094;0,0586399
1278,5736;0,0580841
1279,5378;0,0575452
1280,5021;0,0570077
1281,4663;0,0564634
1282,4305;0,0559173
1283,3948;0,0553854
1284,3590;0,0548868
1285,3232;0,0544369
1286,2875;0,0540444
1287,2517;0,0537122
1288,2159;0,0534407
1289,1802;0,0532296
1290,1444;0,0530789
1291,1086;0,0529896
1292,0729;0,0529644
1293,0371;0,053009
1294,0013;0,0531304
1294,9656;0,0533335
1295,9298;0,0536177
1296,8940;0,0539762
1297,8583;0,0543995
1298,8225;0,0548791
1299,7867;0,0554111
1300,7510;0,0559947
1301,7152;0,0566293
1302,6794;0,0573119
1303,6437;0,0580367
1304,6079;0,0587985
1305,5721;0,0595945
1306,5364;0,0604239
1307,5006;0,0612856
1308,4648;0,0621744
1309,4291;0,0630774
1310,3933;0,0639729
1311,3575;0,0648311
1312,3218;0,0656183
1313,2860;0,0663017
1314,2502;0,0668538
1315,2145;0,0672517
1316,1787;0,067475
1317,1429;0,0675085
1318,1072;0,0673517
1319,0714;0,06703
1320,0356;0,0665963
1320,9999;0,0661159
1321,9641;0,0656451
1322,9283;0,065218
1323,8926;0,0648476
1324,8568;0,0645355
1325,8210;0,0642818
1326,7853;0,0640876
1327,7495;0,0639527
1328,7137;0,0638692
1329,6780;0,0638185
1330,6422;0,0637742
1331,6064;0,0637097
1332,5707;0,0636066
1333,5349;0,063458
1334,4991;0,0632617
1335,4634;0,0630087
1336,4276;0,0626751
1337,3918;0,0622252
1338,3561;0,0616354
1339,3203;0,0609261
1340,2845;0,0601702
1341,2488;0,0594573
1342,2130;0,0588467
1343,1772;0,0583524
1344,1415;0,0579606
1345,1057;0,057653
1346,0699;0,0574206
1347,0342;0,0572657
1347,9984;0,0571977
1348,9626;0,0572255
1349,9269;0,0573503
1350,8911;0,0575618
1351,8553;0,0578404
1352,8196;0,0581641
1353,7838;0,0585181
1354,7480;0,0589012
1355,7123;0,0593233
1356,6765;0,0597955
1357,6407;0,0603186
1358,6050;0,0608789
1359,5692;0,0614493
1360,5334;0,0619932
1361,4977;0,0624734
1362,4619;0,0628718
1363,4261;0,0632049
1364,3904;0,0635098
1365,3546;0,0638131
1366,3188;0,064116
1367,2831;0,0644019
1368,2473;0,064649
1369,2115;0,0648363
1370,1758;0,0649439
1371,1400;0,0649476
1372,1042;0,0648191
1373,0685;0,0645391
1374,0327;0,0641188
1374,9969;0,0636075
1375,9612;0,0630623
1376,9254;0,0625008
1377,8896;0,0618923
1378,8539;0,0611939
1379,8181;0,0604003
1380,7823;0,0595637
1381,7466;0,0587654
1382,7108;0,0580587
1383,6750;0,0574316
1384,6393;0,0568176
1385,6035;0,0561456
1386,5677;0,0554043
1387,5320;0,0546777
1388,4962;0,0540929
1389,4604;0,0537214
1390,4247;0,0535426
1391,3889;0,0534869
1392,3531;0,0534884
1393,3174;0,053507
1394,2816;0,0535255
1395,2458;0,0535408
1396,2101;0,053557
1397,1743;0,0535863
1398,1385;0,0536498
1399,1028;0,0537725
1400,0670;0,0539705
1401,0313;0,0542396
1401,9955;0,0545566
1402,9597;0,0548913
1403,9240;0,0552231
1404,8882;0,0555526
1405,8524;0,0559011
1406,8167;0,0562934
1407,7809;0,0567378
1408,7451;0,0572223
1409,7094;0,0577298
1410,6736;0,0582537
1411,6378;0,0588028
1412,6021;0,0593898
1413,5663;0,0600148
1414,5305;0,060656
1415,4948;0,0612721
1416,4590;0,0618059
1417,4232;0,0621945
1418,3875;0,0624087
1419,3517;0,0624992
1420,3159;0,0625588
1421,2802;0,0626216
1422,2444;0,0626391
1423,2086;0,0625424
1424,1729;0,0623009
1425,1371;0,0619318
1426,1013;0,0614652
1427,0656;0,0609043
1428,0298;0,0602244
1428,9940;0,0594196
1429,9583;0,0585523
1430,9225;0,057735
1431,8867;0,0570434
1432,8510;0,0564504
1433,8152;0,0558389
1434,7794;0,0550753
1435,7437;0,0541157
1436,7079;0,0531012
1437,6721;0,0522933
1438,6364;0,051849
1439,6006;0,0517228
1440,5648;0,0517782
1441,5291;0,05191
1442,4933;0,0520796
1443,4575;0,052292
1444,4218;0,0525571
1445,3860;0,0528632
1446,3502;0,0531782
1447,3145;0,0534736
1448,2787;0,053751
1449,2429;0,0540436
1450,2072;0,0543853
1451,1714;0,0547763
1452,1356;0,0551797
1453,0999;0,0555371
1454,0641;0,0557753
1455,0283;0,0557852
1455,9926;0,0554209
1456,9568;0,0546718
1457,9210;0,0538953
1458,8853;0,0535009
1459,8495;0,0535035
1460,8137;0,0536632
1461,7780;0,0537372
1462,7422;0,0535478
1463,7064;0,0529967
1464,6707;0,0521245
1465,6349;0,0511375
1466,5991;0,0502632
1467,5634;0,0495669
1468,5276;0,0489441
1469,4918;0,0482178
1470,4561;0,0472036
1471,4203;0,0457571
1472,3845;0,0438877
1473,3488;0,0418776
1474,3130;0,0401305
1475,2772;0,0388367
1476,2415;0,0379248
1477,2057;0,037246
1478,1699;0,0366909
1479,1342;0,0362013
1480,0984;0,0357524
1481,0626;0,0353443
1482,0269;0,0349997
1482,9911;0,034753
1483,9553;0,0346278
1484,9196;0,0346204
1485,8838;0,0346983
1486,8480;0,0348084
1487,8123;0,0348929
1488,7765;0,034931
1489,7407;0,0349887
1490,7050;0,0351797
1491,6692;0,0355554
1492,6334;0,0360814
1493,5977;0,0366996
1494,5619;0,0373719
1495,5261;0,0380845
1496,4904;0,0388319
1497,4546;0,0396121
1498,4188;0,0404364
1499,3831;0,0413125
1500,3473;0,0422103
1501,3115;0,0430664
1502,2758;0,0438207
1503,2400;0,0444452
1504,2042;0,0449472
1505,1685;0,0453299
1506,1327;0,0455139
1507,0969;0,0453927
1508,0612;0,0451204
1509,0254;0,0449838
1509,9896;0,0450349
1510,9539;0,0451645
1511,9181;0,0452692
1512,8823;0,045289
1513,8466;0,0451929
1514,8108;0,0449689
1515,7750;0,0446261
1516,7393;0,0441929
1517,7035;0,0436977
1518,6677;0,0431495
1519,6320;0,042551
1520,5962;0,0419397
1521,5604;0,0414077
1522,5247;0,0410508
1523,4889;0,0408954
1524,4531;0,0408954
1525,4174;0,0409925
1526,3816;0,0411621
1527,3458;0,041408
1528,3101;0,0417298
1529,2743;0,0421051
1530,2385;0,0425027
1531,2028;0,0429042
1532,1670;0,0433147
1533,1312;0,0437548
1534,0955;0,04424
1535,0597;0,0447582
1536,0239;0,0452696
1536,9882;0,045731
1537,9524;0,0461122
1538,9166;0,046371
1539,8809;0,0464106
1540,8451;0,0461775
1541,8093;0,0458616
1542,7736;0,0456924
1543,7378;0,0456709
1544,7020;0,0456961
1545,6663;0,0457101
1546,6305;0,0457061
1547,5947;0,0456862
1548,5590;0,0456342
1549,5232;0,0455236
1550,4874;0,0453482
1551,4517;0,0451463
1552,4159;0,0449854
1553,3801;0,0449099
1554,3444;0,0449003
1555,3086;0,0448654
1556,2728;0,0446391
1557,2371;0,0439829
1558,2013;0,0428078
1559,1655;0,0416435
1560,1298;0,0412108
1561,0940;0,0415165
1562,0582;0,042161
1563,0225;0,0428411
1563,9867;0,0434203
1564,9509;0,0438586
1565,9152;0,0441607
1566,8794;0,0443566
1567,8436;0,0445047
1568,8079;0,0446935
1569,7721;0,0450072
1570,7363;0,0454671
1571,7006;0,046018
1572,6648;0,0465749
1573,6290;0,047072
1574,5933;0,0474786
1575,5575;0,047802
1576,5217;0,0480986
1577,4860;0,0484591
1578,4502;0,048932
1579,4144;0,0494841
1580,3787;0,0500492
1581,3429;0,0505817
1582,3071;0,0510713
1583,2714;0,0515366
1584,2356;0,0520089
1585,1998;0,0525152
1586,1641;0,0530645
1587,1283;0,0536468
1588,0925;0,0542389
1589,0568;0,0548107
1590,0210;0,0553292
1590,9852;0,0557594
1591,9495;0,0560655
1592,9137;0,0562173
1593,8779;0,0562033
1594,8422;0,0560426
1595,8064;0,055784
1596,7706;0,055486
1597,7349;0,0551935
1598,6991;0,054926
1599,6633;0,0546818
1600,6276;0,0544525
1601,5918;0,0542364
1602,5560;0,0540456
1603,5203;0,0538994
1604,4845;0,0538083
1605,4487;0,053762
1606,4130;0,053734
1607,3772;0,0537029
1608,3414;0,0536771
1609,3057;0,0536991
1610,2699;0,0538146
1611,2341;0,0540283
1612,1984;0,0542937
1613,1626;0,0545397
1614,1268;0,0547085
1615,0911;0,0547907
1616,0553;0,0548569
1617,0195;0,0550382
1617,9838;0,0554184
1618,9480;0,0559562
1619,9122;0,0565412
1620,8765;0,0570804
1621,8407;0,0575319
1622,8049;0,0579011
1623,7692;0,0582238
1624,7334;0,0585418
1625,6976;0,0588782
1626,6619;0,0592371
1627,6261;0,059621
1628,5903;0,0600388
1629,5546;0,0604907
1630,5188;0,0609522
1631,4830;0,0613752
1632,4473;0,0617035
1633,4115;0,061882
1634,3757;0,0618674
1635,3400;0,0616831
1636,3042;0,0614964
1637,2684;0,0615136
1638,2327;0,061773
1639,1969;0,0621684
1640,1611;0,0625871
1641,1254;0,0629646
1642,0896;0,0632694
1643,0538;0,0634727
1644,0181;0,0635261
1644,9823;0,0633687
1645,9465;0,063004
1646,9108;0,062596
1647,8750;0,0623632
1648,8392;0,0623419
1649,8035;0,0623623
1650,7677;0,0621509
1651,7319;0,0613759
1652,6962;0,0598395
1653,6604;0,0580137
1654,6246;0,0568065
1655,5889;0,0564148
1656,5531;0,0564153
1657,5173;0,0564152
1658,4816;0,0562095
1659,4458;0,0557085
1660,4100;0,0548863
1661,3743;0,0538034
1662,3385;0,0526471
1663,3027;0,0516559
1664,2670;0,0509485
1665,2312;0,050459
1666,1954;0,0500111
1667,1597;0,0494076
1668,1239;0,0485086
1669,0881;0,0473354
1670,0524;0,0461133
1671,0166;0,0450962
1671,9808;0,0443307
1672,9451;0,0436633
1673,9093;0,0429198
1674,8735;0,0420574
1675,8378;0,0412048
1676,8020;0,0405538
1677,7662;0,0401864
1678,7305;0,0400229
1679,6947;0,0398942
1680,6589;0,0396074
1681,6232;0,0389593
1682,5874;0,0377863
1683,5516;0,0361819
1684,5159;0,0346477
1685,4801;0,0336551
1686,4443;0,0331884
1687,4086;0,0329556
1688,3728;0,0327211
1689,3370;0,0323997
1690,3013;0,0320132
1691,2655;0,0316177
1692,2297;0,0312479
1693,1940;0,0308988
1694,1582;0,0305372
1695,1224;0,0301234
1696,0867;0,0296262
1697,0509;0,0290277
1698,0151;0,0283336
1698,9794;0,0276052
1699,9436;0,026978
1700,9078;0,0265948
1701,8721;0,0264965
1702,8363;0,0266
1703,8005;0,0267696
1704,7648;0,0268973
1705,7290;0,026951
1706,6932;0,0269804
1707,6575;0,0270725
1708,6217;0,0272834
1709,5859;0,0276097
1710,5502;0,0280098
1711,5144;0,0284368
1712,4786;0,0288515
1713,4429;0,0292137
1714,4071;0,0294669
1715,3713;0,0295391
1716,3356;0,0294059
1717,2998;0,029197
1718,2640;0,0291477
1719,2283;0,0293744
1720,1925;0,0298068
1721,1567;0,030307
1722,1210;0,0307668
1723,0852;0,0311352
1724,0494;0,0314148
1725,0137;0,0316472
1725,9779;0,031888
1726,9421;0,0321766
1727,9064;0,0325148
1728,8706;0,032862
1729,8348;0,0331418
1730,7991;0,0332522
1731,7633;0,0330892
1732,7275;0,0326218
1733,6918;0,0319982
1734,6560;0,031494
1735,6202;0,0312629
1736,5845;0,0312298
1737,5487;0,0312205
1738,5129;0,0310956
1739,4772;0,0308031
1740,4414;0,0303791
1741,4056;0,0299105
1742,3699;0,0294694
1743,3341;0,0290707
1744,2983;0,0286846
1745,2626;0,0282719
1746,2268;0,027795
1747,1910;0,027205
1748,1553;0,0264407
1749,1195;0,0254818
1750,0837;0,0244228
1751,0480;0,0234472
1752,0122;0,0226882
1752,9764;0,022145
1753,9407;0,0217267
1754,9049;0,0213359
1755,8691;0,0209207
1756,8334;0,0204821
1757,7976;0,0200433
1758,7618;0,0196088
1759,7261;0,019152
1760,6903;0,0186479
1761,6545;0,0181188
1762,6188;0,0176387
1763,5830;0,0172817
1764,5472;0,0170665
1765,5115;0,0169516
1766,4757;0,0168689
1767,4399;0,0167574
1768,4042;0,0165768
1769,3684;0,0163063
1770,3326;0,0159431
1771,2969;0,0155178
1772,2611;0,0151136
1773,2253;0,0148383
1774,1896;0,0147484
1775,1538;0,0148104
1776,1180;0,0149363
1777,0823;0,0150394
1778,0465;0,0150672
1779,0107;0,0150118
1779,9750;0,0149023
1780,9392;0,0147809
1781,9034;0,0146758
1782,8677;0,0145936
1783,8319;0,0145362
1784,7961;0,0145173
1785,7604;0,0145579
1786,7246;0,0146638
1787,6888;0,0148094
1788,6531;0,0149421
1789,6173;0,0149986
1790,5815;0,0149293
1791,5458;0,0147351
1792,5100;0,0144959
1793,4742;0,0143295
1794,4385;0,0142956
1795,4027;0,0143637
1796,3669;0,0144622
1797,3312;0,0145313
1798,2954;0,014543
1799,2596;0,014499
1800,2239;0,0144211
1801,1881;0,014338
1802,1523;0,0142738
1803,1166;0,0142413
1804,0808;0,0142429
1805,0450;0,0142743
1806,0093;0,0143257
1806,9735;0,0143801
1807,9377;0,0144156
1808,9020;0,0144115
1809,8662;0,0143616
1810,8304;0,0142824
1811,7947;0,0142066
1812,7589;0,0141619
1813,7231;0,0141539
1814,6874;0,0141671
1815,6516;0,0141793
1816,6158;0,0141771
1817,5801;0,0141656
1818,5443;0,0141653
1819,5085;0,0141961
1820,4728;0,0142606
1821,4370;0,0143405
1822,4012;0,014407
1823,3655;0,0144361
1824,3297;0,0144214
1825,2939;0,0143735
1826,2582;0,0143049
1827,2224;0,0142157
1828,1866;0,0140979
1829,1509;0,013956
1830,1151;0,0138255
1831,0793;0,013758
1832,0436;0,0137808
1833,0078;0,0138736
1833,9720;0,0139863
1834,9363;0,0140728
1835,9005;0,0141169
1836,8647;0,0141391
1837,8290;0,0141794
1838,7932;0,0142635
1839,7574;0,0143819
1840,7217;0,0144952
1841,6859;0,0145563
1842,6501;0,0145323
1843,6144;0,014426
1844,5786;0,0142857
1845,5428;0,0141757
1846,5071;0,0141246
1847,4713;0,0141112
1848,4355;0,0140963
1849,3998;0,014058
1850,3640;0,0140021
1851,3282;0,0139517
1852,2925;0,0139269
1853,2567;0,0139306
1854,2209;0,0139509
1855,1852;0,0139734
1856,1494;0,0139917
1857,1136;0,0140082
1858,0779;0,0140265
1859,0421;0,0140452
1860,0063;0,0140609
1860,9706;0,0140769
1861,9348;0,0141078
1862,8990;0,0141717
1863,8633;0,0142755
1864,8275;0,0144042
1865,7917;0,0145188
1866,7560;0,0145671
1867,7202;0,0145107
1868,6844;0,0143633
1869,6487;0,0141953
1870,6129;0,0140807
1871,5771;0,014044
1872,5414;0,0140605
1873,5056;0,0140903
1874,4698;0,0141052
1875,4341;0,0140992
1876,3983;0,0140842
1877,3625;0,0140782
1878,3268;0,014093
1879,2910;0,014129
1880,2552;0,0141781
1881,2195;0,0142314
1882,1837;0,0142836
1883,1479;0,0143347
1884,1122;0,0143868
1885,0764;0,0144393
1886,0406;0,0144858
1887,0049;0,0145149
1887,9691;0,0145151
1888,9333;0,0144831
1889,8976;0,0144292
1890,8618;0,0143732
1891,8260;0,0143311
1892,7903;0,0143069
1893,7545;0,0142945
1894,7188;0,0142868
1895,6830;0,0142819
1896,6472;0,0142827
1897,6115;0,0142905
1898,5757;0,0142989
1899,5399;0,0142967
1900,5042;0,0142764
1901,4684;0,0142439
1902,4326;0,0142179
1903,3969;0,0142204
1904,3611;0,0142611
1905,3253;0,0143303
1906,2896;0,0144027
1907,2538;0,0144519
1908,2180;0,0144646
1909,1823;0,0144498
1910,1465;0,014433
1911,1107;0,0144394
1912,0750;0,0144771
1913,0392;0,0145314
1914,0034;0,0145724
1914,9677;0,01457
1915,9319;0,0145093
1916,8961;0,0144022
1917,8604;0,0142872
1918,8246;0,0142104
1919,7888;0,0141969
1920,7531;0,0142381
1921,7173;0,0143012
1922,6815;0,014351
1923,6458;0,0143698
1924,6100;0,0143638
1925,5742;0,0143534
1926,5385;0,0143552
1927,5027;0,0143692
1928,4669;0,0143802
1929,4312;0,0143687
1930,3954;0,0143243
1931,3596;0,0142554
1932,3239;0,0141885
1933,2881;0,0141571
1934,2523;0,0141861
1935,2166;0,0142795
1936,1808;0,014417
1937,1450;0,0145631
1938,1093;0,0146831
1939,0735;0,0147561
1940,0377;0,0147789
1941,0020;0,0147604
1941,9662;0,0147114
1942,9304;0,0146387
1943,8947;0,0145463
1944,8589;0,0144412
1945,8231;0,0143373
1946,7874;0,0142532
1947,7516;0,014205
1948,7158;0,0141987
1949,6801;0,0142267
1950,6443;0,0142715
1951,6085;0,014315
1952,5728;0,0143467
1953,5370;0,0143649
1954,5012;0,0143727
1955,4655;0,0143736
1956,4297;0,0143707
1957,3939;0,0143697
1958,3582;0,0143807
1959,3224;0,0144169
1960,2866;0,0144877
1961,2509;0,0145917
1962,2151;0,0147141
1963,1793;0,0148296
1964,1436;0,0149093
1965,1078;0,0149286
1966,0720;0,0148732
1967,0363;0,0147444
1968,0005;0,0145595
1968,9647;0,0143471
1969,9290;0,0141416
1970,8932;0,0139807
1971,8574;0,0139037
1972,8217;0,0139415
1973,7859;0,0140958
1974,7501;0,0143191
1975,7144;0,0145191
1976,6786;0,0146019
1977,6428;0,0145348
1978,6071;0,0143763
1979,5713;0,0142395
1980,5355;0,0142143
1981,4998;0,0143117
1982,4640;0,0144665
1983,4282;0,0145877
1984,3925;0,0146219
1985,3567;0,0145888
1986,3209;0,0145642
1987,2852;0,0146239
1988,2494;0,0147886
1989,2136;0,0150105
1990,1779;0,0152072
1991,1421;0,0153169
1992,1063;0,0153348
1993,0706;0,0153037
1994,0348;0,0152718
1994,9990;0,0152589
1995,9633;0,0152567
1996,9275;0,0152528
1997,8917;0,0152484
1998,8560;0,0152558
1999,8202;0,0152778
2000,7844;0,0152942
2001,7487;0,015271
2002,7129;0,0151893
2003,6771;0,01507
2004,6414;0,014971
2005,6056;0,0149547
2006,5698;0,0150458
2007,5341;0,0152116
2008,4983;0,0153839
2009,4625;0,0155041
2010,4268;0,0155549
2011,3910;0,0155574
2012,3552;0,0155445
2013,3195;0,0155371
2014,2837;0,0155377
2015,2479;0,0155387
2016,2122;0,0155362
2017,1764;0,015537
2018,1406;0,0155589
2019,1049;0,0156262
2020,0691;0,0157629
2021,0333;0,0159817
2021,9976;0,0162686
2022,9618;0,016571
2023,9260;0,0168028
2024,8903;0,0168751
2025,8545;0,0167416
2026,8187;0,0164296
2027,7830;0,0160353
2028,7472;0,0156835
2029,7114;0,0154755
2030,6757;0,0154553
2031,6399;0,0156055
2032,6041;0,0158656
2033,5684;0,0161566
2034,5326;0,0164019
2035,4968;0,0165471
2036,4611;0,0165755
2037,4253;0,0165158
2038,3895;0,0164279
2039,3538;0,0163706
2040,3180;0,0163665
2041,2822;0,0163876
2042,2465;0,0163783
2043,2107;0,016301
2044,1749;0,0161704
2045,1392;0,0160494
2046,1034;0,0160088
2047,0676;0,0160796
2048,0320;0,016235
2048,9961;0,0164127
2049,9604;0,0165565
2050,9246;0,0166397
2051,8889;0,0166577
2052,8530;0,0166114
2053,8174;0,0165012
2054,7815;0,0163382
2055,7458;0,0161572
2056,7100;0,0160135
2057,6743;0,0159586
2058,6384;0,0160113
2059,6028;0,0161477
2060,5669;0,0163175
2061,5313;0,016474
2062,4954;0,0165941
2063,4597;0,0166772
2064,4238;0,0167264
2065,3882;0,016735
2066,3523;0,0166901
2067,3167;0,0165914
2068,2808;0,0164642
2069,2451;0,0163544
2070,2092;0,0163054
2071,1736;0,016334
2072,1377;0,0164208
2073,1021;0,0165215
2074,0662;0,0165904
2075,0305;0,0166027
2075,9946;0,0165617
2076,9590;0,0164919
2077,9231;0,0164228
2078,8875;0,0163733
2079,8516;0,0163455
2080,8159;0,0163274
2081,7800;0,0163055
2082,7444;0,0162759
2083,7085;0,0162505
2084,6729;0,0162503
2085,6370;0,0162924
2086,6013;0,0163776
2087,5654;0,0164881
2088,5298;0,0165968
2089,4939;0,0166815
2090,4583;0,0167347
2091,4224;0,0167632
2092,3867;0,0167815
2093,3508;0,0168048
2094,3152;0,0168472
2095,2793;0,0169198
2096,2437;0,0170262
2097,2078;0,0171551
2098,1721;0,0172771
2099,1362;0,0173539
2100,1006;0,0173577
2101,0647;0,0172857
2102,0291;0,017164
2102,9932;0,0170309
2103,9575;0,0169157
2104,9216;0,0168278
2105,8860;0,0167632
2106,8501;0,0167214
2107,8145;0,016715
2108,7786;0,0167626
2109,7429;0,0168701
2110,7070;0,017017
2111,6714;0,0171598
2112,6355;0,0172527
2113,5999;0,0172708
2114,5640;0,0172194
2115,5283;0,0171267
2116,4924;0,0170273
2117,4568;0,0169491
2118,4209;0,0169094
2119,3853;0,0169162
2120,3494;0,0169691
2121,3137;0,017056
2122,2778;0,0171504
2123,2422;0,0172183
2124,2063;0,0172328
2125,1707;0,0171929
2126,1348;0,0171292
2127,0991;0,0170912
2128,0632;0,0171187
2129,0276;0,0172148
2129,9917;0,0173377
2130,9561;0,0174205
2131,9202;0,0174117
2132,8845;0,0173132
2133,8486;0,0171919
2134,8130;0,0171504
2135,7771;0,0172669
2136,7415;0,0175433
2137,7056;0,0178967
2138,6699;0,0182016
2139,6340;0,0183551
2140,5984;0,0183249
2141,5625;0,0181571
2142,5269;0,017945
2143,4910;0,0177827
2144,4553;0,0177294
2145,4194;0,0177977
2146,3838;0,0179626
2147,3479;0,0181762
2148,3123;0,0183807
2149,2764;0,0185214
2150,2407;0,0185652
2151,2048;0,0185213
2152,1692;0,0184493
2153,1333;0,0184393
2154,0977;0,0185646
2155,0618;0,0188285
2156,0261;0,0191375
2156,9902;0,0193303
2157,9546;0,019271
2158,9187;0,0189556
2159,8831;0,0185326
2160,8472;0,0182003
2161,8115;0,0180763
2162,7756;0,0181494
2163,7400;0,0183205
2164,7041;0,0184724
2165,6685;0,0185262
2166,6326;0,0184654
2167,5969;0,018328
2168,5610;0,0181812
2169,5254;0,0180929
2170,4895;0,0181097
2171,4539;0,0182402
2172,4180;0,0184483
2173,3823;0,0186609
2174,3464;0,0187945
2175,3108;0,0187931
2176,2749;0,0186556
2177,2393;0,0184342
2178,2034;0,0182054
2179,1677;0,0180332
2180,1318;0,0179496
2181,0962;0,0179572
2182,0603;0,0180436
2183,0247;0,018191
2183,9888;0,0183704
2184,9531;0,0185327
2185,9172;0,0186136
2186,8816;0,0185601
2187,8457;0,0183635
2188,8101;0,0180757
2189,7742;0,0177873
2190,7385;0,0175812
2191,7026;0,0174885
2192,6670;0,0174809
2193,6311;0,0175017
2194,5955;0,0175121
2195,5596;0,0175169
2196,5239;0,0175492
2197,4880;0,0176314
2198,4524;0,0177454
2199,4165;0,0178384
2200,3809;0,0178616
2201,3450;0,0178077
2202,3093;0,0177165
2203,2734;0,0176434
2204,2378;0,0176162
2205,2019;0,0176172
2206,1663;0,0176029
2207,1304;0,0175447
2208,0947;0,017456
2209,0588;0,0173844
2210,0232;0,0173768
2210,9873;0,0174462
2211,9517;0,0175646
2212,9158;0,0176831
2213,8801;0,0177623
2214,8442;0,0177885
2215,8086;0,0177707
2216,7727;0,0177269
2217,7371;0,0176749
2218,7012;0,0176331
2219,6655;0,0176224
2220,6296;0,0176604
2221,5940;0,0177482
2222,5581;0,0178594
2223,5225;0,0179441
2224,4866;0,0179505
2225,4509;0,0178532
2226,4150;0,0176705
2227,3794;0,017459
2228,3435;0,0172904
2229,3079;0,0172195
2230,2720;0,0172598
2231,2363;0,0173796
2232,2004;0,017517
2233,1648;0,0176079
2234,1289;0,0176139
2235,0933;0,0175395
2236,0574;0,0174296
2237,0217;0,0173487
2237,9858;0,0173488
2238,9502;0,017444
2239,9143;0,0176027
2240,8787;0,0177645
2241,8428;0,0178725
2242,8071;0,0179011
2243,7712;0,017865
2244,7356;0,0178033
2245,6997;0,0177518
2246,6641;0,0177238
2247,6282;0,0177108
2248,5925;0,0177024
2249,5566;0,0177046
2250,5210;0,0177408
2251,4851;0,0178316
2252,4495;0,0179691
2253,4136;0,0181081
2254,3779;0,0181856
2255,3420;0,0181579
2256,3064;0,0180301
2257,2705;0,0178555
2258,2349;0,0177045
2259,1990;0,0176268
2260,1633;0,017629
2261,1274;0,017682
2262,0918;0,0177461
2263,0559;0,0177967
2264,0203;0,017833
2264,9844;0,0178669
2265,9487;0,017906
2266,9128;0,0179425
2267,8772;0,0179565
2268,8413;0,0179299
2269,8057;0,0178588
2270,7698;0,0177588
2271,7341;0,0176588
2272,6982;0,017588
2273,6626;0,0175639
2274,6267;0,0175848
2275,5911;0,0176325
2276,5552;0,0176813
2277,5195;0,0177108
2278,4836;0,0177142
2279,4480;0,0176996
2280,4121;0,0176846
2281,3765;0,017688
2282,3406;0,0177233
2283,3049;0,0177965
2284,2690;0,0179055
2285,2334;0,0180415
2286,1975;0,0181913
2287,1619;0,0183419
2288,1260;0,0184865
2289,0903;0,0186284
2290,0544;0,0187789
2291,0188;0,0189491
2291,9829;0,0191392
2292,9473;0,0193342
2293,9114;0,0195093
2294,8757;0,0196425
2295,8398;0,0197262
2296,8042;0,0197686
2297,7683;0,0197851
2298,7327;0,0197852
2299,6968;0,0197663
2300,6611;0,0197195
2301,6252;0,0196444
2302,5896;0,0195606
2303,5537;0,0195077
2304,5181;0,0195282
2305,4822;0,0196417
2306,4465;0,0198234
2307,4106;0,0200021
2308,3750;0,0200841
2309,3391;0,019996
2310,3035;0,0197244
2311,2676;0,0193281
2312,2319;0,0189109
2313,1960;0,0185695
2314,1604;0,0183462
2315,1245;0,0182184
2316,0889;0,0181259
2317,0530;0,0180158
2318,0173;0,0178773
2318,9814;0,0177486
2319,9458;0,0176951
2320,9099;0,0177713
2321,8743;0,0179909
2322,8384;0,0183171
2323,8027;0,0186738
2324,7668;0,0189665
2325,7312;0,0191101
2326,6953;0,0190584
2327,6597;0,0188259
2328,6238;0,0184921
2329,5881;0,01818
2330,5522;0,0180122
2331,5166;0,0180554
2332,4807;0,0182843
2333,4451;0,0185924
2334,4092;0,0188485
2335,3735;0,0189665
2336,3376;0,01895
2337,3020;0,0188898
2338,2661;0,0189095
2339,2305;0,0190819
2340,1946;0,0193574
2341,1589;0,0195503
2342,1230;0,0194233
2343,0874;0,0189001
2344,0515;0,0182838
2345,0159;0,0181239
2345,9800;0,0187133
2346,9443;0,0198213
2347,9084;0,0209236
2348,8728;0,0215645
2349,8369;0,0215612
2350,8013;0,021035
2351,7654;0,0203185
2352,7297;0,0197711
2353,6938;0,0195866
2354,6582;0,0197438
2355,6223;0,0201276
2356,5867;0,0206312
2357,5508;0,0211399
2358,5151;0,0215022
2359,4792;0,0215837
2360,4436;0,0213448
2361,4077;0,0208406
2362,3721;0,0201516
2363,3362;0,0193417
2364,3005;0,0184744
2365,2646;0,0176312
2366,2290;0,0168918
2367,1931;0,0162961
2368,1575;0,0158332
2369,1216;0,0154645
2370,0859;0,0151553
2371,0500;0,0148923
2372,0144;0,0146857
2372,9785;0,0145634
2373,9429;0,0145634
2374,9070;0,0147207
2375,8713;0,015052
2376,8354;0,0155425
2377,7998;0,016144
2378,7639;0,0167845
2379,7283;0,0173862
2380,6924;0,0178836
2381,6567;0,018237
2382,6208;0,0184365
2383,5852;0,0185003
2384,5493;0,0184656
2385,5137;0,0183775
2386,4778;0,0182775
2387,4421;0,0181945
2388,4063;0,018141
2389,3706;0,018115
2390,3347;0,018106
2391,2991;0,0181021
2392,2632;0,0180956
2393,2275;0,0180849
2394,1917;0,0180735
2395,1560;0,0180671
2396,1201;0,0180713
2397,0845;0,0180896
2398,0486;0,0181241
2399,0129;0,018172
2399,9771;0,0182265
2400,9414;0,0182785
2401,9055;0,0183172
2402,8699;0,0183354
2403,8340;0,0183324
2404,7983;0,0183147
2405,7625;0,0182947
2406,7268;0,0182845
2407,6909;0,0182919
2408,6553;0,0183174
2409,6194;0,0183544
2410,5837;0,0183941
2411,5479;0,0184293
2412,5122;0,018457
2413,4763;0,0184776
2414,4407;0,0184927
2415,4048;0,0185034
2416,3691;0,0185099
2417,3333;0,018513
2418,2976;0,0185153
2419,2617;0,0185211
2420,2261;0,0185349
2421,1902;0,0185579
2422,1545;0,0185883
2423,1187;0,0186219
2424,0830;0,0186542
2425,0471;0,0186827
2426,0115;0,0187077
2426,9756;0,0187322
2427,9399;0,018761
2428,9041;0,0187988
2429,8684;0,0188476
2430,8325;0,018904
2431,7969;0,0189584
2432,7610;0,0189979
2433,7253;0,0190122
2434,6895;0,0190003
2435,6538;0,0189727
2436,6179;0,0189478
2437,5823;0,0189423
2438,5464;0,0189627
2439,5107;0,0190025
2440,4749;0,0190473
2441,4392;0,0190848
2442,4033;0,0191122
2443,3677;0,0191371
2444,3318;0,0191705
2445,2961;0,0192175
2446,2603;0,0192724
2447,2246;0,0193211
2448,1887;0,019349
2449,1531;0,0193498
2450,1172;0,0193289
2451,0815;0,0193006
2452,0457;0,0192811
2453,0100;0,0192811
2453,9741;0,0193029
2454,9385;0,0193414
2455,9026;0,0193881
2456,8669;0,0194343
2457,8311;0,0194734
2458,7954;0,0195015
2459,7595;0,0195177
2460,7239;0,019525
2461,6880;0,01953
2462,6523;0,0195416
2463,6165;0,0195668
2464,5808;0,019607
2465,5449;0,0196566
2466,5093;0,0197047
2467,4734;0,0197404
2468,4377;0,0197579
2469,4019;0,0197584
2470,3662;0,0197488
2471,3303;0,019737
2472,2947;0,019729
2473,2588;0,0197276
2474,2231;0,0197338
2475,1873;0,0197478
2476,1516;0,0197699
2477,1157;0,0197991
2478,0801;0,0198329
2479,0442;0,0198665
2480,0085;0,0198952
2480,9727;0,0199161
2481,9370;0,0199296
2482,9011;0,0199396
2483,8655;0,0199519
2484,8296;0,0199719
2485,7939;0,0200016
2486,7581;0,0200382
2487,7224;0,0200749
2488,6865;0,0201045
2489,6509;0,0201228
2490,6150;0,0201313
2491,5793;0,0201357
2492,5435;0,0201419
2493,5078;0,0201518
2494,4719;0,0201629
2495,4363;0,0201712
2496,4004;0,0201753
2497,3647;0,0201784
2498,3289;0,0201857
2499,2932;0,0202006
2500,2573;0,0202224
2501,2217;0,0202476
2502,1858;0,0202741
2503,1501;0,0203035
2504,1143;0,0203395
2505,0786;0,0203835
2506,0427;0,0204301
2507,0071;0,0204689
2507,9712;0,0204895
2508,9355;0,0204882
2509,8997;0,0204707
2510,8640;0,0204499
2511,8281;0,0204389
2512,7925;0,0204459
2513,7566;0,0204706
2514,7209;0,0205055
2515,6851;0,0205389
2516,6494;0,0205591
2517,6135;0,0205587
2518,5779;0,0205377
2519,5420;0,0205049
2520,5063;0,0204744
2521,4705;0,0204599
2522,4348;0,0204677
2523,3989;0,0204935
2524,3633;0,0205266
2525,3274;0,0205563
2526,2917;0,0205783
2527,2559;0,0205956
2528,2202;0,020613
2529,1843;0,0206325
2530,1487;0,020651
2531,1128;0,020664
2532,0771;0,0206703
2533,0413;0,0206743
2534,0056;0,0206826
2534,9697;0,0206989
2535,9341;0,0207213
2536,8982;0,0207442
2537,8625;0,0207627
2538,8267;0,020776
2539,7910;0,020787
2540,7551;0,0207987
2541,7195;0,0208114
2542,6836;0,0208234
2543,6479;0,0208329
2544,6121;0,0208405
2545,5764;0,0208487
2546,5405;0,0208593
2547,5049;0,0208717
2548,4690;0,0208837
2549,4333;0,0208936
2550,3975;0,020902
2551,3618;0,0209119
2552,3259;0,0209259
2553,2903;0,0209438
2554,2544;0,0209618
2555,2188;0,0209746
2556,1829;0,0209787
2557,1472;0,0209756
2558,1113;0,0209719
2559,0757;0,0209771
2560,0398;0,0209983
2561,0042;0,0210353
2561,9683;0,021079
2562,9326;0,0211144
2563,8967;0,0211281
2564,8611;0,0211155
2565,8252;0,021084
2566,7896;0,0210489
2567,7537;0,021025
2568,7180;0,0210191
2569,6821;0,0210279
2570,6465;0,0210412
2571,6106;0,0210499
2572,5750;0,0210503
2573,5391;0,0210449
2574,5034;0,0210394
2575,4675;0,0210385
2576,4319;0,0210442
2577,3960;0,0210563
2578,3604;0,0210732
2579,3245;0,0210924
2580,2888;0,0211111
2581,2529;0,0211271
2582,2173;0,0211407
2583,1814;0,021156
2584,1458;0,0211799
2585,1099;0,0212185
2586,0742;0,021272
2587,0383;0,0213323
2588,0027;0,0213845
2588,9668;0,0214137
2589,9312;0,0214117
2590,8953;0,0213823
2591,8596;0,0213404
2592,8237;0,0213064
2593,7881;0,0212971
2594,7522;0,021319
2595,7166;0,0213664
2596,6807;0,0214251
2597,6450;0,0214798
2598,6091;0,0215202
2599,5735;0,0215442
2600,5376;0,0215557
2601,5020;0,0215613
2602,4661;0,0215667
2603,4304;0,0215761
2604,3945;0,0215926
2605,3589;0,0216175
2606,3230;0,02165
2607,2874;0,0216855
2608,2515;0,0217171
2609,2158;0,0217387
2610,1799;0,0217485
2611,1443;0,0217509
2612,1084;0,021754
2613,0728;0,0217655
2614,0369;0,0217886
2615,0012;0,0218214
2615,9653;0,0218594
2616,9297;0,0218981
2617,8938;0,0219346
2618,8582;0,0219676
2619,8223;0,0219959
2620,7866;0,0220185
2621,7507;0,0220351
2622,7151;0,0220467
2623,6792;0,0220558
2624,6436;0,0220656
2625,6077;0,0220793
2626,5720;0,0220995
2627,5361;0,0221284
2628,5005;0,0221662
2629,4646;0,0222101
2630,4290;0,0222542
2631,3931;0,0222909
2632,3574;0,0223147
2633,3215;0,0223256
2634,2859;0,0223295
2635,2500;0,0223351
2636,2144;0,0223499
2637,1785;0,0223766
2638,1428;0,0224126
2639,1069;0,0224527
2640,0713;0,0224915
2641,0354;0,0225262
2641,9998;0,0225561
2642,9639;0,0225823
2643,9282;0,0226061
2644,8923;0,0226288
2645,8567;0,0226515
2646,8208;0,0226746
2647,7852;0,0226978
2648,7493;0,0227207
2649,7136;0,0227429
2650,6777;0,0227648
2651,6421;0,0227867
2652,6062;0,0228088
2653,5706;0,0228306
2654,5347;0,0228511
2655,4990;0,0228702
2656,4631;0,0228896
2657,4275;0,0229121
2658,3916;0,0229408
2659,3560;0,0229768
2660,3201;0,0230182
2661,2844;0,0230603
2662,2485;0,0230978
2663,2129;0,0231272
2664,1770;0,0231489
2665,1414;0,0231669
2666,1055;0,0231863
2667,0698;0,0232107
2668,0339;0,0232396
2668,9983;0,0232689
2669,9624;0,0232941
2670,9268;0,0233132
2671,8909;0,0233291
2672,8552;0,0233471
2673,8193;0,0233722
2674,7837;0,0234047
2675,7478;0,0234404
2676,7122;0,0234733
2677,6763;0,0234996
2678,6406;0,0235209
2679,6047;0,0235433
2680,5691;0,0235729
2681,5332;0,0236123
2682,4976;0,0236587
2683,4617;0,0237053
2684,4260;0,0237459
2685,3901;0,023778
2686,3545;0,0238034
2687,3186;0,0238268
2688,2830;0,023852
2689,2471;0,0238803
2690,2114;0,0239101
2691,1755;0,0239389
2692,1399;0,0239653
2693,1040;0,0239902
2694,0684;0,0240161
2695,0325;0,0240453
2695,9968;0,0240786
2696,9609;0,0241152
2697,9253;0,0241525
2698,8894;0,0241879
2699,8538;0,0242199
2700,8179;0,0242483
2701,7822;0,0242748
2702,7463;0,0243027
2703,7107;0,0243359
2704,6748;0,0243769
2705,6392;0,0244256
2706,6033;0,0244786
2707,5676;0,0245305
2708,5317;0,0245761
2709,4961;0,0246132
2710,4602;0,024643
2711,4246;0,0246691
2712,3887;0,0246958
2713,3530;0,0247256
2714,3171;0,0247588
2715,2815;0,0247947
2716,2456;0,0248324
2717,2100;0,0248711
2718,1741;0,0249102
2719,1384;0,0249479
2720,1025;0,0249813
2721,0669;0,0250076
2722,0310;0,0250258
2722,9954;0,0250386
2723,9595;0,0250517
2724,9238;0,0250726
2725,8879;0,0251068
2726,8523;0,0251556
2727,8164;0,0252151
2728,7808;0,0252775
2729,7449;0,0253352
2730,7092;0,0253833
2731,6733;0,0254213
2732,6377;0,0254522
2733,6018;0,0254798
2734,5662;0,0255067
2735,5303;0,0255335
2736,4946;0,0255599
2737,4587;0,0255858
2738,4231;0,0256126
2739,3872;0,0256418
2740,3516;0,0256736
2741,3157;0,0257062
2742,2800;0,0257356
2743,2441;0,0257582
2744,2085;0,0257725
2745,1726;0,025781
2746,1370;0,025789
2747,1011;0,0258032
2748,0654;0,0258282
2749,0295;0,0258654
2749,9939;0,0259124
2750,9580;0,0259642
2751,9224;0,0260157
2752,8865;0,0260634
2753,8508;0,0261056
2754,8149;0,0261422
2755,7793;0,0261738
2756,7434;0,0262018
2757,7078;0,0262283
2758,6719;0,0262565
2759,6362;0,0262896
2760,6003;0,0263297
2761,5647;0,0263758
2762,5288;0,0264249
2763,4932;0,0264725
2764,4573;0,026516
2765,4216;0,0265562
2766,3857;0,0265968
2767,3501;0,0266425
2768,3142;0,0266961
2769,2786;0,0267569
2770,2427;0,0268203
2771,2070;0,0268799
2772,1711;0,0269302
2773,1355;0,026969
2774,0996;0,0269985
2775,0640;0,0270246
2776,0281;0,0270549
2776,9924;0,0270952
2777,9565;0,0271477
2778,9209;0,0272105
2779,8850;0,0272793
2780,8494;0,02735
2781,8135;0,0274207
2782,7778;0,0274912
2783,7419;0,0275611
2784,7063;0,0276289
2785,6704;0,0276913
2786,6348;0,0277462
2787,5989;0,0277948
2788,5632;0,0278423
2789,5273;0,0278962
2790,4917;0,0279629
2791,4558;0,0280442
2792,4202;0,028136
2793,3843;0,0282307
2794,3486;0,0283208
2795,3127;0,0284032
2796,2771;0,0284805
2797,2412;0,0285597
2798,2056;0,0286479
2799,1697;0,0287478
2800,1340;0,0288557
2801,0981;0,0289636
2802,0625;0,0290641
2803,0266;0,0291544
2803,9910;0,0292381
2804,9551;0,0293216
2805,9194;0,0294094
2806,8835;0,0295019
2807,8479;0,0295964
2808,8120;0,0296915
2809,7764;0,0297903
2810,7405;0,0298994
2811,7048;0,0300252
2812,6689;0,0301681
2813,6333;0,0303222
2814,5974;0,0304771
2815,5618;0,0306242
2816,5259;0,0307604
2817,4902;0,0308888
2818,4543;0,0310169
2819,4187;0,0311519
2820,3828;0,0312983
2821,3472;0,0314564
2822,3113;0,0316232
2823,2756;0,031794
2824,2397;0,0319659
2825,2041;0,0321395
2826,1682;0,0323195
2827,1326;0,0325139
2828,0967;0,0327295
2829,0610;0,0329693
2830,0251;0,0332307
2830,9895;0,0335067
2831,9536;0,0337891
2832,9180;0,0340719
2833,8821;0,0343539
2834,8464;0,0346404
2835,8105;0,0349429
2836,7749;0,0352778
2837,7390;0,0356627
2838,7034;0,0361124
2839,6675;0,0366362
2840,6318;0,0372379
2841,5959;0,0379198
2842,5603;0,0386842
2843,5244;0,0395308
2844,4888;0,0404473
2845,4529;0,0413979
2846,4172;0,042318
2847,3813;0,0431221
2848,3457;0,0437252
2849,3098;0,0440697
2850,2742;0,0441444
2851,2383;0,0439862
2852,2026;0,0436651
2853,1667;0,0432598
2854,1311;0,0428367
2855,0952;0,0424388
2856,0596;0,042087
2857,0237;0,0417882
2857,9880;0,041544
2858,9521;0,0413558
2859,9165;0,0412253
2860,8806;0,041152
2861,8450;0,0411321
2862,8091;0,0411584
2863,7734;0,041223
2864,7375;0,0413191
2865,7019;0,0414416
2866,6660;0,0415853
2867,6304;0,0417425
2868,5945;0,0419022
2869,5588;0,0420519
2870,5229;0,042181
2871,4873;0,0422846
2872,4514;0,0423637
2873,4158;0,0424245
2874,3799;0,0424745
2875,3442;0,0425198
2876,3083;0,0425648
2877,2727;0,0426124
2878,2368;0,0426659
2879,2012;0,0427292
2880,1653;0,0428074
2881,1296;0,0429047
2882,0938;0,0430233
2883,0581;0,0431618
2884,0222;0,0433155
2884,9866;0,043477
2885,9507;0,0436392
2886,9150;0,0437974
2887,8792;0,0439506
2888,8435;0,0441006
2889,8076;0,04425
2890,7720;0,0444004
2891,7361;0,0445521
2892,7004;0,0447055
2893,6646;0,0448633
2894,6289;0,0450302
2895,5930;0,0452108
2896,5574;0,0454067
2897,5215;0,0456137
2898,4858;0,0458226
2899,4500;0,0460225
2900,4143;0,0462057
2901,3784;0,0463718
2902,3428;0,0465285
2903,3069;0,0466898
2904,2712;0,0468723
2905,2354;0,047092
2906,1997;0,0473625
2907,1638;0,047696
2908,1282;0,0481044
2909,0923;0,0485984
2910,0566;0,0491832
2911,0208;0,0498516
2911,9851;0,0505772
2912,9492;0,0513128
2913,9136;0,0519963
2914,8777;0,0525624
2915,8420;0,0529581
2916,8062;0,053154
2917,7705;0,0531486
2918,7346;0,052964
2919,6990;0,0526362
2920,6631;0,052204
2921,6274;0,0517015
2922,5916;0,0511546
2923,5559;0,0505822
2924,5200;0,0499989
2925,4844;0,0494174
2926,4485;0,0488499
2927,4128;0,048307
2928,3770;0,0477963
2929,3413;0,0473203
2930,3054;0,0468755
2931,2698;0,0464534
2932,2339;0,0460426
2933,1982;0,0456336
2934,1624;0,045222
2935,1267;0,0448104
2936,0908;0,0444069
2937,0552;0,0440205
2938,0193;0,0436562
2938,9836;0,0433125
2939,9478;0,0429816
2940,9121;0,042654
2941,8762;0,0423239
2942,8406;0,0419913
2943,8047;0,0416628
2944,7690;0,0413474
2945,7332;0,0410537
2946,6975;0,0407873
2947,6616;0,0405507
2948,6260;0,0403441
2949,5901;0,040166
2950,5544;0,0400128
2951,5186;0,0398781
2952,4829;0,039753
2953,4470;0,039627
2954,4114;0,03949
2955,3755;0,0393344
2956,3398;0,0391565
2957,3040;0,0389565
2958,2683;0,0387384
2959,2324;0,0385089
2960,1968;0,0382753
2961,1609;0,0380432
2962,1252;0,0378139
2963,0894;0,0375854
2964,0537;0,0373534
2965,0178;0,0371156
2965,9822;0,0368739
2966,9463;0,0366338
2967,9106;0,0364014
2968,8748;0,0361787
2969,8391;0,0359617
2970,8032;0,0357424
2971,7676;0,0355142
2972,7317;0,0352769
2973,6960;0,0350392
2974,6602;0,0348145
2975,6245;0,0346149
2976,5886;0,0344439
2977,5530;0,0342954
2978,5171;0,0341569
2979,4814;0,0340174
2980,4456;0,033873
2981,4099;0,0337286
2982,3740;0,0335935
2983,3384;0,0334751
2984,3025;0,0333748
2985,2668;0,0332875
2986,2310;0,0332063
2987,1953;0,0331269
2988,1594;0,0330499
2989,1238;0,0329802
2990,0879;0,0329225
2991,0522;0,0328787
2992,0164;0,0328468
2992,9807;0,0328227
2993,9448;0,0328029
2994,9092;0,0327869
2995,8733;0,0327768
2996,8376;0,0327765
2997,8018;0,0327893
2998,7661;0,0328167
2999,7302;0,0328575
3000,6946;0,0329085
3001,6587;0,0329648
3002,6230;0,0330218
3003,5872;0,0330754
3004,5515;0,0331234
3005,5156;0,0331653
3006,4800;0,0332019
3007,4441;0,0332349
3008,4084;0,0332663
3009,3726;0,0332989
3010,3369;0,0333357
3011,3010;0,0333799
3012,2654;0,0334334
3013,2295;0,0334956
3014,1938;0,0335634
3015,1580;0,033633
3016,1223;0,0337024
3017,0864;0,0337734
3018,0508;0,0338514
3019,0149;0,0339418
3019,9792;0,0340467
3020,9434;0,0341623
3021,9077;0,0342806
3022,8718;0,0343935
3023,8362;0,0344977
3024,8003;0,0345965
3025,7646;0,034697
3026,7288;0,0348051
3027,6931;0,0349213
3028,6572;0,0350397
3029,6216;0,0351517
3030,5857;0,0352507
3031,5500;0,0353358
3032,5142;0,0354126
3033,4785;0,0354897
3034,4426;0,0355757
3035,4070;0,0356755
3036,3711;0,0357895
3037,3354;0,0359138
3038,2996;0,0360412
3039,2639;0,0361641
3040,2280;0,0362774
3041,1924;0,0363814
3042,1565;0,0364826
3043,1208;0,0365906
3044,0850;0,0367129
3045,0493;0,0368504
3046,0134;0,0369967
3046,9778;0,0371419
3047,9419;0,0372786
3048,9063;0,0374063
3049,8704;0,0375305
3050,8347;0,0376581
3051,7988;0,0377931
3052,7632;0,0379348
3053,7273;0,0380796
3054,6917;0,0382247
3055,6558;0,0383696
3056,6201;0,0385147
3057,5842;0,0386597
3058,5486;0,0388021
3059,5127;0,0389389
3060,4771;0,0390683
3061,4412;0,0391906
3062,4055;0,0393073
3063,3696;0,0394191
3064,3340;0,0395264
3065,2981;0,0396296
3066,2625;0,0397313
3067,2266;0,0398355
3068,1909;0,0399459
3069,1550;0,0400641
3070,1194;0,0401889
3071,0835;0,040318
3072,0479;0,0404496
3073,0120;0,0405832
3073,9763;0,0407173
3074,9404;0,0408483
3075,9048;0,0409703
3076,8689;0,0410782
3077,8333;0,0411719
3078,7974;0,0412575
3079,7617;0,0413453
3080,7258;0,0414448
3081,6902;0,0415591
3082,6543;0,0416838
3083,6187;0,0418094
3084,5828;0,0419269
3085,5471;0,0420327
3086,5112;0,042131
3087,4756;0,0422318
3088,4397;0,0423461
3089,4041;0,0424799
3090,3682;0,0426311
3091,3325;0,0427896
3092,2966;0,0429427
3093,2610;0,0430807
3094,2251;0,0432012
3095,1895;0,0433086
3096,1536;0,0434099
3097,1179;0,0435093
3098,0820;0,0436072
3099,0464;0,043702
3100,0105;0,0437952
3100,9749;0,0438927
3101,9390;0,0440027
3102,9033;0,0441305
3103,8674;0,0442742
3104,8318;0,0444257
3105,7959;0,0445759
3106,7603;0,0447201
3107,7244;0,0448608
3108,6887;0,0450041
3109,6528;0,0451544
3110,6172;0,0453101
3111,5813;0,0454635
3112,5457;0,0456068
3113,5098;0,0457373
3114,4741;0,0458608
3115,4382;0,0459884
3116,4026;0,0461306
3117,3667;0,0462904
3118,3311;0,046462
3119,2952;0,0466336
3120,2595;0,0467943
3121,2236;0,0469398
3122,1880;0,0470745
3123,1521;0,0472091
3124,1165;0,0473557
3125,0806;0,0475218
3126,0449;0,0477076
3127,0090;0,0479056
3127,9734;0,0481039
3128,9375;0,0482907
3129,9019;0,048459
3130,8660;0,0486094
3131,8303;0,0487501
3132,7944;0,0488929
3133,7588;0,0490479
3134,7229;0,0492184
3135,6873;0,0494003
3136,6514;0,0495854
3137,6157;0,0497662
3138,5798;0,0499404
3139,5442;0,050111
3140,5083;0,0502831
3141,4727;0,0504604
3142,4368;0,0506433
3143,4011;0,0508299
3144,3652;0,0510187
3145,3296;0,0512091
3146,2937;0,0514007
3147,2581;0,0515912
3148,2222;0,0517769
3149,1865;0,0519548
3150,1506;0,052126
3151,1150;0,0522966
3152,0791;0,052475
3153,0435;0,0526665
3154,0076;0,0528698
3154,9719;0,053078
3155,9360;0,0532826
3156,9004;0,0534792
3157,8645;0,0536691
3158,8289;0,0538572
3159,7930;0,0540484
3160,7573;0,0542448
3161,7214;0,0544458
3162,6858;0,0546499
3163,6499;0,0548562
3164,6143;0,0550636
3165,5784;0,0552696
3166,5427;0,05547
3167,5068;0,0556613
3168,4712;0,0558437
3169,4353;0,0559729
3170,3997;0,0561596
3171,3638;0,056363
3172,3281;0,0565855
3173,2922;0,0568207
3174,2566;0,0570554
3175,2207;0,0572757
3176,1851;0,0574738
3177,1492;0,0576522
3178,1135;0,0578231
3179,0776;0,0580012
3180,0420;0,058196
3181,0061;0,058406
3181,9705;0,0586205
3182,9346;0,0588263
3183,8989;0,0590153
3184,8630;0,0591902
3185,8274;0,0593619
3186,7915;0,0595431
3187,7559;0,0597401
3188,7200;0,0599501
3189,6843;0,0601638
3190,6484;0,0603714
3191,6128;0,0605681
3192,5769;0,060755
3193,5413;0,0609371
3194,5054;0,0611194
3195,4697;0,0613043
3196,4338;0,061491
3197,3982;0,0616767
3198,3623;0,0618585
3199,3267;0,0620347
3200,2908;0,062206
3201,2551;0,0623758
3202,2192;0,0625488
3203,1836;0,0627284
3204,1477;0,0629146
3205,1121;0,0631032
3206,0762;0,063288
3207,0405;0,063465
3208,0046;0,063635
3208,9690;0,0638032
3209,9331;0,0639764
3210,8975;0,0641577
3211,8616;0,0643453
3212,8259;0,0645331
3213,7900;0,0647154
3214,7544;0,0648892
3215,7185;0,0650552
3216,6829;0,0652153
3217,6470;0,065371
3218,6113;0,0655226
3219,5754;0,0656711
3220,5398;0,0658195
3221,5039;0,065973
3222,4683;0,0661371
3223,4324;0,0663146
3224,3967;0,0665046
3225,3608;0,0667031
3226,3252;0,0669055
3227,2893;0,0671077
3228,2537;0,0673066
3229,2178;0,0674992
3230,1821;0,0676823
3231,1462;0,0678534
3232,1106;0,0680124
3233,0747;0,0681626
3234,0391;0,0683107
3235,0032;0,0684639
3235,9675;0,0686275
3236,9316;0,0688032
3237,8960;0,0689887
3238,8601;0,0691803
3239,8245;0,0693745
3240,7886;0,0695693
3241,7529;0,0697648
3242,7170;0,069962
3243,6814;0,0701614
3244,6455;0,0703624
3245,6099;0,0705635
3246,5740;0,0707637
3247,5383;0,0709635
3248,5024;0,0711654
3249,4668;0,0713726
3250,4309;0,0715875
3251,3953;0,0718103
3252,3594;0,0720386
3253,3237;0,0722683
3254,2878;0,0724956
3255,2522;0,0727183
3256,2163;0,0729363
3257,1807;0,0731514
3258,1448;0,0733662
3259,1091;0,0735821
3260,0732;0,0737991
3261,0376;0,0740153
3262,0017;0,0742282
3262,9661;0,0744355
3263,9302;0,0746372
3264,8945;0,0748347
3265,8586;0,0750295
3266,8230;0,0752208
3267,7871;0,0754049
3268,7515;0,075576
3269,7156;0,0757286
3270,6799;0,0758602
3271,6440;0,0759722
3272,6084;0,0760691
3273,5725;0,0761568
3274,5369;0,0762407
3275,5010;0,0763252
3276,4653;0,0764122
3277,4294;0,0765011
3278,3938;0,076588
3279,3579;0,0766666
3280,3223;0,0767312
3281,2864;0,0767788
3282,2507;0,0768113
3283,2148;0,0768344
3284,1792;0,0768543
3285,1433;0,0768744
3286,1077;0,076893
3287,0718;0,0769053
3288,0361;0,0769062
3289,0002;0,0768938
3289,9646;0,0768713
3290,9287;0,0768456
3291,8931;0,076824
3292,8572;0,0768106
3293,8215;0,0768036
3294,7856;0,0767967
3295,7500;0,0767824
3296,7141;0,0767569
3297,6785;0,0767222
3298,6426;0,076685
3299,6069;0,0766521
3300,5710;0,0766254
3301,5354;0,0766003
3302,4995;0,0765676
3303,4639;0,0765188
3304,4280;0,0764511
3305,3923;0,0763698
3306,3564;0,0762856
3307,3208;0,0762101
3308,2849;0,0761515
3309,2493;0,0761114
3310,2134;0,0760858
3311,1777;0,0760685
3312,1418;0,0760547
3313,1062;0,0760441
3314,0703;0,0760407
3315,0347;0,0760494
3315,9988;0,0760727
3316,9631;0,0761071
3317,9272;0,0761445
3318,8916;0,0761765
3319,8557;0,0761996
3320,8201;0,0762172
3321,7842;0,0762378
3322,7485;0,076269
3323,7126;0,0763131
3324,6770;0,0763658
3325,6411;0,0764204
3326,6055;0,0764722
3327,5696;0,0765218
3328,5339;0,076573
3329,4980;0,0766281
3330,4624;0,0766838
3331,4265;0,0767305
3332,3909;0,0767557
3333,3550;0,0767495
3334,3193;0,0767093
3335,2834;0,0766407
3336,2478;0,0765543
3337,2119;0,0764604
3338,1763;0,0763636
3339,1404;0,0762608
3340,1047;0,0761446
3341,0688;0,0760086
3342,0332;0,0758519
3342,9973;0,0756808
3343,9617;0,0755051
3344,9258;0,0753329
3345,8901;0,075166
3346,8542;0,0750009
3347,8186;0,0748316
3348,7827;0,0746544
3349,7471;0,074469
3350,7112;0,0742775
3351,6755;0,0740813
3352,6396;0,0738802
3353,6040;0,0736733
3354,5681;0,0734622
3355,5325;0,0732522
3356,4966;0,0730516
3357,4609;0,072868
3358,4250;0,0727046
3359,3894;0,0725585
3360,3535;0,0724213
3361,3179;0,0722815
3362,2820;0,0721281
3363,2463;0,0719544
3364,2104;0,0717604
3365,1748;0,071553
3366,1389;0,0713439
3367,1033;0,0711442
3368,0674;0,0709592
3369,0317;0,0707866
3369,9958;0,0706183
3370,9602;0,0704454
3371,9243;0,0702638
3372,8887;0,0700759
3373,8528;0,0698888
3374,8171;0,0697095
3375,7813;0,0695418
3376,7456;0,0693843
3377,7097;0,0692324
3378,6741;0,06908
3379,6382;0,0689209
3380,6025;0,06875
3381,5667;0,068564
3382,5310;0,0683642
3383,4951;0,0681584
3384,4595;0,0679613
3385,4236;0,067789
3386,3879;0,0676516
3387,3521;0,0675465
3388,3164;0,0674582
3389,2805;0,0673647
3390,2449;0,0672466
3391,2090;0,0670951
3392,1733;0,0669145
3393,1375;0,0667177
3394,1018;0,0665192
3395,0659;0,0663288
3396,0303;0,0661503
3396,9944;0,0659832
3397,9587;0,0658243
3398,9229;0,0656693
3399,8872;0,065513
3400,8513;0,0653502
3401,8157;0,0651779
3402,7798;0,0649962
3403,7441;0,0648079
3404,7083;0,0646169
3405,6726;0,0644262
3406,6367;0,0642366
3407,6011;0,0640474
3408,5652;0,0638562
3409,5295;0,0636584
3410,4937;0,0634489
3411,4580;0,0632247
3412,4221;0,0629888
3413,3865;0,062752
3414,3506;0,0625282
3415,3149;0,0623259
3416,2791;0,0621409
3417,2434;0,0619559
3418,2075;0,0617484
3419,1719;0,0615042
3420,1360;0,0612271
3421,1003;0,0609389
3422,0645;0,0606669
3423,0288;0,0604287
3423,9929;0,0602238
3424,9573;0,0600359
3425,9214;0,0598437
3426,8857;0,0596322
3427,8499;0,0593978
3428,8142;0,0591481
3429,7783;0,0588954
3430,7427;0,0586498
3431,7068;0,0584154
3432,6711;0,0581914
3433,6353;0,0579749
3434,5996;0,0577637
3435,5637;0,0575555
3436,5281;0,0573471
3437,4922;0,0571341
3438,4565;0,0569131
3439,4207;0,0566853
3440,3850;0,0564562
3441,3491;0,056231
3442,3135;0,056008
3443,2776;0,0557764
3444,2419;0,0555208
3445,2061;0,0552321
3446,1704;0,0549177
3447,1345;0,0546007
3448,0989;0,054308
3449,0630;0,0540543
3450,0273;0,0538346
3450,9915;0,0536305
3451,9558;0,0534227
3452,9199;0,0532012
3453,8843;0,0529681
3454,8484;0,0527329
3455,8127;0,0525043
3456,7769;0,0522846
3457,7412;0,0520689
3458,7053;0,0518484
3459,6697;0,0516151
3460,6338;0,0513656
3461,5981;0,0511027
3462,5623;0,0508335
3463,5266;0,0505641
3464,4907;0,0502964
3465,4551;0,0500276
3466,4192;0,0497545
3467,3835;0,0494794
3468,3477;0,0492109
3469,3120;0,0489595
3470,2761;0,0487286
3471,2405;0,0485108
3472,2046;0,0482918
3473,1689;0,0480618
3474,1331;0,0478241
3475,0974;0,0475939
3476,0615;0,0473857
3477,0259;0,0471994
3477,9900;0,0470169
3478,9543;0,0468118
3479,9185;0,0465663
3480,8828;0,0462848
3481,8469;0,0459925
3482,8113;0,0457182
3483,7754;0,0454754
3484,7397;0,0452553
3485,7039;0,0450359
3486,6682;0,0447989
3487,6323;0,0445428
3488,5967;0,0442839
3489,5608;0,0440444
3490,5251;0,0438366
3491,4893;0,0436539
3492,4536;0,0434737
3493,4177;0,043272
3494,3821;0,0430399
3495,3462;0,0427924
3496,3105;0,0425616
3497,2747;0,0423746
3498,2390;0,0422316
3499,2031;0,0421009
3500,1675;0,0419333
3501,1316;0,0416915
3502,0959;0,0413773
3503,0601;0,0410381
3504,0244;0,0407376
3504,9885;0,0405124
3505,9529;0,0403495
3506,9170;0,0401996
3507,8813;0,0400099
3508,8455;0,0397555
3509,8098;0,0394525
3510,7739;0,0391442
3511,7383;0,0388707
3512,7024;0,0386457
3513,6667;0,0384572
3514,6309;0,0382848
3515,5952;0,0381178
3516,5593;0,0379601
3517,5237;0,0378222
3518,4878;0,0377077
3519,4521;0,037606
3520,4163;0,0374953
3521,3806;0,0373528
3522,3447;0,0371649
3523,3091;0,0369297
3524,2732;0,0366524
3525,2375;0,036338
3526,2017;0,0359925
3527,1660;0,0356304
3528,1301;0,0352811
3529,0945;0,0349829
3530,0586;0,0347642
3531,0229;0,0346251
3531,9871;0,0345344
3532,9514;0,0344423
3533,9155;0,0343013
3534,8799;0,034086
3535,8440;0,0338067
3536,8083;0,0335077
3537,7725;0,033248
3538,7368;0,0330738
3539,7009;0,0329981
3540,6653;0,0329943
3541,6294;0,0330032
3542,5938;0,0329487
3543,5579;0,0327663
3544,5222;0,0324404
3545,4863;0,032027
3546,4507;0,0316275
3547,4148;0,0313227
3548,3792;0,0311242
3549,3433;0,0309797
3550,3076;0,030815
3551,2717;0,0305811
3552,2361;0,0302852
3553,2002;0,029985
3554,1646;0,029746
3555,1287;0,0295951
3556,0930;0,0295083
3557,0571;0,0294365
3558,0215;0,0293444
3558,9856;0,0292387
3559,9500;0,0291651
3560,9141;0,0291723
3561,8784;0,0292668
3562,8425;0,0293866
3563,8069;0,0294071
3564,7710;0,0291782
3565,7354;0,0286138
3566,6995;0,027806
3567,6638;0,0270189
3568,6279;0,0264913
3569,5923;0,0262731
3570,5564;0,0262592
3571,5208;0,0263068
3572,4849;0,0263116
3573,4492;0,0262319
3574,4133;0,0260812
3575,3777;0,0259001
3576,3418;0,0257228
3577,3062;0,0255611
3578,2703;0,0254168
3579,2346;0,0253042
3580,1987;0,0252564
3581,1631;0,0253025
3582,1272;0,0254345
3583,0916;0,0255894
3584,0557;0,025656
3585,0200;0,025511
3585,9841;0,025096
3586,9485;0,02451
3587,9126;0,0239962
3588,8770;0,0237598
3589,8411;0,0238175
3590,8054;0,0240339
3591,7695;0,024237
3592,7339;0,024302
3593,6980;0,0241933
3594,6624;0,0239693
3595,6265;0,0237329
3596,5908;0,0235483
3597,5549;0,0234011
3598,5193;0,0232339
3599,4834;0,0230162
3600,4478;0,0227825
3601,4119;0,0226078
3602,3762;0,0225397
3603,3403;0,0225541
3604,3047;0,0225657
3605,2688;0,0224712
3606,2332;0,0222009
3607,1973;0,021759
3608,1616;0,0212282
3609,1257;0,0207201
3610,0901;0,0203117
3611,0542;0,0200287
3612,0186;0,0198723
3612,9827;0,0198394
3613,9470;0,0199129
3614,9111;0,0200394
3615,8755;0,0201258
3616,8396;0,0200686
3617,8040;0,0198159
3618,7681;0,0194345
3619,7324;0,0191126
3620,6965;0,0190426
3621,6609;0,0192872
3622,6250;0,0197626
3623,5894;0,0203111
3624,5535;0,0207574
3625,5178;0,0209215
3626,4819;0,0206356
3627,4463;0,0198406
3628,4104;0,0187536
3629,3748;0,0178186
3630,3389;0,0173222
3631,3032;0,0171949
3632,2673;0,0172017
3633,2317;0,0171563
3634,1958;0,0169917
3635,1602;0,0167395
3636,1243;0,0164726
3637,0886;0,0162451
3638,0527;0,0160651
3639,0171;0,015915
3639,9812;0,0157908
3640,9456;0,0157214
3641,9097;0,0157516
3642,8740;0,0159037
3643,8381;0,0161468
3644,8025;0,0163849
3645,7666;0,0164495
3646,7310;0,0161092
3647,6951;0,0151939
3648,6594;0,0138938
3649,6235;0,0128052
3650,5879;0,0123547
3651,5520;0,0124548
3652,5164;0,0127791
3653,4805;0,0130452
3654,4448;0,0130985
3655,4089;0,0129265
3656,3733;0,0126477
3657,3374;0,0124291
3658,3018;0,0123616
3659,2659;0,012414
3660,2302;0,0125007
3661,1943;0,0125712
3662,1587;0,0126464
3663,1228;0,0127862
3664,0872;0,0130207
3665,0513;0,0133033
3666,0156;0,0135189
3666,9797;0,0135367
3667,9441;0,0132958
3668,9082;0,0128952
3669,8726;0,0125733
3670,8367;0,0125076
3671,8010;0,0126503
3672,7651;0,0127825
3673,7295;0,0126725
3674,6936;0,0122339
3675,6580;0,011636
3676,6221;0,0111995
3677,5864;0,0111005
3678,5505;0,0112717
3679,5149;0,01156
3680,4790;0,0118685
3681,4434;0,0121835
3682,4075;0,0125327
3683,3718;0,0129277
3684,3359;0,0133287
3685,3003;0,0136441
3686,2644;0,0137572
3687,2288;0,013578
3688,1929;0,013132
3689,1572;0,012626
3690,1213;0,0123345
3691,0857;0,0123719
3692,0498;0,0126521
3693,0142;0,0130298
3693,9783;0,0134068
3694,9426;0,0137471
3695,9067;0,0140469
3696,8711;0,0143002
3697,8352;0,0144799
3698,7996;0,0145423
3699,7637;0,0144571
3700,7280;0,0142488
3701,6921;0,0140158
3702,6565;0,013889
3703,6206;0,0139522
3704,5850;0,0141978
3705,5491;0,014544
3706,5134;0,0148688
3707,4775;0,0150232
3708,4419;0,0148406
3709,4060;0,0141985
3710,3704;0,013168
3711,3345;0,0120965
3712,2988;0,0113949
3713,2629;0,0112299
3714,2273;0,0115046
3715,1914;0,0120298
3716,1558;0,0126446
3717,1199;0,0132488
3718,0842;0,0137953
3719,0483;0,0142735
3720,0127;0,0146875
3720,9768;0,015035
3721,9412;0,0152967
3722,9053;0,0154494
3723,8696;0,0154948
3724,8337;0,0154801
3725,7981;0,0154807
3726,7622;0,0155554
3727,7266;0,0157124
3728,6907;0,015916
3729,6550;0,0161121
3730,6191;0,0162434
3731,5835;0,0162434
3732,5476;0,016022
3733,5120;0,0154903
3734,4761;0,0146668
3735,4404;0,0137756
3736,4045;0,0131325
3737,3689;0,0129067
3738,3330;0,0130471
3739,2974;0,0133761
3740,2615;0,0136837
3741,2258;0,0137697
3742,1899;0,0134877
3743,1543;0,0128495
3744,1184;0,0121249
3745,0828;0,011695
3746,0469;0,0117038
3747,0112;0,0119589
3747,9753;0,0121198
3748,9397;0,011893
3749,9038;0,0112074
3750,8682;0,0103597
3751,8323;0,00983198
3752,7966;0,00984045
3753,7607;0,0102304
3754,7251;0,0107209
3755,6892;0,0110869
3756,6536;0,0112102
3757,6177;0,0110953
3758,5820;0,0108672
3759,5461;0,0106998
3760,5105;0,0107005
3761,4746;0,0108592
3762,4390;0,0110928
3763,4031;0,0113103
3764,3674;0,011449
3765,3315;0,0114807
3766,2959;0,011401
3767,2600;0,0112178
3768,2244;0,0109527
3769,1885;0,010656
3770,1528;0,0104139
3771,1169;0,0103176
3772,0813;0,0104111
3773,0454;0,0106646
3774,0098;0,0109904
3774,9739;0,0112799
3775,9382;0,011437
3776,9023;0,0114116
3777,8667;0,01123
3778,8308;0,0109947
3779,7952;0,0108243
3780,7593;0,0107744
3781,7236;0,0108177
3782,6877;0,0108853
3783,6521;0,0109183
3784,6162;0,0108957
3785,5806;0,0108366
3786,5447;0,0107831
3787,5090;0,0107769
3788,4731;0,0108418
3789,4375;0,0109769
3790,4016;0,011158
3791,3660;0,0113466
3792,3301;0,0115056
3793,2944;0,011618
3794,2585;0,0116975
3795,2229;0,0117779
3796,1870;0,011878
3797,1514;0,0119656
3798,1155;0,0119576
3799,0798;0,0117697
3800,0439;0,0113998
3801,0083;0,0109793
3801,9724;0,010696
3802,9368;0,0106295
3803,9009;0,0106897
3804,8652;0,0107124
3805,8293;0,0105967
3806,7937;0,0103915
3807,7578;0,010272
3808,7222;0,0103934
3809,6863;0,0107621
3810,6506;0,0112504
3811,6147;0,0116916
3812,5791;0,0119549
3813,5432;0,0119916
3814,5076;0,011865
3815,4717;0,0117236
3816,4360;0,0116827
3817,4001;0,0117163
3818,3645;0,0116816
3819,3286;0,0114508
3820,2930;0,0110412
3821,2571;0,010636
3822,2214;0,0104361
3823,1855;0,0104967
3824,1499;0,0107288
3825,1140;0,011005
3826,0784;0,0112371
3827,0425;0,0113959
3828,0068;0,0114952
3828,9709;0,0115658
3829,9353;0,0116344
3830,8994;0,0117167
3831,8638;0,0118194
3832,8279;0,0119377
3833,7922;0,0120462
3834,7563;0,0120948
3835,7207;0,0120241
3836,6848;0,0118049
3837,6492;0,0114809
3838,6133;0,0111621
3839,5776;0,0109478
3840,5417;0,0108546
3841,5061;0,0108294
3842,4702;0,0108191
3843,4346;0,0108242
3844,3987;0,0109013
3845,3630;0,0111207
3846,3271;0,0115156
3847,2915;0,0120569
3848,2556;0,0126574
3849,2200;0,0131784
3850,1841;0,0134223
3851,1484;0,0131438
3852,1125;0,0122069
3853,0769;0,0109142
3854,0410;0,00995178
3855,0054;0,00970106
3855,9695;0,0100113
3856,9338;0,0105775
3857,8979;0,0111813
3858,8623;0,0117013
3859,8264;0,0120679
3860,7908;0,0122407
3861,7549;0,0122206
3862,7192;0,0120755
3863,6833;0,0119272
3864,6477;0,0118798
3865,6118;0,011954
3866,5762;0,012089
3867,5403;0,0121876
3868,5046;0,0121627
3869,4688;0,0119751
3870,4331;0,0116591
3871,3972;0,0113161
3872,3616;0,0110654
3873,3257;0,0109864
3874,2900;0,0110922
3875,2542;0,0113369
3876,2185;0,01164
3877,1826;0,0119137
3878,1470;0,0120909
3879,1111;0,0121499
3880,0754;0,0121194
3881,0396;0,0120481
3882,0039;0,0119578
3882,9680;0,0118333
3883,9324;0,0116669
3884,8965;0,0115035
3885,8608;0,0114267
3886,8250;0,0114865
3887,7893;0,0116432
3888,7534;0,0117842
3889,7178;0,011795
3890,6819;0,0116443
3891,6462;0,0114324
3892,6104;0,011332
3893,5747;0,0114509
3894,5388;0,011763
3895,5032;0,0121582
3896,4673;0,0125189
3897,4316;0,0127633
3898,3958;0,0128582
3899,3601;0,0128104
3900,3242;0,0126398
3901,2886;0,0123552
3902,2527;0,0119697
3903,2170;0,0115394
3904,1812;0,0111673
3905,1455;0,010945
3906,1096;0,0108946
3907,0740;0,0109703
3908,0381;0,0111027
3909,0024;0,0112405
3909,9666;0,0113684
3910,9309;0,0115015
3911,8950;0,0116614
3912,8594;0,0118489
3913,8235;0,0120299
3914,7878;0,0121457
3915,7520;0,0121457
3916,7163;0,0120301
3917,6804;0,0118651
3918,6448;0,0117439
3919,6089;0,0117209
3920,5732;0,0117796
3921,5374;0,0118535
3922,5017;0,0118751
3923,4658;0,0118224
3924,4302;0,0117366
3925,3943;0,0116933
3926,3586;0,0117451
3927,3228;0,0118831
3928,2871;0,0120442
3929,2512;0,012145
3930,2156;0,0121252
3931,1797;0,0119805
3932,1440;0,0117685
3933,1082;0,011572
3934,0725;0,011453
3935,0366;0,0114323
3936,0010;0,0114998
3936,9651;0,0116295
3937,9294;0,0117867
3938,8936;0,0119302
3939,8579;0,0120205
3940,8220;0,0120373
3941,7864;0,0119959
3942,7505;0,0119448
3943,7148;0,0119346
3944,6790;0,0119815
3945,6433;0,012055
3946,6074;0,0120965
3947,5718;0,0120565
3948,5359;0,0119272
3949,5002;0,0117519
3950,4644;0,0115979
3951,4287;0,0115146
3952,3928;0,01151
3953,3572;0,0115584
3954,3213;0,0116245
3955,2856;0,0116829
3956,2498;0,0117246
3957,2141;0,0117516
3958,1782;0,0117661
3959,1426;0,0117657
3960,1067;0,0117463
3961,0710;0,0117093
3962,0352;0,0116651
3962,9995;0,0116287
3963,9636;0,0116122
3964,9280;0,0116183
3965,8921;0,0116412
3966,8564;0,0116714
3967,8206;0,0117015
3968,7849;0,0117283
3969,7490;0,0117518
3970,7134;0,0117717
3971,6775;0,011785
3972,6418;0,0117877
3973,6060;0,0117774
3974,5703;0,0117558
3975,5344;0,0117289
3976,4988;0,0117038
3977,4629;0,0116848
3978,4272;0,0116721
3979,3914;0,011663
3980,3557;0,0116547
3981,3198;0,0116462
3982,2842;0,0116399
3983,2483;0,01164
3984,2126;0,0116504
3985,1768;0,0116725
3986,1411;0,011704
3987,1052;0,0117392
3988,0696;0,0117702
3989,0337;0,0117895
3989,9980;0,0117915
3990,9622;0,0117737
3991,9265;0,0117375
3992,8906;0,0116878
3993,8550;0,0116328
3994,8191;0,0115822
3995,7834;0,0115457
3996,7476;0,0115296
3997,7119;0,0115347
3998,6760;0,0115564
3999,6404;0,0115873
4000,6045;0,0116261

##### Extended Information
[Comments]
Sample name
Comment
Username
Division
Organization;UNIVERSIDAD INDUSTRIAL DE SANTANDER

[Detailed Information]
Creation date;18/03/2025 12:32 p.m.

Data array type;Linear data array
Horizontal axis;Wavenumber [cm-1]
Vertical axis;Abs
Start;399,193 cm-1
End;4000,6 cm-1
Data interval;0,964233 cm-1
Data points;3736    

[Measurement Information]
Model name;FT/IR-4X1typeA
Serial No.;A035162111

Accessory;ATR PRO 4X
Accessory S/N;A021162126
Incident angle;45 deg

Measurement date;18/03/2025 12:31 p.m.

Light source;Standard
Detector;TGS
Accumulation;40
Resolution;4 cm-1
Zero filling;On
Apodization;Cosine
Gain;Auto (8)
Aperture;Auto (7 mm)
Scan speed;Auto (2 mm/sec)
Filter;Auto (12800 Hz)

