TITLE;
DATA TYPE;INFRARED SPECTRUM
ORIGIN;JASCO
OWNER;
DATE;25/03/18
TIME;13:31:39
SPECTROMETER/DATA SYSTEM;
LOCALE;9226
RESOLUTION;
DELTAX;0,964233
XUNITS;1/CM
YUNITS;ABSORBANCE
FIRSTX;  399,1927
LASTX; 4000,6047
NPOINTS;    3736
FIRSTY;     0,16960
MAXY;     0,21596
MINY;     0,01342
XYDATA
399,1927;0,169604
400,1569;0,169111
401,1211;0,169027
402,0854;0,16933
403,0496;0,169706
404,0138;0,169753
404,9781;0,169187
405,9423;0,168015
406,9065;0,166603
407,8708;0,165514
408,8350;0,165224
409,7992;0,165886
410,7635;0,167267
411,7277;0,168858
412,6919;0,170144
413,6562;0,170858
414,6204;0,171065
415,5846;0,171082
416,5489;0,17136
417,5131;0,172303
418,4773;0,173922
419,4416;0,175602
420,4058;0,176602
421,3700;0,176778
422,3343;0,176536
423,2985;0,176381
424,2627;0,176645
425,2270;0,177373
426,1912;0,178337
427,1554;0,179181
428,1197;0,179636
429,0839;0,179661
430,0481;0,179439
431,0124;0,179256
431,9766;0,179347
432,9408;0,179789
433,9051;0,180468
434,8693;0,181152
435,8335;0,181609
436,7978;0,181716
437,7620;0,181492
438,7262;0,181043
439,6905;0,180476
440,6547;0,179845
441,6189;0,179162
442,5832;0,178464
443,5474;0,177861
444,5116;0,177521
445,4759;0,177558
446,4401;0,177915
447,4043;0,178348
448,3686;0,178522
449,3328;0,178176
450,2970;0,177281
451,2613;0,176099
452,2255;0,175058
453,1897;0,174529
454,1540;0,174635
455,1182;0,17521
456,0824;0,175885
457,0467;0,176277
458,0109;0,176194
458,9751;0,175744
459,9394;0,175194
460,9036;0,174738
461,8678;0,174389
462,8321;0,174049
463,7963;0,173628
464,7605;0,173131
465,7248;0,172669
466,6890;0,172381
467,6532;0,172328
468,6175;0,172446
469,5817;0,172582
470,5459;0,172592
471,5102;0,172439
472,4744;0,17223
473,4386;0,172145
474,4029;0,172288
475,3671;0,172622
476,3313;0,173009
477,2956;0,173321
478,2598;0,173517
479,2240;0,173657
480,1883;0,173854
481,1525;0,174192
482,1167;0,174668
483,0810;0,175189
484,0452;0,175633
485,0094;0,175941
485,9737;0,176152
486,9379;0,176377
487,9021;0,17671
488,8664;0,177171
489,8306;0,177688
490,7948;0,178134
491,7591;0,178391
492,7233;0,178409
493,6875;0,178229
494,6518;0,177958
495,6160;0,177711
496,5802;0,177578
497,5445;0,177603
498,5087;0,177794
499,4729;0,178129
500,4372;0,178562
501,4014;0,179027
502,3656;0,179457
503,3299;0,179799
504,2941;0,180034
505,2583;0,180177
506,2226;0,180275
507,1868;0,180401
508,1510;0,180634
509,1153;0,181031
510,0795;0,181598
511,0437;0,182278
512,0080;0,182979
512,9722;0,18362
513,9365;0,184161
514,9007;0,184617
515,8649;0,185025
516,8292;0,185416
517,7934;0,185782
518,7576;0,186081
519,7219;0,186268
520,6861;0,186315
521,6503;0,186209
522,6146;0,185937
523,5788;0,185496
524,5430;0,184923
525,5073;0,184326
526,4715;0,183866
527,4357;0,183672
528,4000;0,18376
529,3642;0,184018
530,3284;0,184259
531,2927;0,184308
532,2569;0,184066
533,2211;0,183547
534,1854;0,182869
535,1496;0,182196
536,1138;0,181681
537,0781;0,181408
538,0423;0,181387
539,0065;0,181562
539,9708;0,181849
540,9350;0,182166
541,8992;0,182456
542,8635;0,182695
543,8277;0,182883
544,7919;0,183034
545,7562;0,183174
546,7204;0,183345
547,6846;0,183607
548,6489;0,184022
549,6131;0,184629
550,5773;0,185421
551,5416;0,18634
552,5058;0,18729
553,4700;0,188167
554,4343;0,188881
555,3985;0,189369
556,3627;0,189585
557,3270;0,189497
558,2912;0,189082
559,2554;0,188334
560,2197;0,187278
561,1839;0,185974
562,1481;0,184519
563,1124;0,183027
564,0766;0,181601
565,0408;0,180316
566,0051;0,179209
566,9693;0,178286
567,9335;0,177531
568,8978;0,176925
569,8620;0,176452
570,8262;0,1761
571,7905;0,17585
572,7547;0,175669
573,7189;0,175512
574,6832;0,175328
575,6474;0,175079
576,6116;0,174762
577,5759;0,174407
578,5401;0,174064
579,5043;0,173779
580,4686;0,173579
581,4328;0,173465
582,3970;0,173422
583,3613;0,173426
584,3255;0,173457
585,2897;0,173495
586,2540;0,173523
587,2182;0,173525
588,1824;0,173492
589,1467;0,173422
590,1109;0,173331
591,0751;0,173236
592,0394;0,173148
593,0036;0,17306
593,9678;0,172938
594,9321;0,172741
595,8963;0,172435
596,8605;0,172013
597,8248;0,171499
598,7890;0,170939
599,7532;0,17038
600,7175;0,169853
601,6817;0,169372
602,6459;0,168939
603,6102;0,168562
604,5744;0,168249
605,5386;0,167997
606,5029;0,167769
607,4671;0,167501
608,4313;0,167122
609,3956;0,166587
610,3598;0,16591
611,3240;0,165154
612,2883;0,164404
613,2525;0,16372
614,2167;0,163111
615,1810;0,162526
616,1452;0,161878
617,1094;0,161079
618,0737;0,160083
619,0379;0,158908
620,0021;0,157619
620,9664;0,156301
621,9306;0,155026
622,8948;0,153847
623,8591;0,152791
624,8233;0,151865
625,7875;0,151047
626,7518;0,150303
627,7160;0,149595
628,6802;0,148887
629,6445;0,148162
630,6087;0,147418
631,5729;0,146674
632,5372;0,145954
633,5014;0,145285
634,4656;0,144682
635,4299;0,144139
636,3941;0,143632
637,3583;0,143128
638,3226;0,142602
639,2868;0,142051
640,2510;0,141495
641,2153;0,140966
642,1795;0,140494
643,1437;0,14009
644,1080;0,139745
645,0722;0,139442
646,0364;0,139162
647,0007;0,138895
647,9649;0,138639
648,9291;0,138399
649,8934;0,138181
650,8576;0,137997
651,8218;0,137861
652,7861;0,137791
653,7503;0,137802
654,7145;0,137908
655,6788;0,138117
656,6430;0,138424
657,6072;0,138805
658,5715;0,139205
659,5357;0,139533
660,4999;0,139698
661,4642;0,139661
662,4284;0,139472
663,3926;0,139242
664,3569;0,139081
665,3211;0,139036
666,2853;0,139036
667,2496;0,138827
668,2138;0,138042
669,1780;0,13659
670,1423;0,134826
671,1065;0,133094
672,0707;0,131472
673,0350;0,129895
673,9992;0,128305
674,9634;0,126702
675,9277;0,125137
676,8919;0,123661
677,8561;0,122281
678,8204;0,120972
679,7846;0,119722
680,7488;0,118562
681,7131;0,117546
682,6773;0,116702
683,6415;0,116009
684,6058;0,115408
685,5700;0,114844
686,5342;0,11429
687,4985;0,113757
688,4627;0,113277
689,4269;0,112878
690,3912;0,112563
691,3554;0,112309
692,3196;0,112072
693,2839;0,111809
694,2481;0,11149
695,2123;0,111111
696,1766;0,110684
697,1408;0,11023
698,1050;0,109767
699,0693;0,109303
700,0335;0,108845
700,9977;0,108397
701,9620;0,107964
702,9262;0,107543
703,8904;0,107128
704,8547;0,106706
705,8189;0,106262
706,7831;0,105793
707,7474;0,105298
708,7116;0,104778
709,6758;0,104223
710,6401;0,103616
711,6043;0,10294
712,5685;0,102194
713,5328;0,101403
714,4970;0,10062
715,4612;0,0999354
716,4255;0,0993069
717,3897;0,098758
718,3539;0,0982291
719,3182;0,0976368
720,2824;0,0969139
721,2466;0,0960435
722,2109;0,0950644
723,1751;0,0940425
724,1393;0,0930357
725,1036;0,0920751
726,0678;0,0911667
727,0320;0,0903028
727,9963;0,0894741
728,9605;0,0886746
729,9247;0,0879027
730,8890;0,0871594
731,8532;0,0864484
732,8174;0,0857755
733,7817;0,0851473
734,7459;0,0845685
735,7101;0,0840403
736,6744;0,0835591
737,6386;0,0831163
738,6028;0,0826981
739,5671;0,0822858
740,5313;0,0818593
741,4955;0,0814037
742,4598;0,0809177
743,4240;0,0804166
744,3882;0,0799277
745,3525;0,079477
746,3167;0,0790756
747,2809;0,0787139
748,2452;0,0783681
749,2094;0,0780165
750,1736;0,0776532
751,1379;0,0772901
752,1021;0,076944
753,0663;0,0766176
754,0306;0,076291
754,9948;0,07593
755,9590;0,07551
756,9233;0,0750359
757,8875;0,0745454
758,8517;0,07409
759,8160;0,0737073
760,7802;0,0734031
761,7444;0,0731538
762,7087;0,072924
763,6729;0,0726868
764,6371;0,0724312
765,6014;0,0721577
766,5656;0,0718696
767,5298;0,0715691
768,4941;0,0712615
769,4583;0,0709591
770,4225;0,0706788
771,3868;0,0704325
772,3510;0,0702202
773,3152;0,070029
774,2795;0,0698419
775,2437;0,0696465
776,2079;0,0694384
777,1722;0,0692166
778,1364;0,0689785
779,1006;0,0687198
780,0649;0,0684391
781,0291;0,0681426
781,9933;0,0678425
782,9576;0,0675483
783,9218;0,0672605
784,8860;0,0669705
785,8503;0,0666699
786,8145;0,0663605
787,7787;0,0660582
788,7430;0,0657849
789,7072;0,0655561
790,6714;0,0653713
791,6357;0,0652144
792,5999;0,0650623
793,5641;0,0648963
794,5284;0,0647091
795,4926;0,0645047
796,4568;0,0642936
797,4211;0,0640874
798,3853;0,0638937
799,3495;0,0637145
800,3138;0,0635476
801,2780;0,0633894
802,2422;0,0632388
803,2065;0,0630991
804,1707;0,0629764
805,1349;0,0628744
806,0992;0,062789
807,0634;0,0627078
808,0276;0,062615
808,9919;0,0625012
809,9561;0,0623703
810,9203;0,06224
811,8846;0,0621336
812,8488;0,062068
813,8130;0,0620443
814,7773;0,0620465
815,7415;0,0620499
816,7057;0,0620336
817,6700;0,0619901
818,6342;0,0619275
819,5984;0,0618618
820,5627;0,0618058
821,5269;0,0617609
822,4911;0,0617162
823,4554;0,0616552
824,4196;0,0615661
825,3839;0,0614482
826,3481;0,0613128
827,3123;0,0611771
828,2766;0,0610556
829,2408;0,0609531
830,2050;0,0608621
831,1693;0,0607664
832,1335;0,0606476
833,0977;0,0604939
834,0620;0,0603046
835,0262;0,0600894
835,9904;0,0598628
836,9547;0,0596371
837,9189;0,0594172
838,8831;0,0592017
839,8474;0,058987
840,8116;0,058773
841,7758;0,058565
842,7401;0,058372
843,7043;0,058201
844,6685;0,0580528
845,6328;0,0579198
846,5970;0,0577892
847,5612;0,0576492
848,5255;0,0574963
849,4897;0,0573388
850,4539;0,0571941
851,4182;0,0570798
852,3824;0,0570035
853,3466;0,0569573
854,3109;0,056922
855,2751;0,0568784
856,2393;0,0568187
857,2036;0,0567495
858,1678;0,0566855
859,1320;0,0566378
860,0963;0,0566074
861,0605;0,0565884
862,0247;0,0565775
862,9890;0,0565827
863,9532;0,0566223
864,9174;0,0567155
865,8817;0,05687
866,8459;0,0570768
867,8101;0,0573149
868,7744;0,0575621
869,7386;0,0578053
870,7028;0,058043
871,6671;0,0582811
872,6313;0,0585261
873,5955;0,0587803
874,5598;0,0590416
875,5240;0,0593057
876,4882;0,0595695
877,4525;0,0598335
878,4167;0,0601022
879,3809;0,060384
880,3452;0,0606902
881,3094;0,0610341
882,2736;0,0614292
883,2379;0,0618871
884,2021;0,0624154
885,1663;0,0630168
886,1306;0,0636876
887,0948;0,0644185
888,0590;0,0651953
889,0233;0,066
889,9875;0,0668112
890,9517;0,0676045
891,9160;0,0683521
892,8802;0,0690248
893,8444;0,0695948
894,8087;0,0700391
895,7729;0,0703422
896,7371;0,0704963
897,7014;0,0705006
898,6656;0,0703599
899,6298;0,070086
900,5941;0,0696993
901,5583;0,0692288
902,5225;0,0687091
903,4868;0,0681741
904,4510;0,0676515
905,4152;0,0671599
906,3795;0,0667113
907,3437;0,0663158
908,3079;0,0659843
909,2722;0,0657262
910,2364;0,0655451
911,2007;0,0654353
912,1649;0,0653836
913,1292;0,0653771
914,0934;0,065411
915,0576;0,0654918
916,0219;0,0656323
916,9861;0,0658399
917,9503;0,0661071
918,9146;0,0664104
919,8788;0,0667197
920,8430;0,0670116
921,8073;0,0672801
922,7715;0,0675355
923,7357;0,0677933
924,7000;0,0680613
925,6642;0,0683339
926,6284;0,0685974
927,5927;0,0688422
928,5569;0,0690712
929,5211;0,0692983
930,4854;0,0695381
931,4496;0,069795
932,4138;0,0700621
933,3781;0,0703311
934,3423;0,070606
935,3065;0,0709097
936,2708;0,071277
937,2350;0,0717367
938,1992;0,0722968
939,1635;0,0729408
940,1277;0,0736393
941,0919;0,074369
942,0562;0,0751261
943,0204;0,0759276
943,9846;0,0767993
944,9489;0,0777599
945,9131;0,0788106
946,8773;0,0799348
947,8416;0,0811073
948,8058;0,082307
949,7700;0,0835244
950,7343;0,0847644
951,6985;0,0860404
952,6627;0,087368
953,6270;0,0887576
954,5912;0,0902121
955,5554;0,0917261
956,5197;0,0932885
957,4839;0,0948861
958,4481;0,0965068
959,4124;0,0981428
960,3766;0,0997914
961,3408;0,101454
962,3051;0,103131
963,2693;0,104822
964,2335;0,106523
965,1978;0,10823
966,1620;0,109952
967,1262;0,111711
968,0905;0,113542
969,0547;0,115485
970,0189;0,117569
970,9832;0,119804
971,9474;0,122188
972,9116;0,124711
973,8759;0,127376
974,8401;0,130193
975,8043;0,133181
976,7686;0,136347
977,7328;0,139674
978,6970;0,143111
979,6613;0,146572
980,6255;0,149952
981,5897;0,153136
982,5540;0,156024
983,5182;0,15855
984,4824;0,160693
985,4467;0,162482
986,4109;0,16398
987,3751;0,165268
988,3394;0,166414
989,3036;0,167464
990,2678;0,168441
991,2321;0,16935
992,1963;0,170193
993,1605;0,170975
994,1248;0,171702
995,0890;0,172379
996,0532;0,173004
997,0175;0,173572
997,9817;0,174079
998,9459;0,174532
999,9102;0,174959
1000,8744;0,175412
1001,8386;0,175952
1002,8029;0,176639
1003,7671;0,177513
1004,7313;0,178586
1005,6956;0,179843
1006,6598;0,181254
1007,6240;0,182797
1008,5883;0,184456
1009,5525;0,18623
1010,5167;0,188114
1011,4810;0,190089
1012,4452;0,192118
1013,4094;0,194148
1014,3737;0,196127
1015,3379;0,198008
1016,3021;0,199767
1017,2664;0,201395
1018,2306;0,202902
1019,1948;0,204303
1020,1591;0,205618
1021,1233;0,206865
1022,0875;0,208061
1023,0518;0,209218
1024,0160;0,210345
1024,9802;0,211447
1025,9445;0,212516
1026,9087;0,213533
1027,8729;0,214459
1028,8372;0,215231
1029,8014;0,215763
1030,7656;0,215956
1031,7299;0,215707
1032,6941;0,214936
1033,6583;0,213611
1034,6226;0,211765
1035,5868;0,209504
1036,5510;0,206996
1037,5153;0,204443
1038,4795;0,202048
1039,4437;0,199984
1040,4080;0,198364
1041,3722;0,197237
1042,3364;0,196584
1043,3007;0,196329
1044,2649;0,19636
1045,2291;0,196553
1046,1934;0,196795
1047,1576;0,196997
1048,1218;0,197098
1049,0861;0,197051
1050,0503;0,196819
1051,0145;0,196363
1051,9788;0,195655
1052,9430;0,194679
1053,9072;0,193444
1054,8715;0,191964
1055,8357;0,190245
1056,7999;0,188258
1057,7642;0,185947
1058,7284;0,183253
1059,6926;0,180145
1060,6569;0,17666
1061,6211;0,172903
1062,5853;0,169024
1063,5496;0,165188
1064,5138;0,161529
1065,4780;0,158136
1066,4423;0,155044
1067,4065;0,152245
1068,3707;0,149704
1069,3350;0,147376
1070,2992;0,14521
1071,2634;0,143156
1072,2277;0,141169
1073,1919;0,139203
1074,1561;0,137215
1075,1204;0,135174
1076,0846;0,133069
1077,0488;0,130923
1078,0131;0,128788
1078,9773;0,126738
1079,9415;0,124849
1080,9058;0,123177
1081,8700;0,121748
1082,8342;0,12056
1083,7985;0,119592
1084,7627;0,118818
1085,7269;0,118211
1086,6912;0,117745
1087,6554;0,117396
1088,6196;0,117146
1089,5839;0,116981
1090,5481;0,116897
1091,5123;0,116899
1092,4766;0,116992
1093,4408;0,117175
1094,4050;0,11744
1095,3693;0,117773
1096,3335;0,118158
1097,2977;0,118579
1098,2620;0,119018
1099,2262;0,119456
1100,1904;0,119868
1101,1547;0,120224
1102,1189;0,120496
1103,0831;0,120663
1104,0474;0,120719
1105,0116;0,120676
1105,9758;0,120553
1106,9401;0,120369
1107,9043;0,120125
1108,8685;0,119786
1109,8328;0,119291
1110,7970;0,118562
1111,7612;0,117542
1112,7255;0,116214
1113,6897;0,114621
1114,6539;0,112857
1115,6182;0,111041
1116,5824;0,109286
1117,5466;0,107673
1118,5109;0,106229
1119,4751;0,104931
1120,4393;0,103715
1121,4036;0,102494
1122,3678;0,101178
1123,3320;0,0997003
1124,2963;0,0980258
1125,2605;0,0961584
1126,2247;0,0941341
1127,1890;0,0920074
1128,1532;0,0898345
1129,1174;0,0876609
1130,0817;0,085516
1131,0459;0,0834158
1132,0101;0,0813719
1132,9744;0,0794016
1133,9386;0,0775338
1134,9028;0,0758101
1135,8671;0,0742785
1136,8313;0,0729849
1137,7955;0,0719641
1138,7598;0,0712334
1139,7240;0,0707905
1140,6882;0,0706135
1141,6525;0,0706644
1142,6167;0,0708954
1143,5809;0,0712571
1144,5452;0,0717071
1145,5094;0,0722161
1146,4736;0,0727691
1147,4379;0,0733623
1148,4021;0,0739969
1149,3663;0,0746735
1150,3306;0,0753874
1151,2948;0,0761266
1152,2590;0,0768714
1153,2233;0,0775948
1154,1875;0,0782629
1155,1517;0,0788371
1156,1160;0,079274
1157,0802;0,0795264
1158,0444;0,0795419
1159,0087;0,0792619
1159,9729;0,0786251
1160,9371;0,0775747
1161,9014;0,0760718
1162,8656;0,0741112
1163,8298;0,0717326
1164,7941;0,0690228
1165,7583;0,0661052
1166,7225;0,0631197
1167,6868;0,0601981
1168,6510;0,0574441
1169,6152;0,0549223
1170,5795;0,0526605
1171,5437;0,0506596
1172,5079;0,0489067
1173,4722;0,0473837
1174,4364;0,0460715
1175,4006;0,0449494
1176,3649;0,0439949
1177,3291;0,0431856
1178,2933;0,0425015
1179,2576;0,0419264
1180,2218;0,0414471
1181,1860;0,041051
1182,1503;0,0407252
1183,1145;0,0404587
1184,0787;0,0402459
1185,0430;0,040089
1186,0072;0,039997
1186,9714;0,0399813
1187,9357;0,0400504
1188,8999;0,040207
1189,8641;0,040448
1190,8284;0,040767
1191,7926;0,0411565
1192,7568;0,0416081
1193,7211;0,0421117
1194,6853;0,0426558
1195,6495;0,0432281
1196,6138;0,0438175
1197,5780;0,0444157
1198,5422;0,0450158
1199,5065;0,045589
1200,4707;0,0461732
1201,4349;0,0467325
1202,3992;0,047254
1203,3634;0,0477263
1204,3276;0,048141
1205,2919;0,0484946
1206,2561;0,0487898
1207,2203;0,049038
1208,1846;0,0492602
1209,1488;0,0494868
1210,1130;0,0497518
1211,0773;0,0500856
1212,0415;0,0505067
1213,0057;0,0510175
1213,9700;0,0516066
1214,9342;0,0522552
1215,8984;0,0529441
1216,8627;0,0536571
1217,8269;0,054381
1218,7911;0,0551037
1219,7554;0,0558135
1220,7196;0,0565001
1221,6838;0,0571568
1222,6481;0,0577819
1223,6123;0,0583765
1224,5765;0,0589429
1225,5408;0,0594814
1226,5050;0,0599896
1227,4692;0,0604632
1228,4335;0,0608978
1229,3977;0,0612899
1230,3619;0,061637
1231,3262;0,0619369
1232,2904;0,0621871
1233,2546;0,0623851
1234,2189;0,0625298
1235,1831;0,0626239
1236,1473;0,0626742
1237,1116;0,0626911
1238,0758;0,0626859
1239,0400;0,0626674
1240,0043;0,0626392
1240,9685;0,0625991
1241,9327;0,06254
1242,8970;0,0624522
1243,8612;0,0623261
1244,8254;0,0621545
1245,7897;0,0619348
1246,7539;0,0616706
1247,7181;0,0613708
1248,6824;0,0610482
1249,6466;0,0607167
1250,6108;0,0603886
1251,5751;0,0600731
1252,5393;0,0597761
1253,5035;0,0594999
1254,4678;0,059243
1255,4320;0,0589996
1256,3962;0,0587602
1257,3605;0,0585146
1258,3247;0,0582545
1259,2889;0,0579756
1260,2532;0,0576782
1261,2174;0,057364
1262,1816;0,057034
1263,1459;0,0566868
1264,1101;0,0563201
1265,0743;0,0559316
1266,0386;0,0555204
1267,0028;0,055087
1267,9670;0,0546325
1268,9313;0,0541599
1269,8955;0,0536745
1270,8597;0,0531839
1271,8240;0,0526968
1272,7882;0,0522196
1273,7524;0,0517549
1274,7167;0,0513021
1275,6809;0,0508601
1276,6451;0,0504284
1277,6094;0,0500072
1278,5736;0,0495951
1279,5378;0,0491877
1280,5021;0,0487784
1281,4663;0,0483619
1282,4305;0,0479379
1283,3948;0,0475121
1284,3590;0,0470964
1285,3232;0,0467061
1286,2875;0,0463584
1287,2517;0,0460697
1288,2159;0,0458527
1289,1802;0,0457129
1290,1444;0,0456468
1291,1086;0,0456439
1292,0729;0,0456918
1293,0371;0,0457829
1294,0013;0,0459179
1294,9656;0,0461044
1295,9298;0,0463525
1296,8940;0,0466694
1297,8583;0,047056
1298,8225;0,0475076
1299,7867;0,048016
1300,7510;0,0485719
1301,7152;0,0491675
1302,6794;0,0497979
1303,6437;0,050462
1304,6079;0,0511613
1305,5721;0,0518969
1306,5364;0,0526653
1307,5006;0,0534566
1308,4648;0,0542569
1309,4291;0,0550515
1310,3933;0,0558272
1311,3575;0,0565702
1312,3218;0,0572622
1313,2860;0,0578783
1314,2502;0,0583889
1315,2145;0,0587657
1316,1787;0,0589876
1317,1429;0,0590471
1318,1072;0,0589552
1319,0714;0,058742
1320,0356;0,0584508
1320,9999;0,058126
1321,9641;0,0578014
1322,9283;0,0574973
1323,8926;0,0572233
1324,8568;0,0569849
1325,8210;0,0567856
1326,7853;0,0566262
1327,7495;0,0565032
1328,7137;0,0564075
1329,6780;0,0563253
1330,6422;0,05624
1331,6064;0,0561348
1332,5707;0,0559931
1333,5349;0,0557989
1334,4991;0,0555346
1335,4634;0,0551809
1336,4276;0,0547208
1337,3918;0,0541521
1338,3561;0,053503
1339,3203;0,052836
1340,2845;0,0522234
1341,2488;0,0517094
1342,2130;0,0512947
1343,1772;0,0509535
1344,1415;0,05066
1345,1057;0,0504046
1346,0699;0,0501958
1347,0342;0,0500517
1347,9984;0,0499893
1348,9626;0,0500157
1349,9269;0,0501263
1350,8911;0,0503067
1351,8553;0,0505383
1352,8196;0,0508037
1353,7838;0,051091
1354,7480;0,0513964
1355,7123;0,0517218
1356,6765;0,0520681
1357,6407;0,0524304
1358,6050;0,0527974
1359,5692;0,0531551
1360,5334;0,0534921
1361,4977;0,053805
1362,4619;0,0541017
1363,4261;0,0543973
1364,3904;0,0547016
1365,3546;0,0550105
1366,3188;0,0553068
1367,2831;0,0555672
1368,2473;0,0557685
1369,2115;0,0558913
1370,1758;0,0559201
1371,1400;0,055841
1372,1042;0,0556419
1373,0685;0,0553217
1374,0327;0,0549034
1374,9969;0,0544329
1375,9612;0,0539507
1376,9254;0,0534604
1377,8896;0,0529287
1378,8539;0,0523174
1379,8181;0,0516195
1380,7823;0,050874
1381,7466;0,0501435
1382,7108;0,049471
1383,6750;0,048853
1384,6393;0,0482484
1385,6035;0,0476185
1386,5677;0,0469724
1387,5320;0,0463804
1388,4962;0,0459262
1389,4604;0,0456402
1390,4247;0,0454895
1391,3889;0,0454157
1392,3531;0,0453714
1393,3174;0,0453336
1394,2816;0,0453031
1395,2458;0,0452946
1396,2101;0,0453244
1397,1743;0,0454029
1398,1385;0,0455332
1399,1028;0,045713
1400,0670;0,0459335
1401,0313;0,0461796
1401,9955;0,0464353
1402,9597;0,0466911
1403,9240;0,0469496
1404,8882;0,047225
1405,8524;0,0475329
1406,8167;0,0478785
1407,7809;0,0482545
1408,7451;0,0486511
1409,7094;0,0490675
1410,6736;0,0495129
1411,6378;0,049997
1412,6021;0,0505162
1413,5663;0,0510496
1414,5305;0,0515682
1415,4948;0,0520452
1416,4590;0,0524619
1417,4232;0,0528088
1418,3875;0,0530895
1419,3517;0,0533189
1420,3159;0,0535036
1421,2802;0,0536236
1422,2444;0,0536424
1423,2086;0,0535353
1424,1729;0,0533085
1425,1371;0,0529911
1426,1013;0,0526053
1427,0656;0,0521415
1428,0298;0,0515658
1428,9940;0,0508644
1429,9583;0,0500849
1430,9225;0,0493212
1431,8867;0,0486403
1432,8510;0,0480263
1433,8152;0,0473909
1434,7794;0,0466375
1435,7437;0,0457542
1436,7079;0,0448788
1437,6721;0,0442194
1438,6364;0,0438715
1439,6006;0,043773
1440,5648;0,0438083
1441,5291;0,0438962
1442,4933;0,0440076
1443,4575;0,0441469
1444,4218;0,0443251
1445,3860;0,0445431
1446,3502;0,0447891
1447,3145;0,0450491
1448,2787;0,0453177
1449,2429;0,0455995
1450,2072;0,0458991
1451,1714;0,0462098
1452,1356;0,0465111
1453,0999;0,0467692
1454,0641;0,0469317
1455,0283;0,046914
1455,9926;0,0466215
1456,9568;0,0460847
1457,9210;0,04557
1458,8853;0,0453213
1459,8495;0,0453171
1460,8137;0,0453951
1461,7780;0,0453951
1462,7422;0,0451867
1463,7064;0,0446851
1464,6707;0,0439132
1465,6349;0,0430308
1466,5991;0,0422217
1467,5634;0,0415464
1468,5276;0,040931
1469,4918;0,040236
1470,4561;0,0393101
1471,4203;0,0380443
1472,3845;0,036479
1473,3488;0,0348767
1474,3130;0,0335481
1475,2772;0,0325949
1476,2415;0,0319224
1477,2057;0,0314017
1478,1699;0,0309501
1479,1342;0,0305315
1480,0984;0,0301398
1481,0626;0,0297881
1482,0269;0,029501
1482,9911;0,0293007
1483,9553;0,0291913
1484,9196;0,0291512
1485,8838;0,0291397
1486,8480;0,0291138
1487,8123;0,0290558
1488,7765;0,0290061
1489,7407;0,0290547
1490,7050;0,0292644
1491,6692;0,0296198
1492,6334;0,030064
1493,5977;0,0305492
1494,5619;0,0310515
1495,5261;0,0315643
1496,4904;0,0320882
1497,4546;0,0326282
1498,4188;0,0331931
1499,3831;0,0337859
1500,3473;0,0343905
1501,3115;0,0349753
1502,2758;0,0355045
1503,2400;0,0359399
1504,2042;0,0362277
1505,1685;0,0362713
1506,1327;0,0359486
1507,0969;0,0353056
1508,0612;0,034684
1509,0254;0,0343341
1509,9896;0,0341997
1510,9539;0,0341361
1511,9181;0,034046
1512,8823;0,0338806
1513,8466;0,0336224
1514,8108;0,0332782
1515,7750;0,0328783
1516,7393;0,0324612
1517,7035;0,032045
1518,6677;0,0316126
1519,6320;0,0311333
1520,5962;0,0306096
1521,5604;0,0301041
1522,5247;0,0297008
1523,4889;0,0294385
1524,4531;0,0292976
1525,4174;0,0292412
1526,3816;0,0292513
1527,3458;0,0293289
1528,3101;0,029471
1529,2743;0,0296588
1530,2385;0,0298647
1531,2028;0,0300704
1532,1670;0,030282
1533,1312;0,0305308
1534,0955;0,030849
1535,0597;0,0312387
1536,0239;0,0316695
1536,9882;0,0320978
1537,9524;0,03247
1538,9166;0,0326992
1539,8809;0,0326637
1540,8451;0,0323472
1541,8093;0,0319769
1542,7736;0,0317756
1543,7378;0,0317538
1544,7020;0,0318332
1545,6663;0,0319576
1546,6305;0,0321013
1547,5947;0,0322473
1548,5590;0,0323773
1549,5232;0,0324779
1550,4874;0,0325554
1551,4517;0,0326424
1552,4159;0,0327795
1553,3801;0,0329847
1554,3444;0,0332342
1555,3086;0,0334622
1556,2728;0,033558
1557,2371;0,0333759
1558,2013;0,0328821
1559,1655;0,0323974
1560,1298;0,032305
1561,0940;0,0325926
1562,0582;0,033058
1563,0225;0,0335581
1563,9867;0,0340271
1564,9509;0,0344378
1565,9152;0,0347803
1566,8794;0,035062
1567,8436;0,0353195
1568,8079;0,0356167
1569,7721;0,0360083
1570,7363;0,0364958
1571,7006;0,0370332
1572,6648;0,0375668
1573,6290;0,0380619
1574,5933;0,0385063
1575,5575;0,0389079
1576,5217;0,0392966
1577,4860;0,0397136
1578,4502;0,0401812
1579,4144;0,0406926
1580,3787;0,0412288
1581,3429;0,0417758
1582,3071;0,0423278
1583,2714;0,0428858
1584,2356;0,0434553
1585,1998;0,0440404
1586,1641;0,0446378
1587,1283;0,0452326
1588,0925;0,0458002
1589,0568;0,0463133
1590,0210;0,046748
1590,9852;0,0470846
1591,9495;0,0473052
1592,9137;0,0473935
1593,8779;0,0473434
1594,8422;0,0471685
1595,8064;0,0469028
1596,7706;0,0465871
1597,7349;0,0462536
1598,6991;0,0459186
1599,6633;0,045586
1600,6276;0,0452564
1601,5918;0,0449337
1602,5560;0,0446272
1603,5203;0,0443481
1604,4845;0,0441011
1605,4487;0,0438788
1606,4130;0,0436639
1607,3772;0,043443
1608,3414;0,043224
1609,3057;0,0430423
1610,2699;0,0429395
1611,2341;0,04293
1612,1984;0,0429867
1613,1626;0,043053
1614,1268;0,0430645
1615,0911;0,0429812
1616,0553;0,0428326
1617,0195;0,0427241
1617,9838;0,0427462
1618,9480;0,0428899
1619,9122;0,0430771
1620,8765;0,0432296
1621,8407;0,043306
1622,8049;0,0433154
1623,7692;0,0433079
1624,7334;0,0433344
1625,6976;0,0434065
1626,6619;0,0435024
1627,6261;0,0436043
1628,5903;0,0437204
1629,5546;0,0438736
1630,5188;0,044072
1631,4830;0,0442935
1632,4473;0,0444875
1633,4115;0,044581
1634,3757;0,0444987
1635,3400;0,044234
1636,3042;0,0439245
1637,2684;0,0437496
1638,2327;0,0437564
1639,1969;0,0438832
1640,1611;0,044063
1641,1254;0,0442589
1642,0896;0,0444484
1643,0538;0,0445994
1644,0181;0,0446545
1644,9823;0,0445455
1645,9465;0,0442671
1646,9108;0,0439506
1647,8750;0,0437684
1648,8392;0,0437571
1649,8035;0,0438039
1650,7677;0,0437176
1651,7319;0,0432668
1652,6962;0,0423313
1653,6604;0,0412367
1654,6246;0,040534
1655,5889;0,0403106
1656,5531;0,0403116
1657,5173;0,0403182
1658,4816;0,0402154
1659,4458;0,0399441
1660,4100;0,039479
1661,3743;0,0388533
1662,3385;0,0381858
1663,3027;0,0376258
1664,2670;0,0372437
1665,2312;0,0369953
1666,1954;0,0367674
1667,1597;0,0364319
1668,1239;0,0358977
1669,0881;0,0351833
1670,0524;0,0344416
1671,0166;0,0338367
1671,9808;0,0333932
1672,9451;0,0330064
1673,9093;0,0325585
1674,8735;0,0320151
1675,8378;0,0314561
1676,8020;0,0310104
1677,7662;0,0307452
1678,7305;0,0306263
1679,6947;0,0305578
1680,6589;0,0304186
1681,6232;0,0300726
1682,5874;0,0294083
1683,5516;0,0284796
1684,5159;0,0275852
1685,4801;0,026996
1686,4443;0,0267038
1687,4086;0,0265552
1688,3728;0,0264329
1689,3370;0,0262977
1690,3013;0,0261608
1691,2655;0,0260441
1692,2297;0,0259528
1693,1940;0,0258699
1694,1582;0,0257654
1695,1224;0,0256119
1696,0867;0,0253945
1697,0509;0,025111
1698,0151;0,0247712
1698,9794;0,0244097
1699,9436;0,0240968
1700,9078;0,0239062
1701,8721;0,0238604
1702,8363;0,0239191
1703,8005;0,0240148
1704,7648;0,0240952
1705,7290;0,0241489
1706,6932;0,0242087
1707,6575;0,0243242
1708,6217;0,0245246
1709,5859;0,0248039
1710,5502;0,0251351
1711,5144;0,0254871
1712,4786;0,0258299
1713,4429;0,0261313
1714,4071;0,026351
1715,3713;0,0264498
1716,3356;0,0264312
1717,2998;0,0263859
1718,2640;0,0264392
1719,2283;0,0266377
1720,1925;0,0269399
1721,1567;0,0272815
1722,1210;0,0276156
1723,0852;0,0279184
1724,0494;0,0281858
1725,0137;0,028429
1725,9779;0,0286672
1726,9421;0,0289176
1727,9064;0,0291849
1728,8706;0,0294548
1729,8348;0,0296904
1730,7991;0,0298314
1731,7633;0,0298073
1732,7275;0,029588
1733,6918;0,0292531
1734,6560;0,0289624
1735,6202;0,028807
1736,5845;0,0287461
1737,5487;0,0286782
1738,5129;0,0285171
1739,4772;0,0282284
1740,4414;0,0278406
1741,4056;0,0274254
1742,3699;0,0270459
1743,3341;0,0267169
1744,2983;0,0264106
1745,2626;0,0260855
1746,2268;0,0256998
1747,1910;0,0252116
1748,1553;0,0245878
1749,1195;0,0238411
1750,0837;0,0230623
1751,0480;0,0223762
1752,0122;0,0218487
1752,9764;0,0214541
1753,9407;0,0211197
1754,9049;0,0207814
1755,8691;0,0204153
1756,8334;0,0200367
1757,7976;0,0196736
1758,7618;0,0193325
1759,7261;0,0189918
1760,6903;0,0186289
1761,6545;0,0182562
1762,6188;0,0179223
1763,5830;0,0176749
1764,5472;0,0175238
1765,5115;0,0174393
1766,4757;0,0173775
1767,4399;0,0173019
1768,4042;0,0171892
1769,3684;0,0170229
1770,3326;0,0167896
1771,2969;0,0164931
1772,2611;0,0161806
1773,2253;0,015933
1774,1896;0,0158081
1775,1538;0,015801
1776,1180;0,0158598
1777,0823;0,0159223
1778,0465;0,0159416
1779,0107;0,0159004
1779,9750;0,0158128
1780,9392;0,0157112
1781,9034;0,0156235
1782,8677;0,0155612
1783,8319;0,0155263
1784,7961;0,0155242
1785,7604;0,0155643
1786,7246;0,0156485
1787,6888;0,0157605
1788,6531;0,0158652
1789,6173;0,0159171
1790,5815;0,0158793
1791,5458;0,0157539
1792,5100;0,0156017
1793,4742;0,015506
1794,4385;0,0155048
1795,4027;0,0155732
1796,3669;0,0156575
1797,3312;0,0157079
1798,2954;0,0156948
1799,2596;0,0156176
1800,2239;0,0155046
1801,1881;0,0153998
1802,1523;0,0153379
1803,1166;0,0153295
1804,0808;0,0153651
1805,0450;0,0154265
1806,0093;0,015494
1806,9735;0,0155488
1807,9377;0,0155735
1808,9020;0,015557
1809,8662;0,0155022
1810,8304;0,0154293
1811,7947;0,0153677
1812,7589;0,0153386
1813,7231;0,0153443
1814,6874;0,0153712
1815,6516;0,0154004
1816,6158;0,0154201
1817,5801;0,0154318
1818,5443;0,0154476
1819,5085;0,0154794
1820,4728;0,0155284
1821,4370;0,0155846
1822,4012;0,0156342
1823,3655;0,0156689
1824,3297;0,0156901
1825,2939;0,0157043
1826,2582;0,0157119
1827,2224;0,0157015
1828,1866;0,0156569
1829,1509;0,0155741
1830,1151;0,0154738
1831,0793;0,015393
1832,0436;0,0153583
1833,0078;0,0153696
1833,9720;0,0154075
1834,9363;0,0154514
1835,9005;0,015492
1836,8647;0,0155348
1837,8290;0,0155915
1838,7932;0,0156668
1839,7574;0,0157501
1840,7217;0,0158188
1841,6859;0,0158468
1842,6501;0,0158173
1843,6144;0,0157353
1844,5786;0,0156325
1845,5428;0,0155473
1846,5071;0,0154966
1847,4713;0,0154734
1848,4355;0,0154642
1849,3998;0,0154641
1850,3640;0,0154787
1851,3282;0,0155144
1852,2925;0,0155683
1853,2567;0,0156249
1854,2209;0,0156638
1855,1852;0,0156724
1856,1494;0,0156539
1857,1136;0,0156258
1858,0779;0,0156089
1859,0421;0,0156165
1860,0063;0,0156499
1860,9706;0,0157016
1861,9348;0,0157624
1862,8990;0,0158243
1863,8633;0,0158795
1864,8275;0,0159167
1865,7917;0,0159212
1866,7560;0,0158824
1867,7202;0,0158077
1868,6844;0,0157302
1869,6487;0,0156911
1870,6129;0,0157087
1871,5771;0,0157658
1872,5414;0,0158268
1873,5056;0,0158586
1874,4698;0,0158462
1875,4341;0,0157972
1876,3983;0,0157371
1877,3625;0,0156941
1878,3268;0,0156817
1879,2910;0,0156941
1880,2552;0,015715
1881,2195;0,0157335
1882,1837;0,0157529
1883,1479;0,0157872
1884,1122;0,0158472
1885,0764;0,0159279
1886,0406;0,0160064
1887,0049;0,0160526
1887,9691;0,0160455
1888,9333;0,0159881
1889,8976;0,0159068
1890,8618;0,0158348
1891,8260;0,0157918
1892,7903;0,0157773
1893,7545;0,0157792
1894,7188;0,0157866
1895,6830;0,0157971
1896,6472;0,0158141
1897,6115;0,0158409
1898,5757;0,0158747
1899,5399;0,0159083
1900,5042;0,0159345
1901,4684;0,0159502
1902,4326;0,0159572
1903,3969;0,0159601
1904,3611;0,0159637
1905,3253;0,0159714
1906,2896;0,015986
1907,2538;0,0160101
1908,2180;0,0160472
1909,1823;0,0160999
1910,1465;0,016168
1911,1107;0,0162464
1912,0750;0,0163233
1913,0392;0,0163814
1914,0034;0,0164025
1914,9677;0,0163742
1915,9319;0,0163001
1916,8961;0,0162052
1917,8604;0,0161293
1918,8246;0,0161054
1919,7888;0,0161398
1920,7531;0,0162109
1921,7173;0,0162833
1922,6815;0,0163254
1923,6458;0,0163214
1924,6100;0,0162738
1925,5742;0,0161978
1926,5385;0,0161113
1927,5027;0,0160298
1928,4669;0,0159645
1929,4312;0,0159225
1930,3954;0,0159063
1931,3596;0,0159142
1932,3239;0,0159414
1933,2881;0,0159824
1934,2523;0,0160305
1935,2166;0,0160764
1936,1808;0,01611
1937,1450;0,0161273
1938,1093;0,0161372
1939,0735;0,0161612
1940,0377;0,0162216
1941,0020;0,0163221
1941,9662;0,0164348
1942,9304;0,0165086
1943,8947;0,0165035
1944,8589;0,0164204
1945,8231;0,0163008
1946,7874;0,0162005
1947,7516;0,0161598
1948,7158;0,0161883
1949,6801;0,0162675
1950,6443;0,0163649
1951,6085;0,0164502
1952,5728;0,0165026
1953,5370;0,0165117
1954,5012;0,0164775
1955,4655;0,0164161
1956,4297;0,0163632
1957,3939;0,0163687
1958,3582;0,0164749
1959,3224;0,016689
1960,2866;0,0169671
1961,2509;0,0172266
1962,2151;0,0173863
1963,1793;0,017407
1964,1436;0,017308
1965,1078;0,0171527
1966,0720;0,0170126
1967,0363;0,0169306
1968,0005;0,0169051
1968,9647;0,0169052
1969,9290;0,0169044
1970,8932;0,0169048
1971,8574;0,0169339
1972,8217;0,0170233
1973,7859;0,0171829
1974,7501;0,0173889
1975,7144;0,0175902
1976,6786;0,0177295
1977,6428;0,0177649
1978,6071;0,0176792
1979,5713;0,0174804
1980,5355;0,0171978
1981,4998;0,016882
1982,4640;0,0166013
1983,4282;0,0164281
1984,3925;0,0164133
1985,3567;0,0165607
1986,3209;0,0168207
1987,2852;0,0171124
1988,2494;0,0173628
1989,2136;0,0175366
1990,1779;0,0176408
1991,1421;0,0177032
1992,1063;0,0177442
1993,0706;0,0177638
1994,0348;0,0177535
1994,9990;0,0177165
1995,9633;0,0176763
1996,9275;0,0176638
1997,8917;0,0176968
1998,8560;0,0177679
1999,8202;0,017855
2000,7844;0,0179461
2001,7487;0,0180557
2002,7129;0,0182125
2003,6771;0,0184243
2004,6414;0,0186481
2005,6056;0,0187965
2006,5698;0,0187901
2007,5341;0,0186232
2008,4983;0,0183876
2009,4625;0,0182252
2010,4268;0,0182446
2011,3910;0,018461
2012,3552;0,0187981
2013,3195;0,0191386
2014,2837;0,0193856
2015,2479;0,0195004
2016,2122;0,0195027
2017,1764;0,0194431
2018,1406;0,0193705
2019,1049;0,019315
2020,0691;0,0192891
2021,0333;0,0192972
2021,9976;0,0193413
2022,9618;0,0194209
2023,9260;0,0195323
2024,8903;0,0196673
2025,8545;0,0198131
2026,8187;0,0199487
2027,7830;0,0200423
2028,7472;0,0200554
2029,7114;0,0199592
2030,6757;0,0197553
2031,6399;0,019488
2032,6041;0,0192331
2033,5684;0,019065
2034,5326;0,019019
2035,4968;0,0190761
2036,4611;0,0191821
2037,4253;0,0192843
2038,3895;0,0193588
2039,3538;0,01941
2040,3180;0,0194474
2041,2822;0,0194628
2042,2465;0,0194292
2043,2107;0,0193268
2044,1749;0,0191719
2045,1392;0,0190218
2046,1034;0,0189431
2047,0676;0,0189616
2048,0320;0,0190338
2048,9961;0,01907
2049,9604;0,0189967
2050,9246;0,0188061
2051,8889;0,0185577
2052,8530;0,0183395
2053,8174;0,0182196
2054,7815;0,0182151
2055,7458;0,0182956
2056,7100;0,0184135
2057,6743;0,018538
2058,6384;0,0186652
2059,6028;0,0188026
2060,5669;0,0189421
2061,5313;0,0190499
2062,4954;0,0190805
2063,4597;0,0190082
2064,4238;0,01885
2065,3882;0,0186638
2066,3523;0,01852
2067,3167;0,0184662
2068,2808;0,0185065
2069,2451;0,0186076
2070,2092;0,0187206
2071,1736;0,0188064
2072,1377;0,0188485
2073,1021;0,0188498
2074,0662;0,0188205
2075,0305;0,018767
2075,9946;0,0186905
2076,9590;0,0185949
2077,9231;0,0184957
2078,8875;0,0184195
2079,8516;0,0183935
2080,8159;0,0184295
2081,7800;0,0185158
2082,7444;0,0186201
2083,7085;0,0187056
2084,6729;0,0187474
2085,6370;0,0187418
2086,6013;0,0187026
2087,5654;0,0186498
2088,5298;0,0185964
2089,4939;0,018544
2090,4583;0,0184865
2091,4224;0,0184204
2092,3867;0,0183525
2093,3508;0,0183011
2094,3152;0,0182875
2095,2793;0,0183231
2096,2437;0,0183996
2097,2078;0,0184909
2098,1721;0,0185649
2099,1362;0,0185983
2100,1006;0,0185852
2101,0647;0,0185345
2102,0291;0,0184626
2102,9932;0,0183849
2103,9575;0,0183156
2104,9216;0,0182697
2105,8860;0,0182651
2106,8501;0,0183167
2107,8145;0,0184277
2108,7786;0,0185829
2109,7429;0,0187518
2110,7070;0,0189017
2111,6714;0,0190102
2112,6355;0,0190708
2113,5999;0,0190875
2114,5640;0,0190648
2115,5283;0,0190033
2116,4924;0,0189046
2117,4568;0,0187807
2118,4209;0,0186595
2119,3853;0,0185763
2120,3494;0,0185555
2121,3137;0,0185948
2122,2778;0,0186624
2123,2422;0,0187147
2124,2063;0,0187232
2125,1707;0,0186934
2126,1348;0,0186615
2127,0991;0,0186705
2128,0632;0,0187411
2129,0276;0,0188592
2129,9917;0,0189876
2130,9561;0,0190943
2131,9202;0,0191757
2132,8845;0,0192555
2133,8486;0,01936
2134,8130;0,0194877
2135,7771;0,0196021
2136,7415;0,019658
2137,7056;0,0196422
2138,6699;0,0195932
2139,6340;0,019583
2140,5984;0,0196728
2141,5625;0,0198741
2142,5269;0,0201413
2143,4910;0,0203978
2144,4553;0,0205773
2145,4194;0,0206542
2146,3838;0,0206488
2147,3479;0,020609
2148,3123;0,0205843
2149,2764;0,0206045
2150,2407;0,0206725
2151,2048;0,0207722
2152,1692;0,0208866
2153,1333;0,021019
2154,0977;0,0211985
2155,0618;0,0214634
2156,0261;0,0218197
2156,9902;0,0222032
2157,9546;0,0224862
2158,9187;0,0225565
2159,8831;0,0224123
2160,8472;0,0221725
2161,8115;0,0219825
2162,7756;0,0219109
2163,7400;0,0219173
2164,7041;0,0218993
2165,6685;0,0217731
2166,6326;0,0215321
2167,5969;0,0212458
2168,5610;0,0210072
2169,5254;0,0208705
2170,4895;0,0208239
2171,4539;0,0208069
2172,4180;0,0207549
2173,3823;0,0206397
2174,3464;0,0204837
2175,3108;0,0203451
2176,2749;0,020287
2177,2393;0,0203484
2178,2034;0,0205287
2179,1677;0,020785
2180,1318;0,0210418
2181,0962;0,0212138
2182,0603;0,0212381
2183,0247;0,0211034
2183,9888;0,0208558
2184,9531;0,0205745
2185,9172;0,0203325
2186,8816;0,0201659
2187,8457;0,0200714
2188,8101;0,0200262
2189,7742;0,020014
2190,7385;0,0200366
2191,7026;0,0201038
2192,6670;0,0202141
2193,6311;0,0203424
2194,5955;0,0204476
2195,5596;0,0204928
2196,5239;0,0204626
2197,4880;0,0203651
2198,4524;0,0202199
2199,4165;0,0200451
2200,3809;0,0198567
2201,3450;0,0196777
2202,3093;0,0195442
2203,2734;0,0194965
2204,2378;0,0195562
2205,2019;0,019706
2206,1663;0,01989
2207,1304;0,0200395
2208,0947;0,0201082
2209,0588;0,0200924
2210,0232;0,0200251
2210,9873;0,0199506
2211,9517;0,0198983
2212,9158;0,0198737
2213,8801;0,0198671
2214,8442;0,0198669
2215,8086;0,0198665
2216,7727;0,0198619
2217,7371;0,0198474
2218,7012;0,0198167
2219,6655;0,0197702
2220,6296;0,0197184
2221,5940;0,0196779
2222,5581;0,019661
2223,5225;0,0196679
2224,4866;0,0196894
2225,4509;0,0197157
2226,4150;0,0197443
2227,3794;0,0197774
2228,3435;0,0198131
2229,3079;0,0198374
2230,2720;0,0198269
2231,2363;0,0197624
2232,2004;0,0196438
2233,1648;0,0194959
2234,1289;0,0193604
2235,0933;0,0192769
2236,0574;0,0192647
2237,0217;0,0193125
2237,9858;0,0193828
2238,9502;0,0194272
2239,9143;0,0194073
2240,8787;0,0193121
2241,8428;0,0191651
2242,8071;0,0190156
2243,7712;0,0189182
2244,7356;0,0189079
2245,6997;0,0189838
2246,6641;0,0191097
2247,6282;0,0192314
2248,5925;0,0193023
2249,5566;0,019304
2250,5210;0,0192512
2251,4851;0,019179
2252,4495;0,0191225
2253,4136;0,0190981
2254,3779;0,0190988
2255,3420;0,0191038
2256,3064;0,0190958
2257,2705;0,0190726
2258,2349;0,0190466
2259,1990;0,0190337
2260,1633;0,0190397
2261,1274;0,019056
2262,0918;0,0190659
2263,0559;0,0190574
2264,0203;0,0190328
2264,9844;0,019007
2265,9487;0,0189963
2266,9128;0,0190063
2267,8772;0,0190281
2268,8413;0,0190453
2269,8057;0,0190463
2270,7698;0,0190314
2271,7341;0,0190117
2272,6982;0,0189985
2273,6626;0,0189945
2274,6267;0,0189915
2275,5911;0,0189768
2276,5552;0,0189426
2277,5195;0,0188913
2278,4836;0,0188345
2279,4480;0,0187858
2280,4121;0,0187558
2281,3765;0,0187511
2282,3406;0,0187758
2283,3049;0,0188327
2284,2690;0,0189189
2285,2334;0,0190218
2286,1975;0,0191186
2287,1619;0,0191838
2288,1260;0,0192025
2289,0903;0,0191805
2290,0544;0,0191441
2291,0188;0,0191274
2291,9829;0,0191541
2292,9473;0,0192255
2293,9114;0,0193215
2294,8757;0,0194123
2295,8398;0,0194735
2296,8042;0,0194956
2297,7683;0,0194834
2298,7327;0,0194501
2299,6968;0,0194108
2300,6611;0,0193789
2301,6252;0,0193649
2302,5896;0,0193742
2303,5537;0,0194047
2304,5181;0,0194452
2305,4822;0,0194785
2306,4465;0,019488
2307,4106;0,0194661
2308,3750;0,0194189
2309,3391;0,0193621
2310,3035;0,0193125
2311,2676;0,0192794
2312,2319;0,0192613
2313,1960;0,019251
2314,1604;0,0192423
2315,1245;0,0192347
2316,0889;0,0192335
2317,0530;0,0192466
2318,0173;0,0192808
2318,9814;0,0193387
2319,9458;0,0194165
2320,9099;0,019505
2321,8743;0,0195924
2322,8384;0,0196673
2323,8027;0,0197191
2324,7668;0,0197376
2325,7312;0,0197161
2326,6953;0,0196571
2327,6597;0,0195771
2328,6238;0,0195032
2329,5881;0,0194647
2330,5522;0,0194805
2331,5166;0,0195519
2332,4807;0,0196612
2333,4451;0,0197779
2334,4092;0,0198687
2335,3735;0,0199086
2336,3376;0,0198886
2337,3020;0,0198199
2338,2661;0,0197285
2339,2305;0,0196401
2340,1946;0,0195608
2341,1589;0,0194678
2342,1230;0,0193258
2343,0874;0,0191349
2344,0515;0,0189779
2345,0159;0,0189826
2345,9800;0,0192056
2346,9443;0,0195761
2347,9084;0,0199559
2348,8728;0,0202275
2349,8369;0,0203436
2350,8013;0,0203337
2351,7654;0,0202806
2352,7297;0,020272
2353,6938;0,0203485
2354,6582;0,0204849
2355,6223;0,0206204
2356,5867;0,0206976
2357,5508;0,0206807
2358,5151;0,020563
2359,4792;0,0203708
2360,4436;0,0201486
2361,4077;0,0199261
2362,3721;0,0196972
2363,3362;0,0194351
2364,3005;0,019128
2365,2646;0,0188004
2366,2290;0,0185006
2367,1931;0,01827
2368,1575;0,0181214
2369,1216;0,0180384
2370,0859;0,0179903
2371,0500;0,0179485
2372,0144;0,0178989
2372,9785;0,0178452
2373,9429;0,0178059
2374,9070;0,0178059
2375,8713;0,0178648
2376,8354;0,0179883
2377,7998;0,0181647
2378,7639;0,0183697
2379,7283;0,0185748
2380,6924;0,0187569
2381,6567;0,0189043
2382,6208;0,019017
2383,5852;0,019103
2384,5493;0,0191725
2385,5137;0,0192336
2386,4778;0,0192904
2387,4421;0,0193435
2388,4063;0,0193917
2389,3706;0,0194345
2390,3347;0,0194722
2391,2991;0,0195051
2392,2632;0,0195333
2393,2275;0,0195553
2394,1917;0,0195694
2395,1560;0,0195747
2396,1201;0,0195727
2397,0845;0,0195674
2398,0486;0,0195657
2399,0129;0,0195742
2399,9771;0,0195968
2400,9414;0,0196325
2401,9055;0,0196742
2402,8699;0,0197117
2403,8340;0,0197365
2404,7983;0,0197463
2405,7625;0,0197474
2406,7268;0,0197514
2407,6909;0,0197689
2408,6553;0,0198039
2409,6194;0,019851
2410,5837;0,0198993
2411,5479;0,019938
2412,5122;0,0199625
2413,4763;0,0199758
2414,4407;0,0199855
2415,4048;0,0199985
2416,3691;0,0200173
2417,3333;0,020039
2418,2976;0,0200585
2419,2617;0,0200719
2420,2261;0,0200799
2421,1902;0,0200866
2422,1545;0,0200967
2423,1187;0,0201122
2424,0830;0,0201307
2425,0471;0,0201479
2426,0115;0,0201608
2426,9756;0,02017
2427,9399;0,0201796
2428,9041;0,0201938
2429,8684;0,0202141
2430,8325;0,0202384
2431,7969;0,0202633
2432,7610;0,0202868
2433,7253;0,0203095
2434,6895;0,020333
2435,6538;0,0203574
2436,6179;0,0203804
2437,5823;0,0203986
2438,5464;0,0204105
2439,5107;0,020418
2440,4749;0,0204259
2441,4392;0,0204393
2442,4033;0,0204609
2443,3677;0,0204898
2444,3318;0,0205225
2445,2961;0,0205532
2446,2603;0,0205763
2447,2246;0,0205879
2448,1887;0,0205879
2449,1531;0,020581
2450,1172;0,020575
2451,0815;0,0205781
2452,0457;0,0205944
2453,0100;0,020622
2453,9741;0,020655
2454,9385;0,0206862
2455,9026;0,0207108
2456,8669;0,0207274
2457,8311;0,0207374
2458,7954;0,0207436
2459,7595;0,020749
2460,7239;0,0207568
2461,6880;0,0207693
2462,6523;0,0207875
2463,6165;0,0208095
2464,5808;0,0208306
2465,5449;0,0208458
2466,5093;0,0208516
2467,4734;0,0208483
2468,4377;0,0208397
2469,4019;0,0208325
2470,3662;0,0208347
2471,3303;0,0208533
2472,2947;0,020892
2473,2588;0,0209475
2474,2231;0,0210082
2475,1873;0,021057
2476,1516;0,0210771
2477,1157;0,0210611
2478,0801;0,0210157
2479,0442;0,0209599
2480,0085;0,0209162
2480,9727;0,0209009
2481,9370;0,0209175
2482,9011;0,0209581
2483,8655;0,0210095
2484,8296;0,0210605
2485,7939;0,0211042
2486,7581;0,0211383
2487,7224;0,021162
2488,6865;0,0211759
2489,6509;0,0211822
2490,6150;0,0211855
2491,5793;0,0211913
2492,5435;0,0212028
2493,5078;0,0212192
2494,4719;0,0212366
2495,4363;0,0212521
2496,4004;0,0212666
2497,3647;0,0212842
2498,3289;0,0213083
2499,2932;0,0213374
2500,2573;0,0213639
2501,2217;0,0213782
2502,1858;0,0213742
2503,1501;0,0213544
2504,1143;0,0213285
2505,0786;0,0213087
2506,0427;0,0213044
2507,0071;0,0213183
2507,9712;0,0213472
2508,9355;0,0213844
2509,8997;0,0214236
2510,8640;0,0214598
2511,8281;0,0214899
2512,7925;0,0215123
2513,7566;0,0215265
2514,7209;0,0215321
2515,6851;0,0215296
2516,6494;0,0215202
2517,6135;0,0215069
2518,5779;0,0214951
2519,5420;0,0214921
2520,5063;0,0215041
2521,4705;0,021533
2522,4348;0,0215738
2523,3989;0,0216155
2524,3633;0,0216453
2525,3274;0,0216551
2526,2917;0,0216457
2527,2559;0,0216273
2528,2202;0,0216149
2529,1843;0,0216214
2530,1487;0,0216515
2531,1128;0,0216993
2532,0771;0,0217499
2533,0413;0,0217856
2534,0056;0,0217924
2534,9697;0,0217666
2535,9341;0,021717
2536,8982;0,0216619
2537,8625;0,021622
2538,8267;0,021611
2539,7910;0,0216303
2540,7551;0,0216694
2541,7195;0,0217127
2542,6836;0,0217485
2543,6479;0,0217739
2544,6121;0,0217935
2545,5764;0,0218132
2546,5405;0,0218341
2547,5049;0,0218509
2548,4690;0,0218563
2549,4333;0,0218463
2550,3975;0,0218244
2551,3618;0,0217994
2552,3259;0,0217809
2553,2903;0,0217746
2554,2544;0,0217809
2555,2188;0,0217967
2556,1829;0,0218182
2557,1472;0,0218432
2558,1113;0,0218714
2559,0757;0,0219023
2560,0398;0,0219339
2561,0042;0,0219621
2561,9683;0,0219809
2562,9326;0,0219854
2563,8967;0,0219747
2564,8611;0,0219531
2565,8252;0,0219298
2566,7896;0,0219143
2567,7537;0,021912
2568,7180;0,0219219
2569,6821;0,0219385
2570,6465;0,0219566
2571,6106;0,0219747
2572,5750;0,0219945
2573,5391;0,0220177
2574,5034;0,0220413
2575,4675;0,0220581
2576,4319;0,0220611
2577,3960;0,0220498
2578,3604;0,0220317
2579,3245;0,0220195
2580,2888;0,0220233
2581,2529;0,0220442
2582,2173;0,0220742
2583,1814;0,0221013
2584,1458;0,022117
2585,1099;0,0221213
2586,0742;0,0221216
2587,0383;0,0221277
2588,0027;0,0221459
2588,9668;0,0221752
2589,9312;0,0222085
2590,8953;0,0222358
2591,8596;0,0222503
2592,8237;0,0222514
2593,7881;0,0222454
2594,7522;0,0222417
2595,7166;0,0222471
2596,6807;0,022262
2597,6450;0,0222796
2598,6091;0,0222917
2599,5735;0,022295
2600,5376;0,022295
2601,5020;0,0223036
2602,4661;0,0223313
2603,4304;0,0223793
2604,3945;0,0224378
2605,3589;0,0224912
2606,3230;0,0225282
2607,2874;0,0225484
2608,2515;0,0225613
2609,2158;0,0225787
2610,1799;0,0226057
2611,1443;0,0226377
2612,1084;0,0226639
2613,0728;0,0226758
2614,0369;0,0226724
2615,0012;0,0226602
2615,9653;0,0226487
2616,9297;0,0226445
2617,8938;0,0226498
2618,8582;0,0226631
2619,8223;0,0226828
2620,7866;0,0227075
2621,7507;0,0227352
2622,7151;0,0227623
2623,6792;0,0227842
2624,6436;0,0227987
2625,6077;0,0228083
2626,5720;0,0228198
2627,5361;0,0228404
2628,5005;0,022873
2629,4646;0,0229145
2630,4290;0,0229573
2631,3931;0,0229937
2632,3574;0,0230198
2633,3215;0,023036
2634,2859;0,0230445
2635,2500;0,0230465
2636,2144;0,0230422
2637,1785;0,0230324
2638,1428;0,0230215
2639,1069;0,0230176
2640,0713;0,0230292
2641,0354;0,0230607
2641,9998;0,0231084
2642,9639;0,0231619
2643,9282;0,0232089
2644,8923;0,0232411
2645,8567;0,0232577
2646,8208;0,0232644
2647,7852;0,0232692
2648,7493;0,023278
2649,7136;0,0232923
2650,6777;0,0233104
2651,6421;0,0233298
2652,6062;0,0233492
2653,5706;0,0233687
2654,5347;0,0233892
2655,4990;0,0234105
2656,4631;0,0234316
2657,4275;0,023451
2658,3916;0,0234677
2659,3560;0,0234818
2660,3201;0,0234939
2661,2844;0,0235051
2662,2485;0,0235157
2663,2129;0,0235257
2664,1770;0,0235349
2665,1414;0,0235438
2666,1055;0,0235534
2667,0698;0,0235652
2668,0339;0,0235798
2668,9983;0,0235964
2669,9624;0,0236133
2670,9268;0,0236291
2671,8909;0,0236444
2672,8552;0,0236622
2673,8193;0,0236862
2674,7837;0,0237176
2675,7478;0,0237534
2676,7122;0,023787
2677,6763;0,0238119
2678,6406;0,0238264
2679,6047;0,0238346
2680,5691;0,0238449
2681,5332;0,0238647
2682,4976;0,023896
2683,4617;0,0239344
2684,4260;0,0239728
2685,3901;0,0240056
2686,3545;0,0240319
2687,3186;0,0240555
2688,2830;0,0240806
2689,2471;0,0241091
2690,2114;0,0241392
2691,1755;0,0241668
2692,1399;0,0241884
2693,1040;0,0242037
2694,0684;0,0242153
2695,0325;0,0242272
2695,9968;0,0242434
2696,9609;0,0242662
2697,9253;0,024296
2698,8894;0,0243312
2699,8538;0,0243694
2700,8179;0,0244075
2701,7822;0,0244431
2702,7463;0,0244748
2703,7107;0,024503
2704,6748;0,0245295
2705,6392;0,0245564
2706,6033;0,0245859
2707,5676;0,0246186
2708,5317;0,0246534
2709,4961;0,0246876
2710,4602;0,0247183
2711,4246;0,0247431
2712,3887;0,0247624
2713,3530;0,0247785
2714,3171;0,0247953
2715,2815;0,0248158
2716,2456;0,0248407
2717,2100;0,0248683
2718,1741;0,0248959
2719,1384;0,0249214
2720,1025;0,0249443
2721,0669;0,0249646
2722,0310;0,0249822
2722,9954;0,0249967
2723,9595;0,0250082
2724,9238;0,0250188
2725,8879;0,025033
2726,8523;0,0250553
2727,8164;0,025088
2728,7808;0,0251298
2729,7449;0,0251761
2730,7092;0,0252221
2731,6733;0,0252638
2732,6377;0,025299
2733,6018;0,0253257
2734,5662;0,0253415
2735,5303;0,0253453
2736,4946;0,0253387
2737,4587;0,0253279
2738,4231;0,0253218
2739,3872;0,0253283
2740,3516;0,0253505
2741,3157;0,0253856
2742,2800;0,025426
2743,2441;0,0254632
2744,2085;0,0254912
2745,1726;0,0255072
2746,1370;0,0255124
2747,1011;0,0255111
2748,0654;0,0255095
2749,0295;0,0255151
2749,9939;0,0255333
2750,9580;0,0255654
2751,9224;0,0256068
2752,8865;0,0256487
2753,8508;0,0256825
2754,8149;0,0257041
2755,7793;0,0257161
2756,7434;0,0257265
2757,7078;0,0257438
2758,6719;0,0257723
2759,6362;0,025811
2760,6003;0,0258548
2761,5647;0,0258987
2762,5288;0,0259395
2763,4932;0,0259764
2764,4573;0,0260092
2765,4216;0,0260379
2766,3857;0,0260628
2767,3501;0,0260853
2768,3142;0,0261088
2769,2786;0,0261361
2770,2427;0,0261676
2771,2070;0,0262001
2772,1711;0,0262297
2773,1355;0,0262548
2774,0996;0,0262792
2775,0640;0,0263105
2776,0281;0,0263555
2776,9924;0,0264155
2777,9565;0,0264846
2778,9209;0,0265529
2779,8850;0,0266118
2780,8494;0,0266585
2781,8135;0,0266961
2782,7778;0,0267303
2783,7419;0,0267653
2784,7063;0,0268017
2785,6704;0,0268375
2786,6348;0,0268713
2787,5989;0,0269053
2788,5632;0,0269446
2789,5273;0,026995
2790,4917;0,0270594
2791,4558;0,0271352
2792,4202;0,0272153
2793,3843;0,0272911
2794,3486;0,0273572
2795,3127;0,0274136
2796,2771;0,0274656
2797,2412;0,0275212
2798,2056;0,0275861
2799,1697;0,0276613
2800,1340;0,0277428
2801,0981;0,0278243
2802,0625;0,0279012
2803,0266;0,0279733
2803,9910;0,0280441
2804,9551;0,0281185
2805,9194;0,028199
2806,8835;0,0282844
2807,8479;0,0283708
2808,8120;0,0284547
2809,7764;0,0285359
2810,7405;0,0286178
2811,7048;0,0287051
2812,6689;0,0288004
2813,6333;0,0289014
2814,5974;0,0290031
2815,5618;0,0291005
2816,5259;0,0291933
2817,4902;0,029287
2818,4543;0,0293895
2819,4187;0,0295069
2820,3828;0,0296387
2821,3472;0,029778
2822,3113;0,0299155
2823,2756;0,030045
2824,2397;0,0301676
2825,2041;0,0302905
2826,1682;0,0304236
2827,1326;0,0305734
2828,0967;0,0307409
2829,0610;0,0309217
2830,0251;0,0311097
2830,9895;0,0313008
2831,9536;0,0314946
2832,9180;0,0316933
2833,8821;0,0319002
2834,8464;0,0321175
2835,8105;0,0323474
2836,7749;0,0325932
2837,7390;0,0328602
2838,7034;0,0331554
2839,6675;0,0334859
2840,6318;0,0338574
2841,5959;0,0342739
2842,5603;0,0347367
2843,5244;0,0352434
2844,4888;0,0357838
2845,4529;0,0363367
2846,4172;0,0368684
2847,3813;0,0373365
2848,3457;0,0377007
2849,3098;0,0379331
2850,2742;0,0380276
2851,2383;0,038
2852,2026;0,0378825
2853,1667;0,0377132
2854,1311;0,0375272
2855,0952;0,03735
2856,0596;0,0371959
2857,0237;0,0370701
2857,9880;0,0369719
2858,9521;0,0368988
2859,9165;0,0368496
2860,8806;0,0368252
2861,8450;0,0368279
2862,8091;0,0368586
2863,7734;0,0369164
2864,7375;0,0369977
2865,7019;0,0370975
2866,6660;0,0372101
2867,6304;0,0373289
2868,5945;0,037446
2869,5588;0,0375521
2870,5229;0,0376381
2871,4873;0,0376986
2872,4514;0,037734
2873,4158;0,0377514
2874,3799;0,0377623
2875,3442;0,0377789
2876,3083;0,03781
2877,2727;0,0378594
2878,2368;0,0379259
2879,2012;0,0380051
2880,1653;0,0380917
2881,1296;0,0381813
2882,0938;0,0382715
2883,0581;0,0383622
2884,0222;0,0384544
2884,9866;0,0385493
2885,9507;0,0386478
2886,9150;0,0387504
2887,8792;0,0388578
2888,8435;0,0389704
2889,8076;0,0390881
2890,7720;0,0392083
2891,7361;0,0393266
2892,7004;0,0394376
2893,6646;0,0395388
2894,6289;0,0396328
2895,5930;0,039727
2896,5574;0,0398299
2897,5215;0,0399456
2898,4858;0,0400702
2899,4500;0,0401931
2900,4143;0,0403021
2901,3784;0,0403906
2902,3428;0,0404612
2903,3069;0,0405253
2904,2712;0,0405974
2905,2354;0,0406902
2906,1997;0,0408116
2907,1638;0,0409656
2908,1282;0,0411551
2909,0923;0,0413837
2910,0566;0,0416538
2911,0208;0,0419619
2911,9851;0,0422949
2912,9492;0,0426293
2913,9136;0,0429348
2914,8777;0,0431823
2915,8420;0,0433498
2916,8062;0,0434274
2917,7705;0,0434157
2918,7346;0,0433233
2919,6990;0,0431621
2920,6631;0,0429447
2921,6274;0,0426836
2922,5916;0,042391
2923,5559;0,0420784
2924,5200;0,0417559
2925,4844;0,0414304
2926,4485;0,0411064
2927,4128;0,0407866
2928,3770;0,0404736
2929,3413;0,0401704
2930,3054;0,0398795
2931,2698;0,0396012
2932,2339;0,039333
2933,1982;0,0390709
2934,1624;0,038811
2935,1267;0,0385517
2936,0908;0,038294
2937,0552;0,0380403
2938,0193;0,0377925
2938,9836;0,0375503
2939,9478;0,0373114
2940,9121;0,0370722
2941,8762;0,03683
2942,8406;0,0365848
2943,8047;0,03634
2944,7690;0,0361016
2945,7332;0,0358764
2946,6975;0,0356693
2947,6616;0,0354812
2948,6260;0,0353095
2949,5901;0,0351505
2950,5544;0,0350015
2951,5186;0,0348624
2952,4829;0,0347338
2953,4470;0,0346146
2954,4114;0,0344995
2955,3755;0,0343805
2956,3398;0,0342498
2957,3040;0,0341037
2958,2683;0,0339446
2959,2324;0,033779
2960,1968;0,0336136
2961,1609;0,0334517
2962,1252;0,0332924
2963,0894;0,0331331
2964,0537;0,0329721
2965,0178;0,0328109
2965,9822;0,0326524
2966,9463;0,0324985
2967,9106;0,0323469
2968,8748;0,0321923
2969,8391;0,0320287
2970,8032;0,031854
2971,7676;0,0316725
2972,7317;0,0314943
2973,6960;0,0313308
2974,6602;0,0311898
2975,6245;0,0310718
2976,5886;0,0309705
2977,5530;0,030877
2978,5171;0,0307852
2979,4814;0,0306944
2980,4456;0,0306081
2981,4099;0,0305305
2982,3740;0,0304625
2983,3384;0,0304015
2984,3025;0,0303432
2985,2668;0,0302854
2986,2310;0,0302293
2987,1953;0,0301779
2988,1594;0,0301336
2989,1238;0,0300958
2990,0879;0,0300626
2991,0522;0,0300328
2992,0164;0,0300077
2992,9807;0,0299907
2993,9448;0,0299847
2994,9092;0,0299909
2995,8733;0,0300081
2996,8376;0,030034
2997,8018;0,0300665
2998,7661;0,0301026
2999,7302;0,0301383
3000,6946;0,0301684
3001,6587;0,0301896
3002,6230;0,0302033
3003,5872;0,0302164
3004,5515;0,0302384
3005,5156;0,0302752
3006,4800;0,0303254
3007,4441;0,0303803
3008,4084;0,0304287
3009,3726;0,0304641
3010,3369;0,030488
3011,3010;0,030509
3012,2654;0,0305373
3013,2295;0,0305782
3014,1938;0,0306305
3015,1580;0,0306882
3016,1223;0,0307457
3017,0864;0,0308021
3018,0508;0,0308604
3019,0149;0,0309253
3019,9792;0,0309979
3020,9434;0,0310746
3021,9077;0,0311492
3022,8718;0,031217
3023,8362;0,0312793
3024,8003;0,0313424
3025,7646;0,0314141
3026,7288;0,0314977
3027,6931;0,0315891
3028,6572;0,031678
3029,6216;0,0317533
3030,5857;0,0318089
3031,5500;0,0318474
3032,5142;0,0318792
3033,4785;0,0319181
3034,4426;0,0319759
3035,4070;0,0320581
3036,3711;0,0321622
3037,3354;0,0322784
3038,2996;0,0323938
3039,2639;0,0324965
3040,2280;0,0325811
3041,1924;0,0326505
3042,1565;0,0327148
3043,1208;0,0327857
3044,0850;0,0328699
3045,0493;0,0329659
3046,0134;0,0330656
3046,9778;0,0331601
3047,9419;0,0332467
3048,9063;0,0333308
3049,8704;0,033423
3050,8347;0,0335313
3051,7988;0,0336556
3052,7632;0,0337866
3053,7273;0,0339109
3054,6917;0,0340184
3055,6558;0,0341079
3056,6201;0,034187
3057,5842;0,0342669
3058,5486;0,0343561
3059,5127;0,0344565
3060,4771;0,0345645
3061,4412;0,0346739
3062,4055;0,0347799
3063,3696;0,0348795
3064,3340;0,0349715
3065,2981;0,0350554
3066,2625;0,0351317
3067,2266;0,0352032
3068,1909;0,035276
3069,1550;0,0353576
3070,1194;0,0354545
3071,0835;0,0355676
3072,0479;0,035691
3073,0120;0,0358137
3073,9763;0,0359244
3074,9404;0,0360168
3075,9048;0,0360931
3076,8689;0,0361631
3077,8333;0,0362383
3078,7974;0,0363268
3079,7617;0,0364292
3080,7258;0,036539
3081,6902;0,0366474
3082,6543;0,0367476
3083,6187;0,0368372
3084,5828;0,036918
3085,5471;0,0369943
3086,5112;0,0370705
3087,4756;0,0371509
3088,4397;0,0372383
3089,4041;0,0373332
3090,3682;0,0374333
3091,3325;0,0375342
3092,2966;0,0376318
3093,2610;0,0377255
3094,2251;0,0378185
3095,1895;0,0379158
3096,1536;0,0380196
3097,1179;0,0381269
3098,0820;0,0382305
3099,0464;0,0383245
3100,0105;0,0384086
3100,9749;0,0384903
3101,9390;0,0385804
3102,9033;0,0386868
3103,8674;0,0388096
3104,8318;0,0389412
3105,7959;0,0390716
3106,7603;0,0391941
3107,7244;0,0393092
3108,6887;0,0394238
3109,6528;0,0395459
3110,6172;0,039679
3111,5813;0,0398187
3112,5457;0,0399548
3113,5098;0,0400763
3114,4741;0,0401772
3115,4382;0,0402603
3116,4026;0,0403351
3117,3667;0,0404136
3118,3311;0,0405044
3119,2952;0,0406101
3120,2595;0,0407281
3121,2236;0,0408534
3122,1880;0,0409817
3123,1521;0,0411109
3124,1165;0,0412403
3125,0806;0,0413702
3126,0449;0,0415002
3127,0090;0,0416287
3127,9734;0,0417531
3128,9375;0,0418698
3129,9019;0,0419767
3130,8660;0,0420749
3131,8303;0,0421703
3132,7944;0,0422731
3133,7588;0,0423936
3134,7229;0,0425373
3135,6873;0,0427013
3136,6514;0,0428754
3137,6157;0,0430462
3138,5798;0,0432027
3139,5442;0,0433405
3140,5083;0,043462
3141,4727;0,0435745
3142,4368;0,043687
3143,4011;0,0438075
3144,3652;0,043941
3145,3296;0,0440888
3146,2937;0,0442475
3147,2581;0,0444096
3148,2222;0,0445663
3149,1865;0,0447105
3150,1506;0,0448406
3151,1150;0,0449609
3152,0791;0,0450793
3153,0435;0,045203
3154,0076;0,0453346
3154,9719;0,0454714
3155,9360;0,0456082
3156,9004;0,0457405
3157,8645;0,0458677
3158,8289;0,0459929
3159,7930;0,0461216
3160,7573;0,0462586
3161,7214;0,0464063
3162,6858;0,0465634
3163,6499;0,0467264
3164,6143;0,0468908
3165,5784;0,0470534
3166,5427;0,0472127
3167,5068;0,0473686
3168,4712;0,0475212
3169,4353;0,0476607
3170,3997;0,0478025
3171,3638;0,0479367
3172,3281;0,0480641
3173,2922;0,0481884
3174,2566;0,0483149
3175,2207;0,0484489
3176,1851;0,0485928
3177,1492;0,0487456
3178,1135;0,0489038
3179,0776;0,0490621
3180,0420;0,0492158
3181,0061;0,0493616
3181,9705;0,0494983
3182,9346;0,0496271
3183,8989;0,0497507
3184,8630;0,0498731
3185,8274;0,0499975
3186,7915;0,0501258
3187,7559;0,0502589
3188,7200;0,0503977
3189,6843;0,0505427
3190,6484;0,0506941
3191,6128;0,0508493
3192,5769;0,0510031
3193,5413;0,0511487
3194,5054;0,0512818
3195,4697;0,0514032
3196,4338;0,0515194
3197,3982;0,0516401
3198,3623;0,0517732
3199,3267;0,0519206
3200,2908;0,0520776
3201,2551;0,0522351
3202,2192;0,0523847
3203,1836;0,052522
3204,1477;0,0526484
3205,1121;0,0527693
3206,0762;0,052891
3207,0405;0,0530175
3208,0046;0,0531481
3208,9690;0,0532795
3209,9331;0,053408
3210,8975;0,0535332
3211,8616;0,0536584
3212,8259;0,0537882
3213,7900;0,0539251
3214,7544;0,054067
3215,7185;0,0542076
3216,6829;0,0543411
3217,6470;0,0544657
3218,6113;0,0545855
3219,5754;0,0547075
3220,5398;0,0548372
3221,5039;0,0549748
3222,4683;0,0551158
3223,4324;0,0552544
3224,3967;0,0553881
3225,3608;0,0555197
3226,3252;0,0556553
3227,2893;0,055799
3228,2537;0,0559493
3229,2178;0,0560984
3230,1821;0,056236
3231,1462;0,0563553
3232,1106;0,0564581
3233,0747;0,0565546
3234,0391;0,0566592
3235,0032;0,0567841
3235,9675;0,0569347
3236,9316;0,0571074
3237,8960;0,0572928
3238,8601;0,0574792
3239,8245;0,0576564
3240,7886;0,0578176
3241,7529;0,0579597
3242,7170;0,0580834
3243,6814;0,0581935
3244,6455;0,0582983
3245,6099;0,0584078
3246,5740;0,0585318
3247,5383;0,058676
3248,5024;0,0588412
3249,4668;0,0590233
3250,4309;0,0592143
3251,3953;0,059405
3252,3594;0,0595869
3253,3237;0,0597542
3254,2878;0,0599063
3255,2522;0,0600477
3256,2163;0,0601861
3257,1807;0,0603292
3258,1448;0,0604804
3259,1091;0,0606387
3260,0732;0,0607999
3261,0376;0,0609608
3262,0017;0,0611215
3262,9661;0,0612842
3263,9302;0,0614505
3264,8945;0,0616179
3265,8586;0,0617801
3266,8230;0,0619306
3267,7871;0,0620666
3268,7515;0,0621892
3269,7156;0,0623008
3270,6799;0,0624012
3271,6440;0,0624863
3272,6084;0,0625518
3273,5725;0,062599
3274,5369;0,0626378
3275,5010;0,0626832
3276,4653;0,062747
3277,4294;0,062831
3278,3938;0,0629247
3279,3579;0,0630115
3280,3223;0,0630775
3281,2864;0,0631175
3282,2507;0,0631365
3283,2148;0,0631452
3284,1792;0,0631541
3285,1433;0,0631691
3286,1077;0,0631908
3287,0718;0,0632166
3288,0361;0,0632425
3289,0002;0,0632654
3289,9646;0,0632828
3290,9287;0,0632933
3291,8931;0,0632968
3292,8572;0,0632941
3293,8215;0,0632871
3294,7856;0,0632774
3295,7500;0,0632664
3296,7141;0,0632541
3297,6785;0,0632401
3298,6426;0,0632246
3299,6069;0,0632093
3300,5710;0,0631977
3301,5354;0,0631935
3302,4995;0,0631981
3303,4639;0,0632088
3304,4280;0,063218
3305,3923;0,0632166
3306,3564;0,0631978
3307,3208;0,0631618
3308,2849;0,0631171
3309,2493;0,0630765
3310,2134;0,0630524
3311,1777;0,0630501
3312,1418;0,063067
3313,1062;0,0630946
3314,0703;0,0631238
3315,0347;0,0631504
3315,9988;0,0631764
3316,9631;0,0632086
3317,9272;0,0632539
3318,8916;0,0633153
3319,8557;0,0633898
3320,8201;0,0634702
3321,7842;0,063549
3322,7485;0,0636225
3323,7126;0,0636923
3324,6770;0,0637645
3325,6411;0,0638445
3326,6055;0,0639336
3327,5696;0,0640269
3328,5339;0,0641155
3329,4980;0,0641911
3330,4624;0,0642492
3331,4265;0,0642898
3332,3909;0,0643151
3333,3550;0,0643256
3334,3193;0,0643187
3335,2834;0,0642902
3336,2478;0,0642381
3337,2119;0,064166
3338,1763;0,0640824
3339,1404;0,0639958
3340,1047;0,06391
3341,0688;0,0638205
3342,0332;0,0637171
3342,9973;0,0635905
3343,9617;0,0634386
3344,9258;0,063269
3345,8901;0,0630963
3346,8542;0,0629335
3347,8186;0,0627853
3348,7827;0,062646
3349,7471;0,062504
3350,7112;0,0623493
3351,6755;0,0621798
3352,6396;0,0620018
3353,6040;0,061825
3354,5681;0,0616555
3355,5325;0,0614928
3356,4966;0,0613319
3357,4609;0,0611693
3358,4250;0,0610073
3359,3894;0,0608528
3360,3535;0,0607125
3361,3179;0,0605865
3362,2820;0,0604668
3363,2463;0,0603411
3364,2104;0,0602003
3365,1748;0,0600429
3366,1389;0,0598758
3367,1033;0,0597093
3368,0674;0,0595518
3369,0317;0,0594068
3369,9958;0,0592737
3370,9602;0,0591497
3371,9243;0,0590313
3372,8887;0,0589139
3373,8528;0,0587916
3374,8171;0,0586582
3375,7813;0,0585102
3376,7456;0,0583491
3377,7097;0,0581818
3378,6741;0,0580162
3379,6382;0,0578574
3380,6025;0,057705
3381,5667;0,0575552
3382,5310;0,0574062
3383,4951;0,0572621
3384,4595;0,0571321
3385,4236;0,0570246
3386,3879;0,0569399
3387,3521;0,0568672
3388,3164;0,0567882
3389,2805;0,0566861
3390,2449;0,0565542
3391,2090;0,0563993
3392,1733;0,0562374
3393,1375;0,0560848
3394,1018;0,05595
3395,0659;0,0558319
3396,0303;0,0557233
3396,9944;0,055617
3397,9587;0,0555091
3398,9229;0,0553979
3399,8872;0,0552816
3400,8513;0,0551571
3401,8157;0,0550209
3402,7798;0,0548719
3403,7441;0,054713
3404,7083;0,0545497
3405,6726;0,0543876
3406,6367;0,0542292
3407,6011;0,0540733
3408,5652;0,0539158
3409,5295;0,053752
3410,4937;0,0535791
3411,4580;0,0533982
3412,4221;0,0532142
3413,3865;0,053034
3414,3506;0,0528625
3415,3149;0,0526978
3416,2791;0,0525308
3417,2434;0,0523484
3418,2075;0,0521405
3419,1719;0,0519071
3420,1360;0,05166
3421,1003;0,0514179
3422,0645;0,0511959
3423,0288;0,050998
3423,9929;0,0508165
3424,9573;0,0506386
3425,9214;0,0504542
3426,8857;0,0502612
3427,8499;0,050065
3428,8142;0,0498742
3429,7783;0,0496942
3430,7427;0,0495241
3431,7068;0,0493572
3432,6711;0,0491857
3433,6353;0,049005
3434,5996;0,0488162
3435,5637;0,0486244
3436,5281;0,0484358
3437,4922;0,0482541
3438,4565;0,0480803
3439,4207;0,0479138
3440,3850;0,0477524
3441,3491;0,0475921
3442,3135;0,0474256
3443,2776;0,0472431
3444,2419;0,0470365
3445,2061;0,046805
3446,1704;0,0465586
3447,1345;0,0463147
3448,0989;0,0460889
3449,0630;0,0458862
3450,0273;0,0457001
3450,9915;0,0455187
3451,9558;0,0453328
3452,9199;0,0451409
3453,8843;0,0449477
3454,8484;0,0447595
3455,8127;0,0445788
3456,7769;0,044403
3457,7412;0,0442263
3458,7053;0,0440433
3459,6697;0,0438513
3460,6338;0,0436511
3461,5981;0,0434449
3462,5623;0,0432349
3463,5266;0,0430226
3464,4907;0,0428089
3465,4551;0,0425954
3466,4192;0,0423855
3467,3835;0,0421835
3468,3477;0,0419916
3469,3120;0,0418075
3470,2761;0,0416236
3471,2405;0,0414318
3472,2046;0,0412289
3473,1689;0,0410217
3474,1331;0,0408241
3475,0974;0,040649
3476,0615;0,0404977
3477,0259;0,0403569
3477,9900;0,0402053
3478,9543;0,0400259
3479,9185;0,039817
3480,8828;0,0395936
3481,8469;0,0393773
3482,8113;0,0391804
3483,7754;0,0389981
3484,7397;0,0388133
3485,7039;0,038611
3486,6682;0,0383906
3487,6323;0,0381688
3488,5967;0,0379698
3489,5608;0,0378095
3490,5251;0,037684
3491,4893;0,0375704
3492,4536;0,0374396
3493,4177;0,0372726
3494,3821;0,0370718
3495,3462;0,0368609
3496,3105;0,0366713
3497,2747;0,0365213
3498,2390;0,0364037
3499,2031;0,0362886
3500,1675;0,0361398
3501,1316;0,0359364
3502,0959;0,035688
3503,0601;0,0354318
3504,0244;0,0352093
3504,9885;0,0350385
3505,9529;0,0349058
3506,9170;0,0347784
3507,8813;0,0346259
3508,8455;0,034438
3509,8098;0,0342284
3510,7739;0,0340231
3511,7383;0,0338419
3512,7024;0,0336862
3513,6667;0,033544
3514,6309;0,0334025
3515,5952;0,0332582
3516,5593;0,0331182
3517,5237;0,0329912
3518,4878;0,0328765
3519,4521;0,0327609
3520,4163;0,0326244
3521,3806;0,0324531
3522,3447;0,0322492
3523,3091;0,0320296
3524,2732;0,031814
3525,2375;0,0316118
3526,2017;0,0314185
3527,1660;0,0312248
3528,1301;0,0310294
3529,0945;0,0308424
3530,0586;0,0306774
3531,0229;0,0305379
3531,9871;0,0304121
3532,9514;0,0302784
3533,9155;0,0301188
3534,8799;0,029932
3535,8440;0,0297379
3536,8083;0,0295694
3537,7725;0,0294545
3538,7368;0,0293999
3539,7009;0,0293862
3540,6653;0,0293739
3541,6294;0,0293162
3542,5938;0,0291744
3543,5579;0,0289367
3544,5222;0,0286331
3545,4863;0,0283278
3546,4507;0,0280834
3547,4148;0,0279209
3548,3792;0,0278126
3549,3433;0,0277058
3550,3076;0,0275569
3551,2717;0,0273558
3552,2361;0,0271317
3553,2002;0,0269332
3554,1646;0,0267942
3555,1287;0,026712
3556,0930;0,0266542
3557,0571;0,0265846
3558,0215;0,0264883
3558,9856;0,0263824
3559,9500;0,026304
3560,9141;0,0262806
3561,8784;0,0263022
3562,8425;0,0263125
3563,8069;0,0262235
3564,7710;0,0259531
3565,7354;0,0254893
3566,6995;0,0249412
3567,6638;0,0244872
3568,6279;0,0242362
3569,5923;0,0241676
3570,5564;0,0241889
3571,5208;0,024209
3572,4849;0,0241723
3573,4492;0,0240648
3574,4133;0,0239057
3575,3777;0,0237279
3576,3418;0,0235581
3577,3062;0,0234103
3578,2703;0,023296
3579,2346;0,0232342
3580,1987;0,0232463
3581,1631;0,0233352
3582,1272;0,0234664
3583,0916;0,0235661
3584,0557;0,0235382
3585,0200;0,0233036
3585,9841;0,0228654
3586,9485;0,0223569
3587,9126;0,0219782
3588,8770;0,0218395
3589,8411;0,0218961
3590,8054;0,0220215
3591,7695;0,0220971
3592,7339;0,0220591
3593,6980;0,0219129
3594,6624;0,0217197
3595,6265;0,021547
3596,5908;0,021416
3597,5549;0,0212965
3598,5193;0,0211486
3599,4834;0,0209695
3600,4478;0,0208043
3601,4119;0,020711
3602,3762;0,0207113
3603,3403;0,0207719
3604,3047;0,0208249
3605,2688;0,0208042
3606,2332;0,0206778
3607,1973;0,0204651
3608,1616;0,0202236
3609,1257;0,0200068
3610,0901;0,0198337
3611,0542;0,0196969
3612,0186;0,01959
3612,9827;0,019518
3613,9470;0,0194821
3614,9111;0,0194568
3615,8755;0,0193859
3616,8396;0,0192081
3617,8040;0,0189067
3618,7681;0,0185542
3619,7324;0,0182951
3620,6965;0,0182494
3621,6609;0,0184327
3622,6250;0,0187693
3623,5894;0,0191471
3624,5535;0,0194467
3625,5178;0,0195425
3626,4819;0,019319
3627,4463;0,0187514
3628,4104;0,0180135
3629,3748;0,0174049
3630,3389;0,0170879
3631,3032;0,0170002
3632,2673;0,0170002
3633,2317;0,0169859
3634,1958;0,0169207
3635,1602;0,0168159
3636,1243;0,0167009
3637,0886;0,0165979
3638,0527;0,0165146
3639,0171;0,016456
3639,9812;0,0164402
3640,9456;0,0164989
3641,9097;0,0166597
3642,8740;0,0169224
3643,8381;0,0172447
3644,8025;0,0175351
3645,7666;0,0176478
3646,7310;0,017402
3647,6951;0,0167022
3648,6594;0,0157549
3649,6235;0,0150156
3650,5879;0,0147393
3651,5520;0,0148191
3652,5164;0,0150255
3653,4805;0,015178
3654,4448;0,015181
3655,4089;0,0150299
3656,3733;0,0148055
3657,3374;0,0146188
3658,3018;0,0145279
3659,2659;0,0145144
3660,2302;0,0145316
3661,1943;0,0145607
3662,1587;0,014629
3663,1228;0,0147812
3664,0872;0,0150316
3665,0513;0,0153352
3666,0156;0,0155981
3666,9797;0,0157175
3667,9441;0,0156474
3668,9082;0,015462
3669,8726;0,0153277
3670,8367;0,015352
3671,8010;0,0154789
3672,7651;0,0155389
3673,7295;0,0153651
3674,6936;0,0149137
3675,6580;0,0143445
3676,6221;0,0139135
3677,5864;0,0137428
3678,5505;0,0137741
3679,5149;0,013899
3680,4790;0,014056
3681,4434;0,0142415
3682,4075;0,0144778
3683,3718;0,0147723
3684,3359;0,0150913
3685,3003;0,0153558
3686,2644;0,015459
3687,2288;0,0153102
3688,1929;0,014917
3689,1572;0,0144437
3690,1213;0,0141128
3691,0857;0,0140203
3692,0498;0,0141109
3693,0142;0,0142869
3693,9783;0,0144823
3694,9426;0,0146702
3695,9067;0,0148418
3696,8711;0,0149842
3697,8352;0,0150706
3698,7996;0,0150686
3699,7637;0,0149657
3700,7280;0,0147986
3701,6921;0,0146548
3702,6565;0,0146273
3703,6206;0,0147559
3704,5850;0,0150112
3705,5491;0,0153208
3706,5134;0,0155947
3707,4775;0,0157341
3708,4419;0,0156405
3709,4060;0,0152615
3710,3704;0,014675
3711,3345;0,0141046
3712,2988;0,013768
3713,2629;0,0137245
3714,2273;0,0138994
3715,1914;0,0141842
3716,1558;0,014491
3717,1199;0,014763
3718,0842;0,0149727
3719,0483;0,0151184
3720,0127;0,0152145
3720,9768;0,0152754
3721,9412;0,0153022
3722,9053;0,0152896
3723,8696;0,0152474
3724,8337;0,0152153
3725,7981;0,0152487
3726,7622;0,0153849
3727,7266;0,0156211
3728,6907;0,0159189
3729,6550;0,0162183
3730,6191;0,0164448
3731,5835;0,0165099
3732,5476;0,0163257
3733,5120;0,0158612
3734,4761;0,0152278
3735,4404;0,0146737
3736,4045;0,0144152
3737,3689;0,0144928
3738,3330;0,0148071
3739,2974;0,0152164
3740,2615;0,0155834
3741,2258;0,0157817
3742,1899;0,0157201
3743,1543;0,0154197
3744,1184;0,0150745
3745,0828;0,0149298
3746,0469;0,0150511
3747,0112;0,0152881
3747,9753;0,015407
3748,9397;0,0152136
3749,9038;0,0146798
3750,8682;0,014042
3751,8323;0,0136425
3752,7966;0,0136107
3753,7607;0,0138253
3754,7251;0,014095
3755,6892;0,0142721
3756,6536;0,014283
3757,6177;0,0141436
3758,5820;0,0139548
3759,5461;0,0138403
3760,5105;0,0138618
3761,4746;0,0139953
3762,4390;0,0141742
3763,4031;0,0143353
3764,3674;0,0144398
3765,3315;0,0144717
3766,2959;0,0144283
3767,2600;0,0143125
3768,2244;0,0141377
3769,1885;0,013941
3770,1528;0,0137844
3771,1169;0,0137286
3772,0813;0,0137955
3773,0454;0,0139563
3774,0098;0,0141472
3774,9739;0,0142966
3775,9382;0,0143482
3776,9023;0,0142842
3777,8667;0,0141421
3778,8308;0,0140005
3779,7952;0,0139271
3780,7593;0,013933
3781,7236;0,0139787
3782,6877;0,0140126
3783,6521;0,0140032
3784,6162;0,0139504
3785,5806;0,0138789
3786,5447;0,0138224
3787,5090;0,0138087
3788,4731;0,0138521
3789,4375;0,0139517
3790,4016;0,0140925
3791,3660;0,0142504
3792,3301;0,0144017
3793,2944;0,0145356
3794,2585;0,0146612
3795,2229;0,0147981
3796,1870;0,0149495
3797,1514;0,0150798
3798,1155;0,0151192
3799,0798;0,0150063
3800,0439;0,01475
3801,0083;0,0144581
3801,9724;0,0142641
3802,9368;0,0142069
3803,9009;0,0142048
3804,8652;0,0141389
3805,8293;0,0139533
3806,7937;0,0137129
3807,7578;0,0135708
3808,7222;0,0136468
3809,6863;0,0139368
3810,6506;0,0143392
3811,6147;0,0147279
3812,5791;0,0150016
3813,5432;0,0151151
3814,5076;0,015104
3815,4717;0,0150659
3816,4360;0,0150754
3817,4001;0,0151081
3818,3645;0,015063
3819,3286;0,0148558
3820,2930;0,0145081
3821,2571;0,014155
3822,2214;0,0139374
3823,1855;0,0138959
3824,1499;0,0139796
3825,1140;0,0141164
3826,0784;0,0142582
3827,0425;0,0143879
3828,0068;0,0145087
3828,9709;0,014629
3829,9353;0,0147545
3830,8994;0,0148874
3831,8638;0,0150278
3832,8279;0,0151689
3833,7922;0,0152881
3834,7563;0,0153433
3835,7207;0,0152855
3836,6848;0,0150906
3837,6492;0,014791
3838,6133;0,0144702
3839,5776;0,0142077
3840,5417;0,0140311
3841,5061;0,013925
3842,4702;0,0138739
3843,4346;0,0138896
3844,3987;0,0140072
3845,3630;0,0142579
3846,3271;0,0146451
3847,2915;0,0151356
3848,2556;0,0156615
3849,2200;0,0161147
3850,1841;0,0163327
3851,1484;0,0161145
3852,1125;0,0153683
3853,0769;0,0143659
3854,0410;0,0136337
3855,0054;0,0134173
3855,9695;0,0135845
3856,9338;0,013925
3857,8979;0,0142965
3858,8623;0,0146159
3859,8264;0,01483
3860,7908;0,0149115
3861,7549;0,0148768
3862,7192;0,0147963
3863,6833;0,0147608
3864,6477;0,0148175
3865,6118;0,0149408
3866,5762;0,0150583
3867,5403;0,0150948
3868,5046;0,0150053
3869,4688;0,0147964
3870,4331;0,0145287
3871,3972;0,0142912
3872,3616;0,0141573
3873,3257;0,0141573
3874,2900;0,0142771
3875,2542;0,0144722
3876,2185;0,0146833
3877,1826;0,014852
3878,1470;0,0149388
3879,1111;0,0149386
3880,0754;0,0148799
3881,0396;0,0147985
3882,0039;0,0147059
3882,9680;0,0145929
3883,9324;0,0144654
3884,8965;0,0143675
3885,8608;0,0143558
3886,8250;0,0144441
3887,7893;0,0145763
3888,7534;0,0146564
3889,7178;0,0146078
3890,6819;0,0144356
3891,6462;0,0142467
3892,6104;0,0141817
3893,5747;0,0143054
3894,5388;0,0145757
3895,5032;0,0148973
3896,4673;0,0151792
3897,4316;0,0153614
3898,3958;0,0154221
3899,3601;0,0153698
3900,3242;0,0152206
3901,2886;0,0149821
3902,2527;0,014668
3903,2170;0,0143269
3904,1812;0,0140384
3905,1455;0,0138664
3906,1096;0,013823
3907,0740;0,0138761
3908,0381;0,0139809
3909,0024;0,0141042
3909,9666;0,0142319
3910,9309;0,0143628
3911,8950;0,0144961
3912,8594;0,0146188
3913,8235;0,0147045
3914,7878;0,0147248
3915,7520;0,0146709
3916,7163;0,0145706
3917,6804;0,0144805
3918,6448;0,0144484
3919,6089;0,0144796
3920,5732;0,0145365
3921,5374;0,0145671
3922,5017;0,0145392
3923,4658;0,0144635
3924,4302;0,0143906
3925,3943;0,0143753
3926,3586;0,0144359
3927,3228;0,0145408
3928,2871;0,0146293
3929,2512;0,014645
3930,2156;0,0145672
3931,1797;0,0144261
3932,1440;0,0142864
3933,1082;0,0142071
3934,0725;0,0142098
3935,0366;0,0142807
3936,0010;0,0143899
3936,9651;0,0145063
3937,9294;0,0146025
3938,8936;0,0146565
3939,8579;0,014656
3940,8220;0,0146068
3941,7864;0,014536
3942,7505;0,0144804
3943,7148;0,014464
3944,6790;0,0144835
3945,6433;0,0145132
3946,6074;0,0145238
3947,5718;0,0145019
3948,5359;0,014457
3949,5002;0,0144126
3950,4644;0,0143875
3951,4287;0,0143836
3952,3928;0,0143902
3953,3572;0,0143971
3954,3213;0,0144033
3955,2856;0,0144153
3956,2498;0,014439
3957,2141;0,0144715
3958,1782;0,0145013
3959,1426;0,0145151
3960,1067;0,0145067
3961,0710;0,0144809
3962,0352;0,0144503
3962,9995;0,0144287
3963,9636;0,014424
3964,9280;0,0144371
3965,8921;0,0144631
3966,8564;0,0144944
3967,8206;0,0145231
3968,7849;0,0145433
3969,7490;0,0145523
3970,7134;0,0145507
3971,6775;0,0145415
3972,6418;0,0145277
3973,6060;0,0145121
3974,5703;0,0144978
3975,5344;0,0144884
3976,4988;0,0144879
3977,4629;0,0144983
3978,4272;0,0145174
3979,3914;0,0145386
3980,3557;0,0145536
3981,3198;0,0145561
3982,2842;0,0145455
3983,2483;0,0145274
3984,2126;0,0145104
3985,1768;0,0145019
3986,1411;0,0145058
3987,1052;0,0145209
3988,0696;0,0145429
3989,0337;0,014566
3989,9980;0,014584
3990,9622;0,0145923
3991,9265;0,0145886
3992,8906;0,0145738
3993,8550;0,0145517
3994,8191;0,0145276
3995,7834;0,0145065
3996,7476;0,0144914
3997,7119;0,0144832
3998,6760;0,0144819
3999,6404;0,0144879
4000,6045;0,0144592

##### Extended Information
[Comments]
Sample name
Comment
Username
Division
Organization;UNIVERSIDAD INDUSTRIAL DE SANTANDER

[Detailed Information]
Creation date;18/03/2025 1:31 p.m.

Data array type;Linear data array
Horizontal axis;Wavenumber [cm-1]
Vertical axis;Abs
Start;399,193 cm-1
End;4000,6 cm-1
Data interval;0,964233 cm-1
Data points;3736    

[Measurement Information]
Model name;FT/IR-4X1typeA
Serial No.;A035162111

Accessory;ATR PRO 4X
Accessory S/N;A021162126
Incident angle;45 deg

Measurement date;18/03/2025 1:31 p.m.

Light source;Standard
Detector;TGS
Accumulation;40
Resolution;4 cm-1
Zero filling;On
Apodization;Cosine
Gain;Auto (8)
Aperture;Auto (7 mm)
Scan speed;Auto (2 mm/sec)
Filter;Auto (12800 Hz)

