TITLE;
DATA TYPE;INFRARED SPECTRUM
ORIGIN;JASCO
OWNER;
DATE;25/03/18
TIME;12:20:23
SPECTROMETER/DATA SYSTEM;
LOCALE;9226
RESOLUTION;
DELTAX;0,964233
XUNITS;1/CM
YUNITS;ABSORBANCE
FIRSTX;  399,1927
LASTX; 4000,6047
NPOINTS;    3736
FIRSTY;     0,20493
MAXY;     0,25048
MINY;     0,01085
XYDATA
399,1927;0,204931
400,1569;0,20365
401,1211;0,203377
402,0854;0,203684
403,0496;0,204137
404,0138;0,20448
404,9781;0,204654
405,9423;0,204732
406,9065;0,204812
407,8708;0,204916
408,8350;0,204967
409,7992;0,20488
410,7635;0,204678
411,7277;0,204543
412,6919;0,204723
413,6562;0,205364
414,6204;0,206418
415,5846;0,207666
416,5489;0,208785
417,5131;0,209466
418,4773;0,209636
419,4416;0,20964
420,4058;0,20996
421,3700;0,210737
422,3343;0,21177
423,2985;0,212805
424,2627;0,213708
425,2270;0,2145
426,1912;0,215306
427,1554;0,216246
428,1197;0,217335
429,0839;0,218464
430,0481;0,219447
431,0124;0,220108
431,9766;0,220361
432,9408;0,22024
433,9051;0,219875
434,8693;0,219439
435,8335;0,219075
436,7978;0,218845
437,7620;0,218727
438,7262;0,218646
439,6905;0,21854
440,6547;0,2184
441,6189;0,218279
442,5832;0,21824
443,5474;0,218288
444,5116;0,218323
445,4759;0,218181
446,4401;0,217728
447,4043;0,216949
448,3686;0,215964
449,3328;0,215006
450,2970;0,21434
451,2613;0,214163
452,2255;0,214499
453,1897;0,215166
454,1540;0,215829
455,1182;0,216108
456,0824;0,21573
457,0467;0,214696
458,0109;0,213377
458,9751;0,212344
459,9394;0,212
460,9036;0,212346
461,8678;0,213057
462,8321;0,213707
463,7963;0,213941
464,7605;0,213607
465,7248;0,212798
466,6890;0,211801
467,6532;0,210947
468,6175;0,21047
469,5817;0,210448
470,5459;0,21084
471,5102;0,211528
472,4744;0,212359
473,4386;0,213171
474,4029;0,213822
475,3671;0,214209
476,3313;0,214289
477,2956;0,214092
478,2598;0,213711
479,2240;0,213282
480,1883;0,212922
481,1525;0,212693
482,1167;0,21259
483,0810;0,212584
484,0452;0,212669
485,0094;0,212883
485,9737;0,213279
486,9379;0,213874
487,9021;0,214635
488,8664;0,215481
489,8306;0,216308
490,7948;0,217008
491,7591;0,217494
492,7233;0,217723
493,6875;0,217714
494,6518;0,217538
495,6160;0,217296
496,5802;0,217078
497,5445;0,216939
498,5087;0,216888
499,4729;0,21691
500,4372;0,216986
501,4014;0,217114
502,3656;0,217311
503,3299;0,217604
504,2941;0,218003
505,2583;0,218501
506,2226;0,219072
507,1868;0,219679
508,1510;0,220277
509,1153;0,220822
510,0795;0,22128
511,0437;0,221647
512,0080;0,221948
512,9722;0,222242
513,9365;0,222597
514,9007;0,223061
515,8649;0,223628
516,8292;0,224213
517,7934;0,224661
518,7576;0,224826
519,7219;0,224653
520,6861;0,224213
521,6503;0,223654
522,6146;0,223124
523,5788;0,222721
524,5430;0,222472
525,5073;0,222329
526,4715;0,222212
527,4357;0,222057
528,4000;0,221849
529,3642;0,22161
530,3284;0,22137
531,2927;0,221133
532,2569;0,220879
533,2211;0,220579
534,1854;0,220225
535,1496;0,219851
536,1138;0,219523
537,0781;0,219304
538,0423;0,219223
539,0065;0,219252
539,9708;0,219329
540,9350;0,219394
541,8992;0,219435
542,8635;0,219494
543,8277;0,219635
544,7919;0,219899
545,7562;0,220272
546,7204;0,220689
547,6846;0,221086
548,6489;0,221437
549,6131;0,221771
550,5773;0,222139
551,5416;0,222578
552,5058;0,223089
553,4700;0,223643
554,4343;0,224195
555,3985;0,224686
556,3627;0,225025
557,3270;0,225079
558,2912;0,224702
559,2554;0,223792
560,2197;0,222359
561,1839;0,220552
562,1481;0,218613
563,1124;0,216796
564,0766;0,215269
565,0408;0,21407
566,0051;0,21313
566,9693;0,212331
567,9335;0,211581
568,8978;0,21085
569,8620;0,210165
570,8262;0,209577
571,7905;0,209117
572,7547;0,208779
573,7189;0,208533
574,6832;0,208335
575,6474;0,208157
576,6116;0,207986
577,5759;0,207818
578,5401;0,207651
579,5043;0,207473
580,4686;0,207268
581,4328;0,207032
582,3970;0,206778
583,3613;0,206535
584,3255;0,206339
585,2897;0,206207
586,2540;0,206136
587,2182;0,206099
588,1824;0,206057
589,1467;0,205976
590,1109;0,205837
591,0751;0,205634
592,0394;0,205375
593,0036;0,205072
593,9678;0,204731
594,9321;0,204353
595,8963;0,203934
596,8605;0,203475
597,8248;0,202984
598,7890;0,20248
599,7532;0,201984
600,7175;0,201512
601,6817;0,201071
602,6459;0,20065
603,6102;0,200231
604,5744;0,199787
605,5386;0,199291
606,5029;0,198722
607,4671;0,198071
608,4313;0,197343
609,3956;0,196558
610,3598;0,19575
611,3240;0,19496
612,2883;0,194223
613,2525;0,193554
614,2167;0,192928
615,1810;0,192276
616,1452;0,191498
617,1094;0,1905
618,0737;0,189247
619,0379;0,187786
620,0021;0,18622
620,9664;0,18466
621,9306;0,183187
622,8948;0,181846
623,8591;0,180657
624,8233;0,179625
625,7875;0,178764
626,7518;0,178052
627,7160;0,177436
628,6802;0,176837
629,6445;0,176181
630,6087;0,175425
631,5729;0,174575
632,5372;0,173682
633,5014;0,172813
634,4656;0,172027
635,4299;0,171356
636,3941;0,170804
637,3583;0,170356
638,3226;0,169983
639,2868;0,169646
640,2510;0,169301
641,2153;0,168909
642,1795;0,168452
643,1437;0,167948
644,1080;0,167442
645,0722;0,166984
646,0364;0,166605
647,0007;0,166297
647,9649;0,166032
648,9291;0,165784
649,8934;0,165558
650,8576;0,165392
651,8218;0,165328
652,7861;0,165388
653,7503;0,165552
654,7145;0,165777
655,6788;0,166011
656,6430;0,166225
657,6072;0,166403
658,5715;0,166521
659,5357;0,166531
660,4999;0,166376
661,4642;0,166039
662,4284;0,165572
663,3926;0,165072
664,3569;0,164646
665,3211;0,164388
666,2853;0,164337
667,2496;0,164337
668,2138;0,16391
669,1780;0,16269
670,1423;0,160966
671,1065;0,159194
672,0707;0,157484
673,0350;0,155735
673,9992;0,153856
674,9634;0,151854
675,9277;0,149843
676,8919;0,147976
677,8561;0,146351
678,8204;0,144969
679,7846;0,143766
680,7488;0,142668
681,7131;0,141626
682,6773;0,140631
683,6415;0,139707
684,6058;0,138892
685,5700;0,138213
686,5342;0,137664
687,4985;0,137201
688,4627;0,136763
689,4269;0,136302
690,3912;0,135805
691,3554;0,135291
692,3196;0,134786
693,2839;0,134307
694,2481;0,133849
695,2123;0,133399
696,1766;0,132944
697,1408;0,132475
698,1050;0,131987
699,0693;0,131471
700,0335;0,130922
700,9977;0,13034
701,9620;0,129733
702,9262;0,12911
703,8904;0,128475
704,8547;0,127826
705,8189;0,127155
706,7831;0,126456
707,7474;0,125734
708,7116;0,125001
709,6758;0,124268
710,6401;0,123533
711,6043;0,122785
712,5685;0,122013
713,5328;0,121229
714,4970;0,120471
715,4612;0,119635
716,4255;0,119078
717,3897;0,118597
718,3539;0,11809
719,3182;0,117424
720,2824;0,116508
721,2466;0,115344
722,2109;0,114036
723,1751;0,112725
724,1393;0,111518
725,1036;0,110457
726,0678;0,109524
727,0320;0,108669
727,9963;0,107846
728,9605;0,107028
729,9247;0,106209
730,8890;0,105394
731,8532;0,104594
732,8174;0,103828
733,7817;0,103111
734,7459;0,102456
735,7101;0,101864
736,6744;0,101322
737,6386;0,100807
738,6028;0,1003
739,5671;0,0997915
740,5313;0,0992867
741,4955;0,0987984
742,4598;0,0983364
743,4240;0,0978981
744,3882;0,0974678
745,3525;0,0970239
746,3167;0,0965501
747,2809;0,0960449
748,2452;0,0955226
749,2094;0,0950049
750,1736;0,0945088
751,1379;0,094037
752,1021;0,0935795
753,0663;0,0931227
754,0306;0,0926613
754,9948;0,0922029
755,9590;0,091761
756,9233;0,0913414
757,8875;0,0909342
758,8517;0,0905187
759,8160;0,0900797
760,7802;0,0896227
761,7444;0,0891755
762,7087;0,0887719
763,6729;0,0884294
764,6371;0,0881346
765,6014;0,0878509
766,5656;0,0875405
767,5298;0,0871882
768,4941;0,0868083
769,4583;0,0864326
770,4225;0,0860897
771,3868;0,0857898
772,3510;0,0855244
773,3152;0,0852772
774,2795;0,0850358
775,2437;0,0847946
776,2079;0,0845513
777,1722;0,0843004
778,1364;0,0840314
779,1006;0,0837333
780,0649;0,0833989
781,0291;0,0830269
781,9933;0,0826209
782,9576;0,0821861
783,9218;0,0817287
784,8860;0,0812565
785,8503;0,0807811
786,8145;0,0803177
787,7787;0,0798837
788,7430;0,0794943
789,7072;0,0791586
790,6714;0,0788758
791,6357;0,0786339
792,5999;0,0784131
793,5641;0,0781917
794,5284;0,0779554
795,4926;0,0777027
796,4568;0,0774457
797,4211;0,0772024
798,3853;0,0769873
799,3495;0,076803
800,3138;0,0766395
801,2780;0,076481
802,2422;0,0763144
803,2065;0,076137
804,1707;0,0759562
805,1349;0,075785
806,0992;0,0756353
807,0634;0,0755137
808,0276;0,0754203
808,9919;0,0753492
809,9561;0,0752896
810,9203;0,0752268
811,8846;0,0751446
812,8488;0,0750303
813,8130;0,0748811
814,7773;0,0747079
815,7415;0,074534
816,7057;0,0743868
817,6700;0,0742884
818,6342;0,0742473
819,5984;0,0742579
820,5627;0,0743039
821,5269;0,0743651
822,4911;0,0744216
823,4554;0,0744552
824,4196;0,0744497
825,3839;0,0743925
826,3481;0,0742784
827,3123;0,0741139
828,2766;0,0739181
829,2408;0,0737177
830,2050;0,0735371
831,1693;0,0733879
832,1335;0,0732628
833,0977;0,0731376
834,0620;0,0729809
835,0262;0,0727681
835,9904;0,0724925
836,9547;0,0721682
837,9189;0,0718236
838,8831;0,0714898
839,8474;0,0711897
840,8116;0,0709339
841,7758;0,0707235
842,7401;0,070557
843,7043;0,0704329
844,6685;0,0703477
845,6328;0,0702906
846,5970;0,0702408
847,5612;0,0701729
848,5255;0,0700685
849,4897;0,0699265
850,4539;0,0697642
851,4182;0,0696084
852,3824;0,0694801
853,3466;0,0693845
854,3109;0,0693109
855,2751;0,0692433
856,2393;0,0691726
857,2036;0,0691023
858,1678;0,0690447
859,1320;0,0690127
860,0963;0,0690128
861,0605;0,0690443
862,0247;0,0691036
862,9890;0,0691891
863,9532;0,0693027
864,9174;0,0694492
865,8817;0,0696343
866,8459;0,0698639
867,8101;0,0701423
868,7744;0,0704686
869,7386;0,0708321
870,7028;0,0712105
871,6671;0,0715741
872,6313;0,071897
873,5955;0,0721685
874,5598;0,0723975
875,5240;0,0726077
876,4882;0,0728255
877,4525;0,0730701
878,4167;0,0733523
879,3809;0,0736799
880,3452;0,0740659
881,3094;0,0745295
882,2736;0,0750904
883,2379;0,075758
884,2021;0,0765252
885,1663;0,0773713
886,1306;0,0782714
887,0948;0,0792075
888,0590;0,0801722
889,0233;0,0811636
889,9875;0,0821744
890,9517;0,0831831
891,9160;0,0841513
892,8802;0,0850314
893,8444;0,0857786
894,8087;0,0863609
895,7729;0,0867631
896,7371;0,0869824
897,7014;0,0870205
898,6656;0,0868781
899,6298;0,0865572
900,5941;0,0860687
901,5583;0,0854421
902,5225;0,0847284
903,4868;0,0839937
904,4510;0,083304
905,4152;0,0827083
906,3795;0,0822273
907,3437;0,081854
908,3079;0,0815635
909,2722;0,0813296
910,2364;0,0811378
911,2007;0,0809907
912,1649;0,080904
913,1292;0,0808976
914,0934;0,0809852
915,0576;0,0811689
916,0219;0,0814386
916,9861;0,0817773
917,9503;0,0821659
918,9146;0,0825884
919,8788;0,0830321
920,8430;0,0834864
921,8073;0,0839405
922,7715;0,0843828
923,7357;0,0848032
924,7000;0,085196
925,6642;0,0855618
926,6284;0,0859066
927,5927;0,0862376
928,5569;0,0865607
929,5211;0,0868797
930,4854;0,0871994
931,4496;0,0875291
932,4138;0,087882
933,3781;0,0882721
934,3423;0,0887086
935,3065;0,089196
936,2708;0,089737
937,2350;0,0903392
938,1992;0,0910165
939,1635;0,0917846
940,1277;0,0926511
941,0919;0,0936102
942,0562;0,0946449
943,0204;0,0957372
943,9846;0,0968801
944,9489;0,0980813
945,9131;0,0993586
946,8773;0,100727
947,8416;0,102191
948,8058;0,103738
949,7700;0,105348
950,7343;0,107
951,6985;0,108678
952,6627;0,110379
953,6270;0,11211
954,5912;0,113882
955,5554;0,11571
956,5197;0,117605
957,4839;0,119572
958,4481;0,121603
959,4124;0,123686
960,3766;0,125803
961,3408;0,127935
962,3051;0,130064
963,2693;0,132178
964,2335;0,134271
965,1978;0,136346
966,1620;0,138415
967,1262;0,1405
968,0905;0,142628
969,0547;0,144829
970,0189;0,147132
970,9832;0,149565
971,9474;0,152157
972,9116;0,154932
973,8759;0,157911
974,8401;0,161103
975,8043;0,164499
976,7686;0,16807
977,7328;0,17177
978,6970;0,175534
979,6613;0,179283
980,6255;0,182926
981,5897;0,186365
982,5540;0,189507
983,5182;0,192281
984,4824;0,194658
985,4467;0,196655
986,4109;0,198336
987,3751;0,199787
988,3394;0,20109
989,3036;0,202304
990,2678;0,203448
991,2321;0,204512
992,1963;0,205466
993,1605;0,206288
994,1248;0,206971
995,0890;0,207535
996,0532;0,208019
997,0175;0,208465
997,9817;0,208912
998,9459;0,209384
999,9102;0,209894
1000,8744;0,21046
1001,8386;0,211111
1002,8029;0,211891
1003,7671;0,212846
1004,7313;0,214009
1005,6956;0,21539
1006,6598;0,216972
1007,6240;0,218722
1008,5883;0,220609
1009,5525;0,222611
1010,5167;0,224717
1011,4810;0,226907
1012,4452;0,22915
1013,4094;0,231396
1014,3737;0,233583
1015,3379;0,235653
1016,3021;0,237567
1017,2664;0,239303
1018,2306;0,240857
1019,1948;0,242235
1020,1591;0,243449
1021,1233;0,244521
1022,0875;0,245483
1023,0518;0,24637
1024,0160;0,247215
1024,9802;0,248031
1025,9445;0,248807
1026,9087;0,249502
1027,8729;0,250059
1028,8372;0,25041
1029,8014;0,250482
1030,7656;0,2502
1031,7299;0,249494
1032,6941;0,248314
1033,6583;0,246649
1034,6226;0,244552
1035,5868;0,242141
1036,5510;0,239589
1037,5153;0,237085
1038,4795;0,234798
1039,4437;0,232852
1040,4080;0,231312
1041,3722;0,23019
1042,3364;0,229449
1043,3007;0,229017
1044,2649;0,228795
1045,2291;0,228667
1046,1934;0,228523
1047,1576;0,22827
1048,1218;0,227845
1049,0861;0,227207
1050,0503;0,226335
1051,0145;0,225214
1051,9788;0,223838
1052,9430;0,222215
1053,9072;0,220367
1054,8715;0,218323
1055,8357;0,216093
1056,7999;0,213654
1057,7642;0,210953
1058,7284;0,207928
1059,6926;0,204553
1060,6569;0,200874
1061,6211;0,197009
1062,5853;0,193124
1063,5496;0,189382
1064,5138;0,185896
1065,4780;0,182711
1066,4423;0,179813
1067,4065;0,177154
1068,3707;0,174681
1069,3350;0,172352
1070,2992;0,170138
1071,2634;0,168007
1072,2277;0,165923
1073,1919;0,163837
1074,1561;0,161704
1075,1204;0,159493
1076,0846;0,1572
1077,0488;0,154856
1078,0131;0,152518
1078,9773;0,150262
1079,9415;0,148158
1080,9058;0,146262
1081,8700;0,144599
1082,8342;0,143168
1083,7985;0,141948
1084,7627;0,14091
1085,7269;0,140029
1086,6912;0,139288
1087,6554;0,13868
1088,6196;0,138202
1089,5839;0,137851
1090,5481;0,137623
1091,5123;0,137507
1092,4766;0,137488
1093,4408;0,137553
1094,4050;0,13769
1095,3693;0,137889
1096,3335;0,138138
1097,2977;0,138424
1098,2620;0,138729
1099,2262;0,139029
1100,1904;0,139296
1101,1547;0,139506
1102,1189;0,139634
1103,0831;0,139662
1104,0474;0,139583
1105,0116;0,139397
1105,9758;0,13912
1106,9401;0,138769
1107,9043;0,138353
1108,8685;0,137854
1109,8328;0,13722
1110,7970;0,13638
1111,7612;0,13527
1112,7255;0,133869
1113,6897;0,132221
1114,6539;0,130429
1115,6182;0,128622
1116,5824;0,126911
1117,5466;0,125356
1118,5109;0,123954
1119,4751;0,122651
1120,4393;0,121373
1121,4036;0,120042
1122,3678;0,118595
1123,3320;0,116984
1124,2963;0,115183
1125,2605;0,113186
1126,2247;0,111007
1127,1890;0,108685
1128,1532;0,106272
1129,1174;0,103821
1130,0817;0,101383
1131,0459;0,098993
1132,0101;0,0966798
1132,9744;0,0944681
1133,9386;0,0923876
1134,9028;0,0904769
1135,8671;0,0887809
1136,8313;0,0873445
1137,7955;0,0862027
1138,7598;0,0853724
1139,7240;0,0848493
1140,6882;0,0846083
1141,6525;0,0846099
1142,6167;0,0848085
1143,5809;0,0851601
1144,5452;0,0856287
1145,5094;0,0861893
1146,4736;0,0868266
1147,4379;0,0875323
1148,4021;0,0883
1149,3663;0,0891196
1150,3306;0,0899731
1151,2948;0,0908336
1152,2590;0,0916668
1153,2233;0,0924349
1154,1875;0,0931004
1155,1517;0,0936275
1156,1160;0,0939791
1157,0802;0,0941113
1158,0444;0,0939694
1159,0087;0,0934888
1159,9729;0,0926026
1160,9371;0,0912572
1161,9014;0,0894279
1162,8656;0,0871321
1163,8298;0,0844319
1164,7941;0,0814273
1165,7583;0,0782417
1166,7225;0,0750038
1167,6868;0,0718323
1168,6510;0,0688236
1169,6152;0,0660454
1170,5795;0,0635346
1171,5437;0,0613012
1172,5079;0,059335
1173,4722;0,0576145
1174,4364;0,0561143
1175,4006;0,0548104
1176,3649;0,0536818
1177,3291;0,0527098
1178,2933;0,0518768
1179,2576;0,0511654
1180,2218;0,0505589
1181,1860;0,0500434
1182,1503;0,0496102
1183,1145;0,0492566
1184,0787;0,0489855
1185,0430;0,0488021
1186,0072;0,0487102
1186,9714;0,0487098
1187,9357;0,0487981
1188,8999;0,0489719
1189,8641;0,0492311
1190,8284;0,0495794
1191,7926;0,0500209
1192,7568;0,0505555
1193,7211;0,0511747
1194,6853;0,051861
1195,6495;0,052591
1196,6138;0,0533412
1197,5780;0,0540924
1198,5422;0,0548336
1199,5065;0,0555168
1200,4707;0,0562391
1201,4349;0,0569529
1202,3992;0,0576548
1203,3634;0,0583327
1204,3276;0,0589674
1205,2919;0,0595402
1206,2561;0,0600423
1207,2203;0,0604833
1208,1846;0,0608927
1209,1488;0,0613129
1210,1130;0,0617884
1211,0773;0,062354
1212,0415;0,0630272
1213,0057;0,0638069
1213,9700;0,0646775
1214,9342;0,0656147
1215,8984;0,0665921
1216,8627;0,0675858
1217,8269;0,0685769
1218,7911;0,0695537
1219,7554;0,0705098
1220,7196;0,0714401
1221,6838;0,0723371
1222,6481;0,0731903
1223,6123;0,0739884
1224,5765;0,0747253
1225,5408;0,0754045
1226,5050;0,0760378
1227,4692;0,0766402
1228,4335;0,0772212
1229,3977;0,0777796
1230,3619;0,0783035
1231,3262;0,0787748
1232,2904;0,0791759
1233,2546;0,0794963
1234,2189;0,0797343
1235,1831;0,0798968
1236,1473;0,079997
1237,1116;0,0800505
1238,0758;0,0800711
1239,0400;0,0800681
1240,0043;0,0800438
1240,9685;0,0799946
1241,9327;0,0799123
1242,8970;0,0797877
1243,8612;0,0796122
1244,8254;0,07938
1245,7897;0,079089
1246,7539;0,0787422
1247,7181;0,0783486
1248,6824;0,077922
1249,6466;0,0774786
1250,6108;0,0770328
1251,5751;0,0765947
1252,5393;0,0761691
1253,5035;0,0757576
1254,4678;0,0753596
1255,4320;0,0749729
1256,3962;0,0745924
1257,3605;0,0742095
1258,3247;0,0738126
1259,2889;0,0733902
1260,2532;0,0729347
1261,2174;0,0724439
1262,1816;0,0719201
1263,1459;0,0713671
1264,1101;0,0707872
1265,0743;0,0701806
1266,0386;0,0695462
1267,0028;0,0688835
1267,9670;0,0681949
1268,9313;0,0674858
1269,8955;0,0667635
1270,8597;0,0660353
1271,8240;0,0653054
1272,7882;0,0645754
1273,7524;0,0638463
1274,7167;0,063123
1275,6809;0,0624151
1276,6451;0,0617344
1277,6094;0,0610887
1278,5736;0,0604762
1279,5378;0,059885
1280,5021;0,0592994
1281,4663;0,0587094
1282,4305;0,0581167
1283,3948;0,0575336
1284,3590;0,0569777
1285,3232;0,0564647
1286,2875;0,0560061
1287,2517;0,0556102
1288,2159;0,0552841
1289,1802;0,0550337
1290,1444;0,0548619
1291,1086;0,0547676
1292,0729;0,0547472
1293,0371;0,0547989
1294,0013;0,0549248
1294,9656;0,0551301
1295,9298;0,0554183
1296,8940;0,0557867
1297,8583;0,0562264
1298,8225;0,0567257
1299,7867;0,0572759
1300,7510;0,0578732
1301,7152;0,0585188
1302,6794;0,0592134
1303,6437;0,0599547
1304,6079;0,0607367
1305,5721;0,0615515
1306,5364;0,0623918
1307,5006;0,0632523
1308,4648;0,0641287
1309,4291;0,0650151
1310,3933;0,0658992
1311,3575;0,0667602
1312,3218;0,067568
1313,2860;0,0682872
1314,2502;0,0688824
1315,2145;0,0693222
1316,1787;0,0695815
1317,1429;0,069646
1318,1072;0,0695209
1319,0714;0,0692375
1320,0356;0,0688504
1320,9999;0,0684213
1321,9641;0,0679997
1322,9283;0,0676128
1323,8926;0,0672696
1324,8568;0,0669706
1325,8210;0,0667159
1326,7853;0,066507
1327,7495;0,0663433
1328,7137;0,0662173
1329,6780;0,0661132
1330,6422;0,0660096
1331,6064;0,0658861
1332,5707;0,0657284
1333,5349;0,0655287
1334,4991;0,0652802
1335,4634;0,0649686
1336,4276;0,0645685
1337,3918;0,0640516
1338,3561;0,0634085
1339,3203;0,0626734
1340,2845;0,0619221
1341,2488;0,061235
1342,2130;0,0606582
1343,1772;0,0601976
1344,1415;0,0598383
1345,1057;0,0595641
1346,0699;0,0593666
1347,0342;0,0592453
1347,9984;0,0592041
1348,9626;0,0592484
1349,9269;0,0593804
1350,8911;0,0595957
1351,8553;0,0598823
1352,8196;0,0602242
1353,7838;0,0606079
1354,7480;0,0610283
1355,7123;0,0614877
1356,6765;0,061989
1357,6407;0,0625282
1358,6050;0,0630919
1359,5692;0,0636601
1360,5334;0,0642094
1361,4977;0,0647178
1362,4619;0,0651751
1363,4261;0,0655903
1364,3904;0,0659827
1365,3546;0,0663625
1366,3188;0,0667237
1367,2831;0,0670483
1368,2473;0,0673153
1369,2115;0,0675047
1370,1758;0,0675976
1371,1400;0,0675731
1372,1042;0,0674085
1373,0685;0,0670915
1374,0327;0,0666387
1374,9969;0,0660991
1375,9612;0,0655229
1376,9254;0,0649207
1377,8896;0,0642569
1378,8539;0,0634876
1379,8181;0,0626065
1380,7823;0,0616644
1381,7466;0,0607418
1382,7108;0,0598932
1383,6750;0,0591112
1384,6393;0,0583381
1385,6035;0,0575155
1386,5677;0,0566466
1387,5320;0,055821
1388,4962;0,0551573
1389,4604;0,05471
1390,4247;0,0544455
1391,3889;0,0542894
1392,3531;0,0541778
1393,3174;0,0540789
1394,2816;0,0539904
1395,2458;0,0539274
1396,2101;0,0539071
1397,1743;0,0539407
1398,1385;0,054034
1399,1028;0,0541905
1400,0670;0,0544081
1401,0313;0,054676
1401,9955;0,0549758
1402,9597;0,0552904
1403,9240;0,0556141
1404,8882;0,0559556
1405,8524;0,0563327
1406,8167;0,0567586
1407,7809;0,0572323
1408,7451;0,057743
1409,7094;0,0582835
1410,6736;0,0588563
1411,6378;0,0594699
1412,6021;0,0601256
1413,5663;0,06081
1414,5305;0,0614956
1415,4948;0,0621478
1416,4590;0,0627263
1417,4232;0,0631876
1418,3875;0,0635072
1419,3517;0,0637114
1420,3159;0,0638556
1421,2802;0,0639562
1422,2444;0,063975
1423,2086;0,0638643
1424,1729;0,0636111
1425,1371;0,0632413
1426,1013;0,0627856
1427,0656;0,0622435
1428,0298;0,0615829
1428,9940;0,0607881
1429,9583;0,0599095
1430,9225;0,0590529
1431,8867;0,0582988
1432,8510;0,0576363
1433,8152;0,0569711
1434,7794;0,0561924
1435,7437;0,0552699
1436,7079;0,0543318
1437,6721;0,0536001
1438,6364;0,0531975
1439,6006;0,0530753
1440,5648;0,0531147
1441,5291;0,0532282
1442,4933;0,0533844
1443,4575;0,0535866
1444,4218;0,0538411
1445,3860;0,0541379
1446,3502;0,0544531
1447,3145;0,054767
1448,2787;0,0550806
1449,2429;0,0554146
1450,2072;0,0557859
1451,1714;0,056186
1452,1356;0,05658
1453,0999;0,0569172
1454,0641;0,0571321
1455,0283;0,0571287
1455,9926;0,0567909
1456,9568;0,0561382
1457,9210;0,0554951
1458,8853;0,0551923
1459,8495;0,0552169
1460,8137;0,0553559
1461,7780;0,0554003
1462,7422;0,0551917
1463,7064;0,0546338
1464,6707;0,0537523
1465,6349;0,0527292
1466,5991;0,051775
1467,5634;0,0509578
1468,5276;0,0501886
1469,4918;0,0493062
1470,4561;0,0481398
1471,4203;0,0465642
1472,3845;0,0446149
1473,3488;0,0425829
1474,3130;0,0408412
1475,2772;0,0395375
1476,2415;0,0385825
1477,2057;0,0378327
1478,1699;0,0371913
1479,1342;0,0366118
1480,0984;0,0360784
1481,0626;0,0355963
1482,0269;0,0351878
1482,9911;0,0348803
1483,9553;0,0346883
1484,9196;0,0346005
1485,8838;0,0345837
1486,8480;0,0345958
1487,8123;0,0346048
1488,7765;0,034619
1489,7407;0,0347042
1490,7050;0,0349347
1491,6692;0,0353235
1492,6334;0,0358286
1493,5977;0,0364045
1494,5619;0,0370298
1495,5261;0,0377039
1496,4904;0,0384302
1497,4546;0,0392041
1498,4188;0,0400175
1499,3831;0,0408572
1500,3473;0,0416907
1501,3115;0,0424683
1502,2758;0,0431443
1503,2400;0,0436928
1504,2042;0,0441072
1505,1685;0,0443694
1506,1327;0,0444039
1507,0969;0,0441578
1508,0612;0,0438113
1509,0254;0,0436041
1509,9896;0,0435534
1510,9539;0,0435534
1511,9181;0,0435129
1512,8823;0,0433797
1513,8466;0,0431294
1514,8108;0,0427607
1515,7750;0,0422981
1516,7393;0,0417816
1517,7035;0,0412387
1518,6677;0,0406649
1519,6320;0,040044
1520,5962;0,0393984
1521,5604;0,038815
1522,5247;0,0383948
1523,4889;0,0381734
1524,4531;0,0381116
1525,4174;0,0381517
1526,3816;0,0382635
1527,3458;0,0384443
1528,3101;0,0386914
1529,2743;0,0389862
1530,2385;0,039305
1531,2028;0,0396379
1532,1670;0,0399975
1533,1312;0,0404081
1534,0955;0,0408798
1535,0597;0,0413908
1536,0239;0,0418975
1536,9882;0,0423588
1537,9524;0,0427453
1538,9166;0,0430144
1539,8809;0,0430773
1540,8451;0,0428896
1541,8093;0,0426182
1542,7736;0,0424629
1543,7378;0,0424345
1544,7020;0,042458
1545,6663;0,0424904
1546,6305;0,0425264
1547,5947;0,0425648
1548,5590;0,0425882
1549,5232;0,0425706
1550,4874;0,0425026
1551,4517;0,0424112
1552,4159;0,0423471
1553,3801;0,0423433
1554,3444;0,0423814
1555,3086;0,0423853
1556,2728;0,04222
1557,2371;0,0417044
1558,2013;0,0408025
1559,1655;0,039964
1560,1298;0,0397322
1561,0940;0,0400742
1562,0582;0,0406683
1563,0225;0,0412835
1563,9867;0,0418164
1564,9509;0,0422344
1565,9152;0,0425395
1566,8794;0,0427608
1567,8436;0,0429611
1568,8079;0,0432287
1569,7721;0,04363
1570,7363;0,0441591
1571,7006;0,044747
1572,6648;0,045318
1573,6290;0,0458283
1574,5933;0,0462735
1575,5575;0,0466791
1576,5217;0,0470917
1577,4860;0,0475594
1578,4502;0,0480965
1579,4144;0,0486752
1580,3787;0,0492567
1581,3429;0,0498178
1582,3071;0,0503566
1583,2714;0,0508873
1584,2356;0,0514316
1585,1998;0,052009
1586,1641;0,0526273
1587,1283;0,0532776
1588,0925;0,053936
1589,0568;0,0545685
1590,0210;0,0551375
1590,9852;0,0556071
1591,9495;0,0559455
1592,9137;0,0561285
1593,8779;0,0561483
1594,8422;0,0560226
1595,8064;0,0557924
1596,7706;0,0555062
1597,7349;0,0552007
1598,6991;0,0548938
1599,6633;0,0545905
1600,6276;0,0542948
1601,5918;0,0540184
1602,5560;0,0537815
1603,5203;0,053602
1604,4845;0,0534821
1605,4487;0,0534037
1606,4130;0,0533378
1607,3772;0,0532667
1608,3414;0,0532043
1609,3057;0,0531949
1610,2699;0,0532805
1611,2341;0,0534617
1612,1984;0,053692
1613,1626;0,0539039
1614,1268;0,0540437
1615,0911;0,0541051
1616,0553;0,0541576
1617,0195;0,0543221
1617,9838;0,0546678
1618,9480;0,0551513
1619,9122;0,0556747
1620,8765;0,0561604
1621,8407;0,0565748
1622,8049;0,0569221
1623,7692;0,057229
1624,7334;0,0575253
1625,6976;0,0578276
1626,6619;0,0581418
1627,6261;0,058476
1628,5903;0,0588436
1629,5546;0,0592474
1630,5188;0,0596659
1631,4830;0,060055
1632,4473;0,0603603
1633,4115;0,0605247
1634,3757;0,0605032
1635,3400;0,0603235
1636,3042;0,0601506
1637,2684;0,0601723
1638,2327;0,0604151
1639,1969;0,0607801
1640,1611;0,0611672
1641,1254;0,0615182
1642,0896;0,0618007
1643,0538;0,0619824
1644,0181;0,0620144
1644,9823;0,0618467
1645,9465;0,061504
1646,9108;0,0611571
1647,8750;0,0609997
1648,8392;0,0610456
1649,8035;0,0611309
1650,7677;0,0610091
1651,7319;0,0603897
1652,6962;0,0591121
1653,6604;0,057597
1654,6246;0,0566092
1655,5889;0,056295
1656,5531;0,056295
1657,5173;0,0562858
1658,4816;0,0560974
1659,4458;0,0556484
1660,4100;0,0549089
1661,3743;0,0539276
1662,3385;0,0528722
1663,3027;0,0519588
1664,2670;0,051295
1665,2312;0,0508224
1666,1954;0,0503825
1667,1597;0,0497967
1668,1239;0,0489392
1669,0881;0,0478325
1670,0524;0,0466826
1671,0166;0,0457145
1671,9808;0,0449634
1672,9451;0,0442879
1673,9093;0,0435332
1674,8735;0,0426654
1675,8378;0,0418056
1676,8020;0,0411283
1677,7662;0,0407082
1678,7305;0,0404767
1679,6947;0,0402876
1680,6589;0,0399745
1681,6232;0,0393625
1682,5874;0,0383135
1683,5516;0,0369096
1684,5159;0,0355696
1685,4801;0,0346765
1686,4443;0,0342123
1687,4086;0,0339414
1688,3728;0,0336798
1689,3370;0,033366
1690,3013;0,0330221
1691,2655;0,0326925
1692,2297;0,0323994
1693,1940;0,0321285
1694,1582;0,0318415
1695,1224;0,0314974
1696,0867;0,0310706
1697,0509;0,0305584
1698,0151;0,029984
1698,9794;0,0294101
1699,9436;0,0289426
1700,9078;0,0286805
1701,8721;0,028645
1702,8363;0,0287711
1703,8005;0,028961
1704,7648;0,0291393
1705,7290;0,0292837
1706,6932;0,0294255
1707,6575;0,0296192
1708,6217;0,0298991
1709,5859;0,0302618
1710,5502;0,03068
1711,5144;0,0311212
1712,4786;0,0315548
1713,4429;0,0319457
1714,4071;0,0322466
1715,3713;0,0324054
1716,3356;0,0324146
1717,2998;0,0323822
1718,2640;0,0324801
1719,2283;0,0327833
1720,1925;0,0332346
1721,1567;0,033734
1722,1210;0,034205
1723,0852;0,0346105
1724,0494;0,0349502
1725,0137;0,035252
1725,9779;0,0355554
1726,9421;0,0358896
1727,9064;0,0362559
1728,8706;0,036622
1729,8348;0,0369262
1730,7991;0,0370837
1731,7633;0,0370061
1732,7275;0,0366615
1733,6918;0,0361623
1734,6560;0,0357269
1735,6202;0,035479
1736,5845;0,0353601
1737,5487;0,0352296
1738,5129;0,0349735
1739,4772;0,034551
1740,4414;0,0340013
1741,4056;0,0334109
1742,3699;0,0328509
1743,3341;0,0323344
1744,2983;0,0318303
1745,2626;0,0312977
1746,2268;0,0306965
1747,1910;0,0299756
1748,1553;0,0290764
1749,1195;0,0279887
1750,0837;0,0268186
1751,0480;0,0257513
1752,0122;0,0249113
1752,9764;0,0242878
1753,9407;0,0237843
1754,9049;0,0233016
1755,8691;0,0227901
1756,8334;0,022256
1757,7976;0,0217301
1758,7618;0,0212226
1759,7261;0,0207082
1760,6903;0,0201581
1761,6545;0,019587
1762,6188;0,0190611
1763,5830;0,0186494
1764,5472;0,0183713
1765,5115;0,0181901
1766,4757;0,0180445
1767,4399;0,0178803
1768,4042;0,0176631
1769,3684;0,0173753
1770,3326;0,0170129
1771,2969;0,0165975
1772,2611;0,0161959
1773,2253;0,0159004
1774,1896;0,0157643
1775,1538;0,0157649
1776,1180;0,0158308
1777,0823;0,0158875
1778,0465;0,0158864
1779,0107;0,0158158
1779,9750;0,0156971
1780,9392;0,0155672
1781,9034;0,0154533
1782,8677;0,0153646
1783,8319;0,0153032
1784,7961;0,0152784
1785,7604;0,0153046
1786,7246;0,0153836
1787,6888;0,0154927
1788,6531;0,0155866
1789,6173;0,0156112
1790,5815;0,0155256
1791,5458;0,0153362
1792,5100;0,015118
1793,4742;0,014972
1794,4385;0,0149426
1795,4027;0,0149967
1796,3669;0,0150698
1797,3312;0,015111
1798,2954;0,0151007
1799,2596;0,0150492
1800,2239;0,0149842
1801,1881;0,0149328
1802,1523;0,0149073
1803,1166;0,0149051
1804,0808;0,0149188
1805,0450;0,0149427
1806,0093;0,0149727
1806,9735;0,0150017
1807,9377;0,0150163
1808,9020;0,0150004
1809,8662;0,0149451
1810,8304;0,014859
1811,7947;0,014767
1812,7589;0,0146956
1813,7231;0,0146575
1814,6874;0,0146497
1815,6516;0,0146605
1816,6158;0,0146798
1817,5801;0,0147048
1818,5443;0,0147395
1819,5085;0,0147876
1820,4728;0,0148446
1821,4370;0,0148979
1822,4012;0,0149327
1823,3655;0,0149414
1824,3297;0,0149287
1825,2939;0,0149058
1826,2582;0,0148783
1827,2224;0,0148373
1828,1866;0,014767
1829,1509;0,0146655
1830,1151;0,0145602
1831,0793;0,0144959
1832,0436;0,0144995
1833,0078;0,0145588
1833,9720;0,0146354
1834,9363;0,0146918
1835,9005;0,0147137
1836,8647;0,0147169
1837,8290;0,0147349
1838,7932;0,0147916
1839,7574;0,0148823
1840,7217;0,014977
1841,6859;0,0150358
1842,6501;0,0150275
1843,6144;0,0149475
1844,5786;0,0148273
1845,5428;0,0147151
1846,5071;0,0146362
1847,4713;0,0145812
1848,4355;0,0145286
1849,3998;0,0144697
1850,3640;0,0144149
1851,3282;0,0143828
1852,2925;0,014384
1853,2567;0,0144133
1854,2209;0,0144557
1855,1852;0,0144981
1856,1494;0,0145373
1857,1136;0,014576
1858,0779;0,014613
1859,0421;0,0146389
1860,0063;0,0146438
1860,9706;0,0146304
1861,9348;0,01462
1862,8990;0,0146413
1863,8633;0,0147118
1864,8275;0,0148233
1865,7917;0,0149383
1866,7560;0,0150016
1867,7202;0,0149689
1868,6844;0,014846
1869,6487;0,0146952
1870,6129;0,0145868
1871,5771;0,0145477
1872,5414;0,0145585
1873,5056;0,0145824
1874,4698;0,0145913
1875,4341;0,0145782
1876,3983;0,0145566
1877,3625;0,0145488
1878,3268;0,0145714
1879,2910;0,0146252
1880,2552;0,0146959
1881,2195;0,0147626
1882,1837;0,0148082
1883,1479;0,0148278
1884,1122;0,0148304
1885,0764;0,0148337
1886,0406;0,0148546
1887,0049;0,0148999
1887,9691;0,0149598
1888,9333;0,0150097
1889,8976;0,0150217
1890,8618;0,0149811
1891,8260;0,0148942
1892,7903;0,0147838
1893,7545;0,0146793
1894,7188;0,0146077
1895,6830;0,0145841
1896,6472;0,0146066
1897,6115;0,0146568
1898,5757;0,0147091
1899,5399;0,0147421
1900,5042;0,0147461
1901,4684;0,0147253
1902,4326;0,0146933
1903,3969;0,0146657
1904,3611;0,0146524
1905,3253;0,0146549
1906,2896;0,0146683
1907,2538;0,014687
1908,2180;0,0147083
1909,1823;0,0147339
1910,1465;0,0147665
1911,1107;0,0148048
1912,0750;0,0148409
1913,0392;0,0148614
1914,0034;0,0148539
1914,9677;0,0148143
1915,9319;0,0147526
1916,8961;0,0146933
1917,8604;0,0146658
1918,8246;0,014686
1919,7888;0,0147449
1920,7531;0,0148111
1921,7173;0,0148479
1922,6815;0,0148323
1923,6458;0,0147682
1924,6100;0,0146854
1925,5742;0,0146236
1926,5385;0,01461
1927,5027;0,0146469
1928,4669;0,0147128
1929,4312;0,0147728
1930,3954;0,0147952
1931,3596;0,0147667
1932,3239;0,0146994
1933,2881;0,0146249
1934,2523;0,0145781
1935,2166;0,0145795
1936,1808;0,0146253
1937,1450;0,0146913
1938,1093;0,0147472
1939,0735;0,0147729
1940,0377;0,014767
1941,0020;0,0147448
1941,9662;0,014727
1942,9304;0,0147263
1943,8947;0,0147403
1944,8589;0,0147563
1945,8231;0,0147626
1946,7874;0,014756
1947,7516;0,0147417
1948,7158;0,0147283
1949,6801;0,0147207
1950,6443;0,014716
1951,6085;0,0147028
1952,5728;0,0146657
1953,5370;0,0145933
1954,5012;0,0144875
1955,4655;0,01437
1956,4297;0,0142808
1957,3939;0,0142641
1958,3582;0,0143469
1959,3224;0,0145196
1960,2866;0,0147327
1961,2509;0,0149178
1962,2151;0,0150228
1963,1793;0,0150364
1964,1436;0,0149868
1965,1078;0,0149155
1966,0720;0,0148459
1967,0363;0,0147681
1968,0005;0,0146533
1968,9647;0,0144884
1969,9290;0,014303
1970,8932;0,0141661
1971,8574;0,0141544
1972,8217;0,0143108
1973,7859;0,0146123
1974,7501;0,0149695
1975,7144;0,0152618
1976,6786;0,0153973
1977,6428;0,0153584
1978,6071;0,0152
1979,5713;0,015003
1980,5355;0,0148262
1981,4998;0,0146891
1982,4640;0,0145881
1983,4282;0,0145217
1984,3925;0,0145017
1985,3567;0,0145447
1986,3209;0,0146538
1987,2852;0,0148087
1988,2494;0,0149741
1989,2136;0,0151195
1990,1779;0,0152352
1991,1421;0,0153294
1992,1063;0,0154111
1993,0706;0,0154733
1994,0348;0,0154944
1994,9990;0,0154553
1995,9633;0,0153585
1996,9275;0,0152332
1997,8917;0,015125
1998,8560;0,0150771
1999,8202;0,0151133
2000,7844;0,0152327
2001,7487;0,0154125
2002,7129;0,0156149
2003,6771;0,0157941
2004,6414;0,0159057
2005,6056;0,0159262
2006,5698;0,0158721
2007,5341;0,0158004
2008,4983;0,0157782
2009,4625;0,0158377
2010,4268;0,0159514
2011,3910;0,0160482
2012,3552;0,0160596
2013,3195;0,0159627
2014,2837;0,0157939
2015,2479;0,0156272
2016,2122;0,0155316
2017,1764;0,0155366
2018,1406;0,0156281
2019,1049;0,0157703
2020,0691;0,0159319
2021,0333;0,0160945
2021,9976;0,0162464
2022,9618;0,0163735
2023,9260;0,0164592
2024,8903;0,0164906
2025,8545;0,0164624
2026,8187;0,0163738
2027,7830;0,0162254
2028,7472;0,0160236
2029,7114;0,0157953
2030,6757;0,0155979
2031,6399;0,0155095
2032,6041;0,0155942
2033,5684;0,0158596
2034,5326;0,0162381
2035,4968;0,0166137
2036,4611;0,0168791
2037,4253;0,0169877
2038,3895;0,0169651
2039,3538;0,0168787
2040,3180;0,0167881
2041,2822;0,0167113
2042,2465;0,0166284
2043,2107;0,0165173
2044,1749;0,0163918
2045,1392;0,0163085
2046,1034;0,0163332
2047,0676;0,0164908
2048,0320;0,0167373
2048,9961;0,0169823
2049,9604;0,0171436
2050,9246;0,0171889
2051,8889;0,0171365
2052,8530;0,0170286
2053,8174;0,0169044
2054,7815;0,0167899
2055,7458;0,0167042
2056,7100;0,0166664
2057,6743;0,0166923
2058,6384;0,0167808
2059,6028;0,016904
2060,5669;0,0170152
2061,5313;0,017073
2062,4954;0,0170661
2063,4597;0,0170207
2064,4238;0,0169832
2065,3882;0,0169902
2066,3523;0,0170476
2067,3167;0,0171307
2068,2808;0,0172024
2069,2451;0,0172336
2070,2092;0,017215
2071,1736;0,0171563
2072,1377;0,0170784
2073,1021;0,0170031
2074,0662;0,016944
2075,0305;0,0169024
2075,9946;0,0168704
2076,9590;0,0168389
2077,9231;0,0168079
2078,8875;0,0167898
2079,8516;0,016802
2080,8159;0,0168542
2081,7800;0,0169386
2082,7444;0,0170327
2083,7085;0,0171119
2084,6729;0,0171646
2085,6370;0,0171977
2086,6013;0,0172285
2087,5654;0,01727
2088,5298;0,017318
2089,4939;0,0173515
2090,4583;0,0173434
2091,4224;0,0172776
2092,3867;0,0171622
2093,3508;0,0170323
2094,3152;0,0169406
2095,2793;0,0169358
2096,2437;0,0170392
2097,2078;0,0172297
2098,1721;0,0174506
2099,1362;0,0176339
2100,1006;0,0177294
2101,0647;0,0177219
2102,0291;0,0176295
2102,9932;0,0174871
2103,9575;0,0173295
2104,9216;0,0171848
2105,8860;0,0170783
2106,8501;0,0170356
2107,8145;0,0170764
2108,7786;0,0171995
2109,7429;0,0173733
2110,7070;0,0175434
2111,6714;0,0176584
2112,6355;0,0176957
2113,5999;0,0176698
2114,5640;0,0176162
2115,5283;0,0175648
2116,4924;0,0175232
2117,4568;0,0174813
2118,4209;0,017431
2119,3853;0,0173824
2120,3494;0,0173608
2121,3137;0,0173869
2122,2778;0,0174581
2123,2422;0,0175467
2124,2063;0,0176189
2125,1707;0,0176593
2126,1348;0,0176806
2127,0991;0,0177092
2128,0632;0,0177579
2129,0276;0,0178094
2129,9917;0,0178234
2130,9561;0,017768
2131,9202;0,0176517
2132,8845;0,0175332
2133,8486;0,0174974
2134,8130;0,0176062
2135,7771;0,0178552
2136,7415;0,0181647
2137,7056;0,0184154
2138,6699;0,0185039
2139,6340;0,0183884
2140,5984;0,0181051
2141,5625;0,0177554
2142,5269;0,0174715
2143,4910;0,0173727
2144,4553;0,0175247
2145,4194;0,0179115
2146,3838;0,0184334
2147,3479;0,0189338
2148,3123;0,0192526
2149,2764;0,0192874
2150,2407;0,0190376
2151,2048;0,0186114
2152,1692;0,0181882
2153,1333;0,0179497
2154,0977;0,0180075
2155,0618;0,0183568
2156,0261;0,0188718
2156,9902;0,0193519
2157,9546;0,0196138
2158,9187;0,0195922
2159,8831;0,0193696
2160,8472;0,0190997
2161,8115;0,0188982
2162,7756;0,018794
2163,7400;0,0187514
2164,7041;0,0187183
2165,6685;0,0186642
2166,6326;0,0185921
2167,5969;0,0185306
2168,5610;0,0185149
2169,5254;0,0185689
2170,4895;0,0186919
2171,4539;0,0188539
2172,4180;0,0189995
2173,3823;0,0190665
2174,3464;0,0190129
2175,3108;0,0188406
2176,2749;0,018598
2177,2393;0,0183554
2178,2034;0,0181717
2179,1677;0,0180719
2180,1318;0,0180503
2181,0962;0,0180893
2182,0603;0,0181745
2183,0247;0,0182919
2183,9888;0,0184117
2184,9531;0,0184817
2185,9172;0,0184472
2186,8816;0,018289
2187,8457;0,018052
2188,8101;0,0178353
2189,7742;0,017742
2190,7385;0,0178171
2191,7026;0,0180158
2192,6670;0,0182259
2193,6311;0,0183327
2194,5955;0,0182834
2195,5596;0,0181115
2196,5239;0,0179085
2197,4880;0,0177675
2198,4524;0,0177358
2199,4165;0,0178037
2200,3809;0,0179274
2201,3450;0,0180605
2202,3093;0,0181736
2203,2734;0,0182553
2204,2378;0,018303
2205,2019;0,0183183
2206,1663;0,0183077
2207,1304;0,0182834
2208,0947;0,0182591
2209,0588;0,018241
2210,0232;0,0182249
2210,9873;0,0182017
2211,9517;0,0181688
2212,9158;0,0181358
2213,8801;0,0181182
2214,8442;0,0181245
2215,8086;0,0181465
2216,7727;0,0181632
2217,7371;0,0181553
2218,7012;0,0181186
2219,6655;0,0180673
2220,6296;0,0180242
2221,5940;0,0180063
2222,5581;0,0180148
2223,5225;0,0180347
2224,4866;0,0180418
2225,4509;0,0180138
2226,4150;0,0179403
2227,3794;0,0178296
2228,3435;0,0177112
2229,3079;0,0176263
2230,2720;0,0176118
2231,2363;0,0176805
2232,2004;0,0178114
2233,1648;0,0179579
2234,1289;0,0180704
2235,0933;0,0181239
2236,0574;0,0181306
2237,0217;0,0181304
2237,9858;0,0181634
2238,9502;0,0182407
2239,9143;0,0183348
2240,8787;0,0183944
2241,8428;0,0183767
2242,8071;0,0182749
2243,7712;0,0181237
2244,7356;0,0179791
2245,6997;0,0178852
2246,6641;0,0178506
2247,6282;0,0178499
2248,5925;0,0178475
2249,5566;0,0178258
2250,5210;0,0177966
2251,4851;0,0177898
2252,4495;0,017828
2253,4136;0,0179071
2254,3779;0,0179964
2255,3420;0,0180575
2256,3064;0,0180673
2257,2705;0,0180284
2258,2349;0,0179638
2259,1990;0,0179022
2260,1633;0,0178653
2261,1274;0,0178635
2262,0918;0,0178964
2263,0559;0,0179554
2264,0203;0,0180251
2264,9844;0,0180867
2265,9487;0,0181248
2266,9128;0,018134
2267,8772;0,0181199
2268,8413;0,0180937
2269,8057;0,0180626
2270,7698;0,0180255
2271,7341;0,0179775
2272,6982;0,0179196
2273,6626;0,0178645
2274,6267;0,0178317
2275,5911;0,0178355
2276,5552;0,0178738
2277,5195;0,0179279
2278,4836;0,0179737
2279,4480;0,0179969
2280,4121;0,018001
2281,3765;0,0180031
2282,3406;0,0180224
2283,3049;0,0180697
2284,2690;0,018143
2285,2334;0,0182306
2286,1975;0,0183184
2287,1619;0,018396
2288,1260;0,0184609
2289,0903;0,0185187
2290,0544;0,0185803
2291,0188;0,018656
2291,9829;0,0187494
2292,9473;0,0188537
2293,9114;0,0189549
2294,8757;0,0190392
2295,8398;0,0191023
2296,8042;0,0191517
2297,7683;0,0192008
2298,7327;0,019257
2299,6968;0,0193136
2300,6611;0,0193524
2301,6252;0,0193584
2302,5896;0,0193351
2303,5537;0,019311
2304,5181;0,0193275
2305,4822;0,0194137
2306,4465;0,0195626
2307,4106;0,0197232
2308,3750;0,0198187
2309,3391;0,0197852
2310,3035;0,0196081
2311,2676;0,0193351
2312,2319;0,0190535
2313,1960;0,0188441
2314,1604;0,0187412
2315,1245;0,018722
2316,0889;0,0187291
2317,0530;0,0187075
2318,0173;0,0186356
2318,9814;0,018536
2319,9458;0,0184633
2320,9099;0,0184746
2321,8743;0,0185976
2322,8384;0,0188127
2323,8027;0,0190575
2324,7668;0,0192501
2325,7312;0,0193185
2326,6953;0,0192281
2327,6597;0,0189976
2328,6238;0,0186978
2329,5881;0,0184288
2330,5522;0,0182797
2331,5166;0,0182867
2332,4807;0,0184168
2333,4451;0,0185878
2334,4092;0,0187149
2335,3735;0,0187536
2336,3376;0,018719
2337,3020;0,0186731
2338,2661;0,0186853
2339,2305;0,0187849
2340,1946;0,0189287
2341,1589;0,0190069
2342,1230;0,0188999
2343,0874;0,018594
2344,0515;0,0182855
2345,0159;0,018285
2345,9800;0,0187367
2346,9443;0,019484
2347,9084;0,0202096
2348,8728;0,0206431
2349,8369;0,0206766
2350,8013;0,0203842
2351,7654;0,0199744
2352,7297;0,019688
2353,6938;0,0196757
2354,6582;0,019938
2355,6223;0,0203648
2356,5867;0,0208069
2357,5508;0,0211148
2358,5151;0,0211719
2359,4792;0,0209441
2360,4436;0,0204994
2361,4077;0,0199543
2362,3721;0,0193975
2363,3362;0,0188649
2364,3005;0,0183672
2365,2646;0,0179185
2366,2290;0,0175331
2367,1931;0,0172085
2368,1575;0,0169247
2369,1216;0,016664
2370,0859;0,0164297
2371,0500;0,0162461
2372,0144;0,0161424
2372,9785;0,0161362
2373,9429;0,0162276
2374,9070;0,0164037
2375,8713;0,0166459
2376,8354;0,0169349
2377,7998;0,0172512
2378,7639;0,0175725
2379,7283;0,0178739
2380,6924;0,0181302
2381,6567;0,0183218
2382,6208;0,0184403
2383,5852;0,0184912
2384,5493;0,0184912
2385,5137;0,0184616
2386,4778;0,0184211
2387,4421;0,0183819
2388,4063;0,0183492
2389,3706;0,0183252
2390,3347;0,0183116
2391,2991;0,0183111
2392,2632;0,018325
2393,2275;0,0183511
2394,1917;0,0183831
2395,1560;0,0184132
2396,1201;0,0184357
2397,0845;0,0184494
2398,0486;0,018458
2399,0129;0,0184664
2399,9771;0,0184779
2400,9414;0,0184938
2401,9055;0,018513
2402,8699;0,0185338
2403,8340;0,0185548
2404,7983;0,0185756
2405,7625;0,0185964
2406,7268;0,0186169
2407,6909;0,0186368
2408,6553;0,018656
2409,6194;0,0186749
2410,5837;0,0186948
2411,5479;0,0187176
2412,5122;0,0187445
2413,4763;0,0187752
2414,4407;0,0188072
2415,4048;0,0188381
2416,3691;0,0188666
2417,3333;0,0188938
2418,2976;0,0189222
2419,2617;0,0189536
2420,2261;0,0189876
2421,1902;0,0190205
2422,1545;0,0190475
2423,1187;0,0190645
2424,0830;0,0190693
2425,0471;0,019063
2426,0115;0,0190502
2426,9756;0,0190391
2427,9399;0,0190407
2428,9041;0,0190647
2429,8684;0,0191141
2430,8325;0,0191816
2431,7969;0,0192508
2432,7610;0,0193027
2433,7253;0,0193256
2434,6895;0,0193198
2435,6538;0,0192977
2436,6179;0,0192758
2437,5823;0,0192664
2438,5464;0,0192737
2439,5107;0,0192946
2440,4749;0,0193235
2441,4392;0,0193565
2442,4033;0,0193925
2443,3677;0,0194316
2444,3318;0,0194728
2445,2961;0,0195132
2446,2603;0,0195497
2447,2246;0,0195791
2448,1887;0,0195997
2449,1531;0,0196108
2450,1172;0,0196136
2451,0815;0,0196114
2452,0457;0,0196104
2453,0100;0,0196183
2453,9741;0,0196406
2454,9385;0,019678
2455,9026;0,0197245
2456,8669;0,0197692
2457,8311;0,0198011
2458,7954;0,0198135
2459,7595;0,0198069
2460,7239;0,0197883
2461,6880;0,0197686
2462,6523;0,0197582
2463,6165;0,0197648
2464,5808;0,0197908
2465,5449;0,0198335
2466,5093;0,0198858
2467,4734;0,0199388
2468,4377;0,0199845
2469,4019;0,0200182
2470,3662;0,02004
2471,3303;0,0200533
2472,2947;0,0200615
2473,2588;0,020066
2474,2231;0,0200654
2475,1873;0,0200574
2476,1516;0,0200433
2477,1157;0,0200292
2478,0801;0,020025
2479,0442;0,0200399
2480,0085;0,0200772
2480,9727;0,0201316
2481,9370;0,0201912
2482,9011;0,0202434
2483,8655;0,0202806
2484,8296;0,0203032
2485,7939;0,0203176
2486,7581;0,0203317
2487,7224;0,0203505
2488,6865;0,0203741
2489,6509;0,0204001
2490,6150;0,0204261
2491,5793;0,0204514
2492,5435;0,0204768
2493,5078;0,0205027
2494,4719;0,0205284
2495,4363;0,020553
2496,4004;0,0205755
2497,3647;0,0205954
2498,3289;0,020611
2499,2932;0,0206193
2500,2573;0,0206174
2501,2217;0,0206062
2502,1858;0,0205925
2503,1501;0,0205875
2504,1143;0,0206015
2505,0786;0,020638
2506,0427;0,0206912
2507,0071;0,0207497
2507,9712;0,0208018
2508,9355;0,0208407
2509,8997;0,0208648
2510,8640;0,020875
2511,8281;0,0208728
2512,7925;0,0208606
2513,7566;0,0208431
2514,7209;0,0208282
2515,6851;0,0208231
2516,6494;0,0208305
2517,6135;0,0208462
2518,5779;0,0208614
2519,5420;0,0208693
2520,5063;0,0208684
2521,4705;0,0208626
2522,4348;0,0208569
2523,3989;0,0208528
2524,3633;0,0208486
2525,3274;0,0208428
2526,2917;0,0208393
2527,2559;0,0208466
2528,2202;0,0208729
2529,1843;0,0209197
2530,1487;0,0209777
2531,1128;0,0210306
2532,0771;0,0210627
2533,0413;0,0210672
2534,0056;0,0210487
2534,9697;0,02102
2535,9341;0,0209954
2536,8982;0,020984
2537,8625;0,0209875
2538,8267;0,0210017
2539,7910;0,0210205
2540,7551;0,0210393
2541,7195;0,021057
2542,6836;0,0210749
2543,6479;0,0210944
2544,6121;0,0211155
2545,5764;0,0211351
2546,5405;0,0211488
2547,5049;0,0211528
2548,4690;0,0211459
2549,4333;0,0211305
2550,3975;0,0211121
2551,3618;0,0210977
2552,3259;0,0210942
2553,2903;0,0211063
2554,2544;0,0211353
2555,2188;0,0211786
2556,1829;0,0212305
2557,1472;0,0212838
2558,1113;0,0213322
2559,0757;0,021372
2560,0398;0,0214019
2561,0042;0,0214217
2561,9683;0,0214313
2562,9326;0,0214299
2563,8967;0,0214185
2564,8611;0,0214003
2565,8252;0,0213815
2566,7896;0,0213677
2567,7537;0,0213621
2568,7180;0,0213635
2569,6821;0,0213684
2570,6465;0,0213743
2571,6106;0,0213811
2572,5750;0,0213909
2573,5391;0,021405
2574,5034;0,0214216
2575,4675;0,0214364
2576,4319;0,0214447
2577,3960;0,0214451
2578,3604;0,0214405
2579,3245;0,0214362
2580,2888;0,0214375
2581,2529;0,0214476
2582,2173;0,0214675
2583,1814;0,0214965
2584,1458;0,0215331
2585,1099;0,0215744
2586,0742;0,0216157
2587,0383;0,021651
2588,0027;0,0216752
2588,9668;0,0216864
2589,9312;0,0216871
2590,8953;0,0216832
2591,8596;0,0216821
2592,8237;0,021689
2593,7881;0,0217061
2594,7522;0,021732
2595,7166;0,0217629
2596,6807;0,0217945
2597,6450;0,0218236
2598,6091;0,0218491
2599,5735;0,0218724
2600,5376;0,0218965
2601,5020;0,0219243
2602,4661;0,0219567
2603,4304;0,0219919
2604,3945;0,022026
2605,3589;0,0220546
2606,3230;0,0220752
2607,2874;0,0220883
2608,2515;0,0220968
2609,2158;0,0221052
2610,1799;0,0221171
2611,1443;0,0221341
2612,1084;0,0221558
2613,0728;0,0221804
2614,0369;0,0222063
2615,0012;0,0222336
2615,9653;0,0222637
2616,9297;0,0222983
2617,8938;0,0223374
2618,8582;0,022378
2619,8223;0,0224153
2620,7866;0,0224439
2621,7507;0,022461
2622,7151;0,0224671
2623,6792;0,022466
2624,6436;0,0224632
2625,6077;0,0224648
2626,5720;0,0224761
2627,5361;0,0225007
2628,5005;0,0225394
2629,4646;0,0225889
2630,4290;0,0226419
2631,3931;0,0226892
2632,3574;0,0227229
2633,3215;0,0227401
2634,2859;0,0227442
2635,2500;0,0227431
2636,2144;0,0227455
2637,1785;0,0227575
2638,1428;0,0227817
2639,1069;0,0228164
2640,0713;0,0228578
2641,0354;0,0229011
2641,9998;0,0229411
2642,9639;0,0229741
2643,9282;0,0229986
2644,8923;0,0230161
2645,8567;0,0230303
2646,8208;0,0230454
2647,7852;0,023064
2648,7493;0,0230867
2649,7136;0,0231125
2650,6777;0,0231403
2651,6421;0,0231701
2652,6062;0,023202
2653,5706;0,0232358
2654,5347;0,0232703
2655,4990;0,0233038
2656,4631;0,0233351
2657,4275;0,0233648
2658,3916;0,0233945
2659,3560;0,0234258
2660,3201;0,0234583
2661,2844;0,0234902
2662,2485;0,0235186
2663,2129;0,0235421
2664,1770;0,0235618
2665,1414;0,0235808
2666,1055;0,0236022
2667,0698;0,0236268
2668,0339;0,0236526
2668,9983;0,0236759
2669,9624;0,0236942
2670,9268;0,0237089
2671,8909;0,0237248
2672,8552;0,0237471
2673,8193;0,0237783
2674,7837;0,0238153
2675,7478;0,0238516
2676,7122;0,0238807
2677,6763;0,0239007
2678,6406;0,023916
2679,6047;0,0239348
2680,5691;0,0239648
2681,5332;0,0240087
2682,4976;0,0240627
2683,4617;0,0241192
2684,4260;0,0241703
2685,3901;0,0242119
2686,3545;0,024244
2687,3186;0,0242703
2688,2830;0,0242945
2689,2471;0,0243192
2690,2114;0,0243449
2691,1755;0,0243711
2692,1399;0,0243977
2693,1040;0,0244256
2694,0684;0,0244559
2695,0325;0,0244897
2695,9968;0,0245269
2696,9609;0,0245664
2697,9253;0,0246064
2698,8894;0,0246447
2699,8538;0,0246795
2700,8179;0,02471
2701,7822;0,024737
2702,7463;0,0247632
2703,7107;0,0247922
2704,6748;0,0248272
2705,6392;0,0248688
2706,6033;0,0249148
2707,5676;0,0249614
2708,5317;0,0250053
2709,4961;0,0250454
2710,4602;0,0250833
2711,4246;0,0251217
2712,3887;0,0251624
2713,3530;0,0252048
2714,3171;0,0252468
2715,2815;0,0252854
2716,2456;0,0253188
2717,2100;0,0253467
2718,1741;0,0253702
2719,1384;0,0253908
2720,1025;0,0254098
2721,0669;0,0254283
2722,0310;0,0254477
2722,9954;0,0254696
2723,9595;0,0254964
2724,9238;0,0255303
2725,8879;0,0255728
2726,8523;0,0256238
2727,8164;0,0256809
2728,7808;0,02574
2729,7449;0,0257969
2730,7092;0,0258476
2731,6733;0,0258897
2732,6377;0,0259221
2733,6018;0,025945
2734,5662;0,0259597
2735,5303;0,0259689
2736,4946;0,0259768
2737,4587;0,025988
2738,4231;0,0260059
2739,3872;0,0260318
2740,3516;0,0260639
2741,3157;0,0260986
2742,2800;0,026132
2743,2441;0,0261611
2744,2085;0,0261848
2745,1726;0,026203
2746,1370;0,0262168
2747,1011;0,0262279
2748,0654;0,02624
2749,0295;0,0262574
2749,9939;0,0262845
2750,9580;0,0263232
2751,9224;0,0263713
2752,8865;0,0264237
2753,8508;0,0264741
2754,8149;0,0265177
2755,7793;0,0265536
2756,7434;0,0265841
2757,7078;0,0266132
2758,6719;0,0266448
2759,6362;0,0266815
2760,6003;0,0267238
2761,5647;0,0267701
2762,5288;0,0268179
2763,4932;0,0268642
2764,4573;0,0269068
2765,4216;0,0269451
2766,3857;0,0269813
2767,3501;0,0270189
2768,3142;0,0270615
2769,2786;0,0271104
2770,2427;0,0271643
2771,2070;0,0272196
2772,1711;0,0272721
2773,1355;0,0273196
2774,0996;0,0273625
2775,0640;0,0274042
2776,0281;0,0274491
2776,9924;0,0275005
2777,9565;0,0275589
2778,9209;0,0276217
2779,8850;0,0276852
2780,8494;0,027747
2781,8135;0,0278074
2782,7778;0,0278695
2783,7419;0,0279357
2784,7063;0,028005
2785,6704;0,0280733
2786,6348;0,0281351
2787,5989;0,0281887
2788,5632;0,0282387
2789,5273;0,0282942
2790,4917;0,0283641
2791,4558;0,0284513
2792,4202;0,0285508
2793,3843;0,0286524
2794,3486;0,028747
2795,3127;0,0288313
2796,2771;0,0289091
2797,2412;0,0289881
2798,2056;0,0290745
2799,1697;0,0291702
2800,1340;0,0292721
2801,0981;0,0293758
2802,0625;0,0294782
2803,0266;0,0295792
2803,9910;0,0296806
2804,9551;0,0297837
2805,9194;0,0298876
2806,8835;0,0299907
2807,8479;0,030092
2808,8120;0,0301934
2809,7764;0,0302987
2810,7405;0,0304118
2811,7048;0,0305341
2812,6689;0,0306636
2813,6333;0,0307966
2814,5974;0,0309309
2815,5618;0,0310673
2816,5259;0,0312093
2817,4902;0,0313608
2818,4543;0,0315226
2819,4187;0,0316921
2820,3828;0,0318643
2821,3472;0,0320349
2822,3113;0,0322028
2823,2756;0,0323708
2824,2397;0,0325443
2825,2041;0,0327295
2826,1682;0,0329306
2827,1326;0,0331497
2828,0967;0,0333862
2829,0610;0,0336384
2830,0251;0,0339041
2830,9895;0,0341811
2831,9536;0,0344674
2832,9180;0,0347605
2833,8821;0,0350587
2834,8464;0,0353633
2835,8105;0,0356821
2836,7749;0,03603
2837,7390;0,0364275
2838,7034;0,0368944
2839,6675;0,0374435
2840,6318;0,0380784
2841,5959;0,0387954
2842,5603;0,0395888
2843,5244;0,0404529
2844,4888;0,0413778
2845,4529;0,0423384
2846,4172;0,0432854
2847,3813;0,0441454
2848,3457;0,0448354
2849,3098;0,0452871
2850,2742;0,0454693
2851,2383;0,0453988
2852,2026;0,0451318
2853,1667;0,0447442
2854,1311;0,0443082
2855,0952;0,0438771
2856,0596;0,0434822
2857,0237;0,043138
2857,9880;0,0428504
2858,9521;0,0426227
2859,9165;0,0424572
2860,8806;0,0423537
2861,8450;0,0423091
2862,8091;0,0423163
2863,7734;0,0423666
2864,7375;0,0424508
2865,7019;0,0425604
2866,6660;0,042688
2867,6304;0,0428263
2868,5945;0,042968
2869,5588;0,043105
2870,5229;0,0432294
2871,4873;0,0433351
2872,4514;0,0434186
2873,4158;0,0434811
2874,3799;0,0435281
2875,3442;0,0435679
2876,3083;0,0436096
2877,2727;0,0436607
2878,2368;0,0437261
2879,2012;0,0438082
2880,1653;0,0439076
2881,1296;0,0440235
2882,0938;0,0441539
2883,0581;0,0442952
2884,0222;0,0444426
2884,9866;0,0445916
2885,9507;0,04474
2886,9150;0,0448887
2887,8792;0,0450415
2888,8435;0,0452023
2889,8076;0,0453727
2890,7720;0,0455506
2891,7361;0,0457318
2892,7004;0,0459127
2893,6646;0,0460928
2894,6289;0,0462747
2895,5930;0,046462
2896,5574;0,0466559
2897,5215;0,0468537
2898,4858;0,0470495
2899,4500;0,0472376
2900,4143;0,0474154
2901,3784;0,0475856
2902,3428;0,0477554
2903,3069;0,0479345
2904,2712;0,0481326
2905,2354;0,0483595
2906,1997;0,0486261
2907,1638;0,0489473
2908,1282;0,0493415
2909,0923;0,0498274
2910,0566;0,0504156
2911,0208;0,0511
2911,9851;0,0518518
2912,9492;0,0526203
2913,9136;0,0533421
2914,8777;0,0539543
2915,8420;0,0544076
2916,8062;0,0546747
2917,7705;0,054752
2918,7346;0,0546547
2919,6990;0,0544102
2920,6631;0,0540506
2921,6274;0,0536069
2922,5916;0,0531051
2923,5559;0,0525648
2924,5200;0,0519998
2925,4844;0,0514214
2926,4485;0,0508408
2927,4128;0,05027
2928,3770;0,0497195
2929,3413;0,0491949
2930,3054;0,0486939
2931,2698;0,048208
2932,2339;0,0477271
2933,1982;0,0472462
2934,1624;0,046768
2935,1267;0,0463016
2936,0908;0,0458562
2937,0552;0,045436
2938,0193;0,0450371
2938,9836;0,0446503
2939,9478;0,0442664
2940,9121;0,0438813
2941,8762;0,0434976
2942,8406;0,0431229
2943,8047;0,0427661
2944,7690;0,0424339
2945,7332;0,0421296
2946,6975;0,0418541
2947,6616;0,041607
2948,6260;0,0413876
2949,5901;0,0411941
2950,5544;0,041023
2951,5186;0,0408679
2952,4829;0,0407198
2953,4470;0,0405685
2954,4114;0,0404045
2955,3755;0,0402216
2956,3398;0,0400179
2957,3040;0,0397953
2958,2683;0,0395586
2959,2324;0,0393132
2960,1968;0,0390635
2961,1609;0,0388121
2962,1252;0,0385596
2963,0894;0,0383048
2964,0537;0,0380464
2965,0178;0,037784
2965,9822;0,0375195
2966,9463;0,0372569
2967,9106;0,0370011
2968,8748;0,0367545
2969,8391;0,0365158
2970,8032;0,0362798
2971,7676;0,0360416
2972,7317;0,0358005
2973,6960;0,0355623
2974,6602;0,0353373
2975,6245;0,0351346
2976,5886;0,0349564
2977,5530;0,0347963
2978,5171;0,0346435
2979,4814;0,0344894
2980,4456;0,0343325
2981,4099;0,0341793
2982,3740;0,0340388
2983,3384;0,0339165
2984,3025;0,0338118
2985,2668;0,033719
2986,2310;0,0336315
2987,1953;0,0335457
2988,1594;0,0334621
2989,1238;0,033384
2990,0879;0,0333155
2991,0522;0,0332597
2992,0164;0,0332182
2992,9807;0,0331915
2993,9448;0,0331783
2994,9092;0,0331757
2995,8733;0,0331807
2996,8376;0,0331907
2997,8018;0,0332053
2998,7661;0,0332255
2999,7302;0,0332531
3000,6946;0,0332883
3001,6587;0,03333
3002,6230;0,0333758
3003,5872;0,0334235
3004,5515;0,0334707
3005,5156;0,0335149
3006,4800;0,0335531
3007,4441;0,0335828
3008,4084;0,0336042
3009,3726;0,0336215
3010,3369;0,0336422
3011,3010;0,0336741
3012,2654;0,0337215
3013,2295;0,0337827
3014,1938;0,0338518
3015,1580;0,033922
3016,1223;0,0339897
3017,0864;0,0340564
3018,0508;0,0341271
3019,0149;0,0342072
3019,9792;0,0342992
3020,9434;0,0344016
3021,9077;0,0345095
3022,8718;0,0346178
3023,8362;0,0347241
3024,8003;0,034829
3025,7646;0,0349348
3026,7288;0,0350423
3027,6931;0,0351487
3028,6572;0,0352482
3029,6216;0,0353355
3030,5857;0,0354099
3031,5500;0,0354782
3032,5142;0,0355513
3033,4785;0,0356397
3034,4426;0,0357474
3035,4070;0,0358708
3036,3711;0,0360012
3037,3354;0,0361293
3038,2996;0,0362494
3039,2639;0,0363602
3040,2280;0,0364645
3041,1924;0,0365677
3042,1565;0,0366759
3043,1208;0,0367941
3044,0850;0,0369242
3045,0493;0,0370638
3046,0134;0,0372062
3046,9778;0,0373446
3047,9419;0,0374753
3048,9063;0,0376002
3049,8704;0,0377248
3050,8347;0,0378537
3051,7988;0,0379878
3052,7632;0,0381237
3053,7273;0,0382583
3054,6917;0,0383916
3055,6558;0,0385279
3056,6201;0,0386722
3057,5842;0,0388251
3058,5486;0,0389815
3059,5127;0,0391329
3060,4771;0,0392724
3061,4412;0,0393984
3062,4055;0,039514
3063,3696;0,0396243
3064,3340;0,0397329
3065,2981;0,0398407
3066,2625;0,0399473
3067,2266;0,0400528
3068,1909;0,0401598
3069,1550;0,0402724
3070,1194;0,040395
3071,0835;0,0405299
3072,0479;0,0406762
3073,0120;0,040829
3073,9763;0,0409804
3074,9404;0,0411215
3075,9048;0,0412457
3076,8689;0,041352
3077,8333;0,0414455
3078,7974;0,0415362
3079,7617;0,0416341
3080,7258;0,0417453
3081,6902;0,04187
3082,6543;0,0420035
3083,6187;0,042139
3084,5828;0,0422709
3085,5471;0,0423958
3086,5112;0,0425139
3087,4756;0,0426283
3088,4397;0,0427439
3089,4041;0,042866
3090,3682;0,0429971
3091,3325;0,0431359
3092,2966;0,0432776
3093,2610;0,0434161
3094,2251;0,0435476
3095,1895;0,0436716
3096,1536;0,0437901
3097,1179;0,0439055
3098,0820;0,0440193
3099,0464;0,0441326
3100,0105;0,0442481
3100,9749;0,04437
3101,9390;0,0445027
3102,9033;0,0446469
3103,8674;0,0447985
3104,8318;0,0449501
3105,7959;0,0450958
3106,7603;0,045235
3107,7244;0,0453732
3108,6887;0,0455179
3109,6528;0,0456731
3110,6172;0,0458368
3111,5813;0,0460016
3112,5457;0,0461595
3113,5098;0,046307
3114,4741;0,0464468
3115,4382;0,0465857
3116,4026;0,0467293
3117,3667;0,0468786
3118,3311;0,0470298
3119,2952;0,0471771
3120,2595;0,0473173
3121,2236;0,0474526
3122,1880;0,0475896
3123,1521;0,0477363
3124,1165;0,0478976
3125,0806;0,048074
3126,0449;0,0482613
3127,0090;0,0484531
3127,9734;0,0486428
3128,9375;0,0488255
3129,9019;0,0489988
3130,8660;0,0491633
3131,8303;0,049323
3132,7944;0,049483
3133,7588;0,0496477
3134,7229;0,0498178
3135,6873;0,0499895
3136,6514;0,0501572
3137,6157;0,0503174
3138,5798;0,0504715
3139,5442;0,0506256
3140,5083;0,050787
3141,4727;0,0509601
3142,4368;0,0511447
3143,4011;0,0513372
3144,3652;0,0515343
3145,3296;0,051734
3146,2937;0,0519353
3147,2581;0,0521364
3148,2222;0,052333
3149,1865;0,0525203
3150,1506;0,0526957
3151,1150;0,0528614
3152,0791;0,0530241
3153,0435;0,0531925
3154,0076;0,0533736
3154,9719;0,0535702
3155,9360;0,05378
3156,9004;0,0539975
3157,8645;0,0542151
3158,8289;0,0544264
3159,7930;0,0546282
3160,7573;0,0548219
3161,7214;0,0550125
3162,6858;0,0552058
3163,6499;0,0554047
3164,6143;0,055607
3165,5784;0,0558067
3166,5427;0,0559976
3167,5068;0,0561782
3168,4712;0,056353
3169,4353;0,0564972
3170,3997;0,0566859
3171,3638;0,0568894
3172,3281;0,0571051
3173,2922;0,0573256
3174,2566;0,0575422
3175,2207;0,0577484
3176,1851;0,0579422
3177,1492;0,0581267
3178,1135;0,0583086
3179,0776;0,0584948
3180,0420;0,0586888
3181,0061;0,0588888
3181,9705;0,0590883
3182,9346;0,0592807
3183,8989;0,0594632
3184,8630;0,0596396
3185,8274;0,0598176
3186,7915;0,0600037
3187,7559;0,0601987
3188,7200;0,0603973
3189,6843;0,0605921
3190,6484;0,0607792
3191,6128;0,0609608
3192,5769;0,0611432
3193,5413;0,0613318
3194,5054;0,0615269
3195,4697;0,061723
3196,4338;0,0619122
3197,3982;0,0620889
3198,3623;0,0622527
3199,3267;0,0624079
3200,2908;0,0625608
3201,2551;0,0627166
3202,2192;0,0628779
3203,1836;0,0630446
3204,1477;0,0632154
3205,1121;0,0633881
3206,0762;0,0635614
3207,0405;0,0637348
3208,0046;0,0639085
3208,9690;0,0640824
3209,9331;0,0642557
3210,8975;0,0644266
3211,8616;0,0645941
3212,8259;0,0647588
3213,7900;0,0649231
3214,7544;0,065089
3215,7185;0,0652561
3216,6829;0,0654211
3217,6470;0,06558
3218,6113;0,065732
3219,5754;0,065881
3220,5398;0,0660344
3221,5039;0,0661981
3222,4683;0,0663732
3223,4324;0,0665557
3224,3967;0,0667404
3225,3608;0,0669245
3226,3252;0,0671092
3227,2893;0,0672964
3228,2537;0,0674845
3229,2178;0,0676665
3230,1821;0,0678332
3231,1462;0,0679795
3232,1106;0,0681089
3233,0747;0,0682339
3234,0391;0,0683693
3235,0032;0,0685251
3235,9675;0,0687017
3236,9316;0,0688899
3237,8960;0,0690773
3238,8601;0,069254
3239,8245;0,0694179
3240,7886;0,0695737
3241,7529;0,06973
3242,7170;0,0698944
3243,6814;0,0700694
3244,6455;0,0702527
3245,6099;0,0704389
3246,5740;0,0706238
3247,5383;0,0708071
3248,5024;0,0709925
3249,4668;0,071185
3250,4309;0,0713873
3251,3953;0,0715977
3252,3594;0,071811
3253,3237;0,0720216
3254,2878;0,0722282
3255,2522;0,0724344
3256,2163;0,0726459
3257,1807;0,0728657
3258,1448;0,0730897
3259,1091;0,0733073
3260,0732;0,0735061
3261,0376;0,0736791
3262,0017;0,073829
3262,9661;0,0739668
3263,9302;0,0741068
3264,8945;0,0742588
3265,8586;0,0744239
3266,8230;0,0745957
3267,7871;0,0747642
3268,7515;0,0749207
3269,7156;0,0750596
3270,6799;0,0751783
3271,6440;0,0752762
3272,6084;0,0753548
3273,5725;0,0754189
3274,5369;0,0754764
3275,5010;0,0755362
3276,4653;0,0756031
3277,4294;0,0756759
3278,3938;0,0757479
3279,3579;0,0758124
3280,3223;0,0758668
3281,2864;0,0759145
3282,2507;0,0759619
3283,2148;0,076013
3284,1792;0,0760667
3285,1433;0,0761174
3286,1077;0,0761592
3287,0718;0,0761882
3288,0361;0,076204
3289,0002;0,076207
3289,9646;0,0761979
3290,9287;0,0761774
3291,8931;0,0761486
3292,8572;0,076117
3293,8215;0,0760891
3294,7856;0,076069
3295,7500;0,0760566
3296,7141;0,0760483
3297,6785;0,0760401
3298,6426;0,0760302
3299,6069;0,0760186
3300,5710;0,0760054
3301,5354;0,0759882
3302,4995;0,0759627
3303,4639;0,0759251
3304,4280;0,0758748
3305,3923;0,0758168
3306,3564;0,0757593
3307,3208;0,0757113
3308,2849;0,0756786
3309,2493;0,0756618
3310,2134;0,0756574
3311,1777;0,0756604
3312,1418;0,075667
3313,1062;0,0756771
3314,0703;0,0756934
3315,0347;0,0757199
3315,9988;0,0757576
3316,9631;0,0758035
3317,9272;0,0758503
3318,8916;0,0758904
3319,8557;0,0759194
3320,8201;0,0759385
3321,7842;0,075954
3322,7485;0,0759738
3323,7126;0,0760039
3324,6770;0,0760468
3325,6411;0,076101
3326,6055;0,076163
3327,5696;0,0762279
3328,5339;0,0762904
3329,4980;0,0763454
3330,4624;0,0763883
3331,4265;0,0764156
3332,3909;0,0764252
3333,3550;0,0764155
3334,3193;0,0763854
3335,2834;0,0763337
3336,2478;0,0762608
3337,2119;0,0761691
3338,1763;0,0760631
3339,1404;0,0759476
3340,1047;0,0758258
3341,0688;0,0756989
3342,0332;0,0755668
3342,9973;0,0754303
3343,9617;0,0752915
3344,9258;0,0751522
3345,8901;0,0750128
3346,8542;0,0748706
3347,8186;0,0747207
3348,7827;0,0745587
3349,7471;0,0743828
3350,7112;0,0741947
3351,6755;0,0739993
3352,6396;0,0738035
3353,6040;0,0736146
3354,5681;0,073439
3355,5325;0,0732799
3356,4966;0,0731363
3357,4609;0,073002
3358,4250;0,0728677
3359,3894;0,0727249
3360,3535;0,0725694
3361,3179;0,0724035
3362,2820;0,0722339
3363,2463;0,0720681
3364,2104;0,0719094
3365,1748;0,0717556
3366,1389;0,0716004
3367,1033;0,0714373
3368,0674;0,0712635
3369,0317;0,0710812
3369,9958;0,0708961
3370,9602;0,0707144
3371,9243;0,0705398
3372,8887;0,0703733
3373,8528;0,0702136
3374,8171;0,0700592
3375,7813;0,0699093
3376,7456;0,0697628
3377,7097;0,0696175
3378,6741;0,0694691
3379,6382;0,0693126
3380,6025;0,0691446
3381,5667;0,0689661
3382,5310;0,0687832
3383,4951;0,0686061
3384,4595;0,0684456
3385,4236;0,0683081
3386,3879;0,0681928
3387,3521;0,0680908
3388,3164;0,0679882
3389,2805;0,0678703
3390,2449;0,0677275
3391,2090;0,0675592
3392,1733;0,0673748
3393,1375;0,0671901
3394,1018;0,0670202
3395,0659;0,0668732
3396,0303;0,066747
3396,9944;0,0666311
3397,9587;0,0665117
3398,9229;0,0663776
3399,8872;0,0662239
3400,8513;0,0660525
3401,8157;0,0658686
3402,7798;0,0656774
3403,7441;0,0654815
3404,7083;0,0652814
3405,6726;0,0650782
3406,6367;0,0648756
3407,6011;0,0646795
3408,5652;0,0644953
3409,5295;0,0643233
3410,4937;0,0641582
3411,4580;0,0639915
3412,4221;0,0638168
3413,3865;0,063633
3414,3506;0,0634432
3415,3149;0,0632504
3416,2791;0,0630532
3417,2434;0,0628459
3418,2075;0,0626222
3419,1719;0,0623803
3420,1360;0,0621259
3421,1003;0,0618696
3422,0645;0,0616223
3423,0288;0,0613906
3423,9929;0,0611759
3424,9573;0,0609753
3425,9214;0,0607836
3426,8857;0,0605936
3427,8499;0,0603977
3428,8142;0,0601895
3429,7783;0,0599665
3430,7427;0,0597316
3431,7068;0,0594914
3432,6711;0,0592539
3433,6353;0,0590254
3434,5996;0,0588093
3435,5637;0,0586058
3436,5281;0,0584121
3437,4922;0,0582226
3438,4565;0,058031
3439,4207;0,0578327
3440,3850;0,0576258
3441,3491;0,0574101
3442,3135;0,0571833
3443,2776;0,0569391
3444,2419;0,0566691
3445,2061;0,0563707
3446,1704;0,0560542
3447,1345;0,0557425
3448,0989;0,0554602
3449,0630;0,055219
3450,0273;0,0550116
3450,9915;0,0548175
3451,9558;0,0546172
3452,9199;0,0544027
3453,8843;0,0541797
3454,8484;0,0539602
3455,8127;0,0537512
3456,7769;0,0535485
3457,7412;0,0533386
3458,7053;0,0531081
3459,6697;0,0528521
3460,6338;0,0525779
3461,5981;0,0523003
3462,5623;0,0520325
3463,5266;0,0517793
3464,4907;0,0515355
3465,4551;0,0512911
3466,4192;0,0510396
3467,3835;0,0507821
3468,3477;0,0505259
3469,3120;0,0502775
3470,2761;0,0500361
3471,2405;0,0497943
3472,2046;0,0495447
3473,1689;0,0492885
3474,1331;0,0490383
3475,0974;0,0488109
3476,0615;0,0486138
3477,0259;0,0484376
3477,9900;0,0482586
3478,9543;0,0480528
3479,9185;0,0478104
3480,8828;0,0475428
3481,8469;0,0472756
3482,8113;0,0470306
3483,7754;0,0468122
3484,7397;0,0466055
3485,7039;0,0463885
3486,6682;0,0461466
3487,6323;0,0458819
3488,5967;0,0456123
3489,5608;0,0453598
3490,5251;0,0451373
3491,4893;0,0449407
3492,4536;0,0447524
3493,4177;0,0445523
3494,3821;0,044332
3495,3462;0,0441022
3496,3105;0,043887
3497,2747;0,0437053
3498,2390;0,0435537
3499,2031;0,0434022
3500,1675;0,043209
3501,1316;0,0429462
3502,0959;0,0426235
3503,0601;0,0422886
3504,0244;0,0419983
3504,9885;0,0417788
3505,9529;0,0416104
3506,9170;0,0414451
3507,8813;0,0412382
3508,8455;0,0409758
3509,8098;0,0406812
3510,7739;0,0403965
3511,7383;0,0401532
3512,7024;0,0399542
3513,6667;0,0397809
3514,6309;0,039612
3515,5952;0,0394397
3516,5593;0,0392711
3517,5237;0,0391176
3518,4878;0,0389815
3519,4521;0,0388507
3520,4163;0,0387047
3521,3806;0,0385265
3522,3447;0,0383103
3523,3091;0,0380615
3524,2732;0,0377878
3525,2375;0,0374927
3526,2017;0,0371771
3527,1660;0,0368494
3528,1301;0,0365327
3529,0945;0,0362587
3530,0586;0,0360501
3531,0229;0,0359047
3531,9871;0,0357933
3532,9514;0,0356738
3533,9155;0,0355097
3534,8799;0,0352871
3535,8440;0,035022
3536,8083;0,0347546
3537,7725;0,0345296
3538,7368;0,0343751
3539,7009;0,0342907
3540,6653;0,0342479
3541,6294;0,0341985
3542,5938;0,0340884
3543,5579;0,0338778
3544,5222;0,0335656
3545,4863;0,0331996
3546,4507;0,0328528
3547,4148;0,0325768
3548,3792;0,0323727
3549,3433;0,0322008
3550,3076;0,0320116
3551,2717;0,0317777
3552,2361;0,0315096
3553,2002;0,0312481
3554,1646;0,0310332
3555,1287;0,0308769
3556,0930;0,0307594
3557,0571;0,0306494
3558,0215;0,0305302
3558,9856;0,0304144
3559,9500;0,0303363
3560,9141;0,0303243
3561,8784;0,0303691
3562,8425;0,0304102
3563,8069;0,0303437
3564,7710;0,030057
3565,7354;0,0295022
3566,6995;0,0287798
3567,6638;0,0281132
3568,6279;0,0276808
3569,5923;0,0274998
3570,5564;0,0274704
3571,5208;0,0274744
3572,4849;0,027432
3573,4492;0,027317
3574,4133;0,0271468
3575,3777;0,0269557
3576,3418;0,0267678
3577,3062;0,0265881
3578,2703;0,0264177
3579,2346;0,0262738
3580,1987;0,0261911
3581,1631;0,0261976
3582,1272;0,0262841
3583,0916;0,0263901
3584,0557;0,0264127
3585,0200;0,0262417
3585,9841;0,0258276
3586,9485;0,0252615
3587,9126;0,0247566
3588,8770;0,0244887
3589,8411;0,0244709
3590,8054;0,0245897
3591,7695;0,0247034
3592,7339;0,0247101
3593,6980;0,0245796
3594,6624;0,0243559
3595,6265;0,0241161
3596,5908;0,0239078
3597,5549;0,0237211
3598,5193;0,0235203
3599,4834;0,0232952
3600,4478;0,0230852
3601,4119;0,0229504
3602,3762;0,0229172
3603,3403;0,0229502
3604,3047;0,0229687
3605,2688;0,0228865
3606,2332;0,022653
3607,1973;0,0222834
3608,1616;0,0218539
3609,1257;0,0214542
3610,0901;0,0211357
3611,0542;0,0209051
3612,0186;0,0207526
3612,9827;0,0206727
3613,9470;0,0206558
3614,9111;0,020668
3615,8755;0,0206448
3616,8396;0,0205123
3617,8040;0,020235
3618,7681;0,0198684
3619,7324;0,0195596
3620,6965;0,0194572
3621,6609;0,0196085
3622,6250;0,0199492
3623,5894;0,0203562
3624,5535;0,0206881
3625,5178;0,0207928
3626,4819;0,0205227
3627,4463;0,0198244
3628,4104;0,0188857
3629,3748;0,018089
3630,3389;0,0176775
3631,3032;0,01759
3632,2673;0,017626
3633,2317;0,017626
3634,1958;0,0175278
3635,1602;0,0173503
3636,1243;0,0171487
3637,0886;0,0169671
3638,0527;0,0168177
3639,0171;0,0166954
3639,9812;0,0166055
3640,9456;0,0165762
3641,9097;0,0166413
3642,8740;0,0168096
3643,8381;0,0170427
3644,8025;0,0172464
3645,7666;0,0172676
3646,7310;0,0169095
3647,6951;0,0160526
3648,6594;0,014907
3649,6235;0,0140026
3650,5879;0,0136723
3651,5520;0,0138026
3652,5164;0,0140997
3653,4805;0,0143223
3654,4448;0,014342
3655,4089;0,0141544
3656,3733;0,0138705
3657,3374;0,0136444
3658,3018;0,0135599
3659,2659;0,0135891
3660,2302;0,0136534
3661,1943;0,013704
3662,1587;0,0137559
3663,1228;0,0138617
3664,0872;0,0140517
3665,0513;0,0142914
3666,0156;0,0144848
3666,9797;0,0145168
3667,9441;0,0143275
3668,9082;0,0139914
3669,8726;0,0137053
3670,8367;0,0136207
3671,8010;0,0137016
3672,7651;0,0137663
3673,7295;0,0136203
3674,6936;0,0131948
3675,6580;0,0126422
3676,6221;0,0122407
3677,5864;0,0121387
3678,5505;0,0122755
3679,5149;0,0125192
3680,4790;0,0127852
3681,4434;0,0130578
3682,4075;0,0133556
3683,3718;0,0136852
3684,3359;0,0140107
3685,3003;0,0142522
3686,2644;0,0143066
3687,2288;0,0140948
3688,1929;0,0136444
3689,1572;0,0131475
3690,1213;0,0128512
3691,0857;0,0128512
3692,0498;0,0130637
3693,0142;0,0133566
3693,9783;0,0136437
3694,9426;0,0138963
3695,9067;0,0141161
3696,8711;0,0143038
3697,8352;0,0144396
3698,7996;0,0144855
3699,7637;0,0144112
3700,7280;0,0142316
3701,6921;0,014027
3702,6565;0,0139097
3703,6206;0,0139538
3704,5850;0,0141551
3705,5491;0,0144446
3706,5134;0,0147167
3707,4775;0,0148444
3708,4419;0,014692
3709,4060;0,0141725
3710,3704;0,0133664
3711,3345;0,0125687
3712,2988;0,0120964
3713,2629;0,0120518
3714,2273;0,0123306
3715,1914;0,0127676
3716,1558;0,0132302
3717,1199;0,0136406
3718,0842;0,0139716
3719,0483;0,0142337
3720,0127;0,0144536
3720,9768;0,0146477
3721,9412;0,0148052
3722,9053;0,0148991
3723,8696;0,0149176
3724,8337;0,014889
3725,7981;0,0148724
3726,7622;0,014918
3727,7266;0,0150364
3728,6907;0,0152012
3729,6550;0,0153689
3730,6191;0,0154915
3731,5835;0,0155113
3732,5476;0,0153507
3733,5120;0,0149361
3734,4761;0,01429
3735,4404;0,0136078
3736,4045;0,0131544
3737,3689;0,0130636
3738,3330;0,0132842
3739,2974;0,0136617
3740,2615;0,0140145
3741,2258;0,014168
3742,1899;0,013992
3743,1543;0,0134943
3744,1184;0,0129095
3745,0828;0,0125692
3746,0469;0,0125989
3747,0112;0,0128349
3747,9753;0,012989
3748,9397;0,0128151
3749,9038;0,0122578
3750,8682;0,0115687
3751,8323;0,0111458
3752,7966;0,011159
3753,7607;0,0114747
3754,7251;0,0118617
3755,6892;0,0121379
3756,6536;0,0122108
3757,6177;0,0120914
3758,5820;0,0118902
3759,5461;0,0117544
3760,5105;0,0117692
3761,4746;0,0119199
3762,4390;0,0121322
3763,4031;0,0123281
3764,3674;0,012455
3765,3315;0,0124896
3766,2959;0,0124297
3767,2600;0,0122827
3768,2244;0,0120661
3769,1885;0,0118207
3770,1528;0,0116165
3771,1169;0,0115287
3772,0813;0,0115951
3773,0454;0,0117923
3774,0098;0,0120491
3774,9739;0,0122767
3775,9382;0,0123971
3776,9023;0,0123722
3777,8667;0,0122286
3778,8308;0,012054
3779,7952;0,0119434
3780,7593;0,011934
3781,7236;0,0119941
3782,6877;0,0120608
3783,6521;0,0120835
3784,6162;0,0120473
3785,5806;0,0119735
3786,5447;0,011904
3787,5090;0,0118805
3788,4731;0,0119279
3789,4375;0,0120464
3790,4016;0,0122134
3791,3660;0,0123907
3792,3301;0,0125407
3793,2944;0,0126444
3794,2585;0,0127133
3795,2229;0,0127801
3796,1870;0,0128661
3797,1514;0,0129466
3798,1155;0,0129487
3799,0798;0,0127959
3800,0439;0,0124836
3801,0083;0,012124
3801,9724;0,0118787
3802,9368;0,0118138
3803,9009;0,0118488
3804,8652;0,0118431
3805,8293;0,011716
3806,7937;0,0115221
3807,7578;0,0114238
3808,7222;0,011557
3809,6863;0,0119188
3810,6506;0,0123875
3811,6147;0,0128085
3812,5791;0,0130583
3813,5432;0,0130858
3814,5076;0,0129432
3815,4717;0,0127674
3816,4360;0,0126741
3817,4001;0,0126549
3818,3645;0,0125956
3819,3286;0,0123907
3820,2930;0,0120565
3821,2571;0,0117424
3822,2214;0,011605
3823,1855;0,0116776
3824,1499;0,0118794
3825,1140;0,0121057
3826,0784;0,0122886
3827,0425;0,0124096
3828,0068;0,0124844
3828,9709;0,0125396
3829,9353;0,0125961
3830,8994;0,0126659
3831,8638;0,012755
3832,8279;0,0128596
3833,7922;0,0129562
3834,7563;0,0129973
3835,7207;0,0129259
3836,6848;0,0127138
3837,6492;0,0124027
3838,6133;0,0120965
3839,5776;0,0118893
3840,5417;0,0117992
3841,5061;0,0117814
3842,4702;0,0117902
3843,4346;0,0118255
3844,3987;0,0119329
3845,3630;0,012167
3846,3271;0,0125492
3847,2915;0,0130486
3848,2556;0,0135858
3849,2200;0,0140356
3850,1841;0,0142194
3851,1484;0,0139193
3852,1125;0,0130309
3853,0769;0,0118572
3854,0410;0,0110238
3855,0054;0,0108489
3855,9695;0,0111729
3856,9338;0,0117144
3857,8979;0,012276
3858,8623;0,0127467
3859,8264;0,013062
3860,7908;0,0131878
3861,7549;0,0131349
3862,7192;0,0129775
3863,6833;0,0128313
3864,6477;0,0127831
3865,6118;0,0128401
3866,5762;0,0129425
3867,5403;0,0130088
3868,5046;0,0129736
3869,4688;0,0128132
3870,4331;0,0125595
3871,3972;0,0122919
3872,3616;0,0121024
3873,3257;0,0120537
3874,2900;0,0121571
3875,2542;0,0123753
3876,2185;0,0126394
3877,1826;0,0128731
3878,1470;0,0130191
3879,1111;0,0130627
3880,0754;0,0130342
3881,0396;0,0129776
3882,0039;0,0129075
3882,9680;0,0128045
3883,9324;0,0126593
3884,8965;0,0125142
3885,8608;0,0124468
3886,8250;0,0125011
3887,7893;0,0126371
3888,7534;0,0127498
3889,7178;0,0127368
3890,6819;0,0125771
3891,6462;0,0123715
3892,6104;0,0122807
3893,5747;0,0123973
3894,5388;0,0126884
3895,5032;0,0130475
3896,4673;0,0133658
3897,4316;0,0135714
3898,3958;0,0136394
3899,3601;0,013582
3900,3242;0,0134195
3901,2886;0,0131587
3902,2527;0,0128101
3903,2170;0,0124274
3904,1812;0,0121075
3905,1455;0,0119336
3906,1096;0,0119203
3907,0740;0,0120194
3908,0381;0,0121622
3909,0024;0,0122993
3909,9666;0,0124164
3910,9309;0,012529
3911,8950;0,0126593
3912,8594;0,0128112
3913,8235;0,0129569
3914,7878;0,0130468
3915,7520;0,0130399
3916,7163;0,0129396
3917,6804;0,0128044
3918,6448;0,0127117
3919,6089;0,0127015
3920,5732;0,0127536
3921,5374;0,0128094
3922,5017;0,0128146
3923,4658;0,0127578
3924,4302;0,0126811
3925,3943;0,0126513
3926,3586;0,0127092
3927,3228;0,0128406
3928,2871;0,0129853
3929,2512;0,0130695
3930,2156;0,013042
3931,1797;0,0129032
3932,1440;0,0127076
3933,1082;0,0125312
3934,0725;0,01243
3935,0366;0,0124227
3936,0010;0,0124983
3936,9651;0,0126297
3937,9294;0,0127806
3938,8936;0,0129106
3939,8579;0,0129846
3940,8220;0,0129885
3941,7864;0,0129419
3942,7505;0,0128909
3943,7148;0,0128789
3944,6790;0,012916
3945,6433;0,0129732
3946,6074;0,0130013
3947,5718;0,0129622
3948,5359;0,0128544
3949,5002;0,0127155
3950,4644;0,0125981
3951,4287;0,0125373
3952,3928;0,0125358
3953,3572;0,012574
3954,3213;0,0126285
3955,2856;0,0126846
3956,2498;0,0127368
3957,2141;0,0127819
3958,1782;0,0128124
3959,1426;0,0128181
3960,1067;0,0127934
3961,0710;0,0127444
3962,0352;0,0126896
3962,9995;0,0126501
3963,9636;0,0126388
3964,9280;0,0126547
3965,8921;0,0126855
3966,8564;0,0127164
3967,8206;0,0127379
3968,7849;0,0127489
3969,7490;0,0127538
3970,7134;0,0127571
3971,6775;0,0127589
3972,6418;0,0127553
3973,6060;0,0127427
3974,5703;0,0127226
3975,5344;0,0127022
3976,4988;0,0126909
3977,4629;0,0126941
3978,4272;0,0127093
3979,3914;0,0127266
3980,3557;0,0127349
3981,3198;0,0127282
3982,2842;0,0127096
3983,2483;0,0126906
3984,2126;0,0126837
3985,1768;0,0126958
3986,1411;0,0127244
3987,1052;0,0127605
3988,0696;0,0127938
3989,0337;0,0128174
3989,9980;0,0128294
3990,9622;0,0128301
3991,9265;0,0128191
3992,8906;0,0127953
3993,8550;0,0127606
3994,8191;0,012722
3995,7834;0,012691
3996,7476;0,012677
3997,7119;0,0126814
3998,6760;0,0126957
3999,6404;0,0127077
4000,6045;0,0127064

##### Extended Information
[Comments]
Sample name
Comment
Username
Division
Organization;UNIVERSIDAD INDUSTRIAL DE SANTANDER

[Detailed Information]
Creation date;18/03/2025 12:20 p.m.

Data array type;Linear data array
Horizontal axis;Wavenumber [cm-1]
Vertical axis;Abs
Start;399,193 cm-1
End;4000,6 cm-1
Data interval;0,964233 cm-1
Data points;3736    

[Measurement Information]
Model name;FT/IR-4X1typeA
Serial No.;A035162111

Accessory;ATR PRO 4X
Accessory S/N;A021162126
Incident angle;45 deg

Measurement date;18/03/2025 12:19 p.m.

Light source;Standard
Detector;TGS
Accumulation;40
Resolution;4 cm-1
Zero filling;On
Apodization;Cosine
Gain;Auto (8)
Aperture;Auto (7 mm)
Scan speed;Auto (2 mm/sec)
Filter;Auto (12800 Hz)

