TITLE;
DATA TYPE;INFRARED SPECTRUM
ORIGIN;JASCO
OWNER;
DATE;25/03/18
TIME;11:57:11
SPECTROMETER/DATA SYSTEM;
LOCALE;9226
RESOLUTION;
DELTAX;0,964233
XUNITS;1/CM
YUNITS;ABSORBANCE
FIRSTX;  399,1927
LASTX; 4000,6047
NPOINTS;    3736
FIRSTY;     0,20334
MAXY;     0,24411
MINY;     0,01118
XYDATA
399,1927;0,203343
400,1569;0,20365
401,1211;0,204073
402,0854;0,204347
403,0496;0,204378
404,0138;0,204197
404,9781;0,203916
405,9423;0,203649
406,9065;0,203434
407,8708;0,203177
408,8350;0,202703
409,7992;0,201886
410,7635;0,200779
411,7277;0,199638
412,6919;0,198788
413,6562;0,19845
414,6204;0,198694
415,5846;0,199516
416,5489;0,200908
417,5131;0,202782
418,4773;0,204724
419,4416;0,205983
420,4058;0,206043
421,3700;0,205075
422,3343;0,20366
423,2985;0,202376
424,2627;0,201643
425,2270;0,201643
426,1912;0,202272
427,1554;0,203198
428,1197;0,204054
429,0839;0,204623
430,0481;0,204906
431,0124;0,205044
431,9766;0,205188
432,9408;0,205397
433,9051;0,205618
434,8693;0,205751
435,8335;0,205729
436,7978;0,205541
437,7620;0,205201
438,7262;0,204695
439,6905;0,203982
440,6547;0,20305
441,6189;0,20199
442,5832;0,201015
443,5474;0,200369
444,5116;0,200172
445,4759;0,200328
446,4401;0,200604
447,4043;0,200779
448,3686;0,200768
449,3328;0,200627
450,2970;0,200471
451,2613;0,200369
452,2255;0,200272
453,1897;0,200043
454,1540;0,199537
455,1182;0,1987
456,0824;0,197617
457,0467;0,196522
458,0109;0,195714
458,9751;0,195404
459,9394;0,195611
460,9036;0,196196
461,8678;0,196975
462,8321;0,197766
463,7963;0,198394
464,7605;0,198692
465,7248;0,198541
466,6890;0,197931
467,6532;0,196976
468,6175;0,195867
469,5817;0,194816
470,5459;0,194008
471,5102;0,193569
472,4744;0,193528
473,4386;0,193794
474,4029;0,194205
475,3671;0,194605
476,3313;0,194906
477,2956;0,1951
478,2598;0,195227
479,2240;0,195337
480,1883;0,195462
481,1525;0,195608
482,1167;0,195764
483,0810;0,195919
484,0452;0,196081
485,0094;0,196261
485,9737;0,196461
486,9379;0,196665
487,9021;0,196852
488,8664;0,197007
489,8306;0,197127
490,7948;0,197214
491,7591;0,197266
492,7233;0,197282
493,6875;0,197269
494,6518;0,197258
495,6160;0,19729
496,5802;0,1974
497,5445;0,197592
498,5087;0,19783
499,4729;0,198052
500,4372;0,198197
501,4014;0,198239
502,3656;0,198202
503,3299;0,198155
504,2941;0,198183
505,2583;0,19836
506,2226;0,19873
507,1868;0,199295
508,1510;0,200002
509,1153;0,200759
510,0795;0,201465
511,0437;0,202057
512,0080;0,202529
512,9722;0,202926
513,9365;0,203302
514,9007;0,203681
515,8649;0,204041
516,8292;0,204321
517,7934;0,204461
518,7576;0,204447
519,7219;0,204318
520,6861;0,20414
521,6503;0,203968
522,6146;0,203835
523,5788;0,203756
524,5430;0,203735
525,5073;0,203757
526,4715;0,203779
527,4357;0,203735
528,4000;0,203558
529,3642;0,203215
530,3284;0,202711
531,2927;0,202095
532,2569;0,201436
533,2211;0,200807
534,1854;0,200265
535,1496;0,199842
536,1138;0,199543
537,0781;0,199358
538,0423;0,199269
539,0065;0,199252
539,9708;0,199282
540,9350;0,199337
541,8992;0,199402
542,8635;0,199472
543,8277;0,199554
544,7919;0,199664
545,7562;0,199818
546,7204;0,200028
547,6846;0,200284
548,6489;0,200559
549,6131;0,200823
550,5773;0,201065
551,5416;0,201317
552,5058;0,201651
553,4700;0,202139
554,4343;0,202803
555,3985;0,203573
556,3627;0,204286
557,3270;0,204737
558,2912;0,20476
559,2554;0,204285
560,2197;0,203357
561,1839;0,202103
562,1481;0,200689
563,1124;0,19927
564,0766;0,197967
565,0408;0,196863
566,0051;0,195997
566,9693;0,195367
567,9335;0,19493
568,8978;0,194612
569,8620;0,194337
570,8262;0,19405
571,7905;0,193735
572,7547;0,193396
573,7189;0,193041
574,6832;0,19266
575,6474;0,192232
576,6116;0,191744
577,5759;0,191208
578,5401;0,190664
579,5043;0,190154
580,4686;0,189701
581,4328;0,189296
582,3970;0,188918
583,3613;0,18856
584,3255;0,188246
585,2897;0,188021
586,2540;0,187916
587,2182;0,187922
588,1824;0,187985
589,1467;0,188032
590,1109;0,188004
591,0751;0,187876
592,0394;0,187657
593,0036;0,18737
593,9678;0,187028
594,9321;0,186637
595,8963;0,186205
596,8605;0,185754
597,8248;0,185321
598,7890;0,184943
599,7532;0,184636
600,7175;0,184386
601,6817;0,184157
602,6459;0,183909
603,6102;0,183614
604,5744;0,183252
605,5386;0,182815
606,5029;0,182298
607,4671;0,181702
608,4313;0,181031
609,3956;0,180301
610,3598;0,179536
611,3240;0,178764
612,2883;0,178011
613,2525;0,177296
614,2167;0,176617
615,1810;0,175952
616,1452;0,175253
617,1094;0,174462
618,0737;0,173534
619,0379;0,172458
620,0021;0,171261
620,9664;0,169995
621,9306;0,168721
622,8948;0,167494
623,8591;0,166363
624,8233;0,165356
625,7875;0,164486
626,7518;0,163736
627,7160;0,163074
628,6802;0,16246
629,6445;0,161859
630,6087;0,161254
631,5729;0,160642
632,5372;0,160037
633,5014;0,159458
634,4656;0,15892
635,4299;0,158419
636,3941;0,157934
637,3583;0,157435
638,3226;0,156899
639,2868;0,156323
640,2510;0,155724
641,2153;0,15513
642,1795;0,154565
643,1437;0,154043
644,1080;0,153574
645,0722;0,153162
646,0364;0,152815
647,0007;0,152533
647,9649;0,152303
648,9291;0,152106
649,8934;0,151923
650,8576;0,151757
651,8218;0,151627
652,7861;0,151559
653,7503;0,151566
654,7145;0,151641
655,6788;0,151768
656,6430;0,151933
657,6072;0,152127
658,5715;0,152327
659,5357;0,152487
660,4999;0,152537
661,4642;0,152437
662,4284;0,152211
663,3926;0,151941
664,3569;0,151723
665,3211;0,151624
666,2853;0,151624
667,2496;0,15152
668,2138;0,150916
669,1780;0,149626
670,1423;0,147975
671,1065;0,14634
672,0707;0,144794
673,0350;0,143242
673,9992;0,141599
674,9634;0,13986
675,9277;0,138111
676,8919;0,136463
677,8561;0,134981
678,8204;0,133653
679,7846;0,132434
680,7488;0,1313
681,7131;0,130259
682,6773;0,129339
683,6415;0,128555
684,6058;0,127899
685,5700;0,127343
686,5342;0,126849
687,4985;0,126383
688,4627;0,125923
689,4269;0,125463
690,3912;0,125007
691,3554;0,12456
692,3196;0,124127
693,2839;0,123709
694,2481;0,123307
695,2123;0,122931
696,1766;0,122587
697,1408;0,122272
698,1050;0,121964
699,0693;0,121627
700,0335;0,121234
700,9977;0,120779
701,9620;0,120282
702,9262;0,119773
703,8904;0,119272
704,8547;0,118775
705,8189;0,118264
706,7831;0,117723
707,7474;0,117149
708,7116;0,116556
709,6758;0,115955
710,6401;0,115342
711,6043;0,114691
712,5685;0,113979
713,5328;0,113209
714,4970;0,112418
715,4612;0,111617
716,4255;0,110945
717,3897;0,110343
718,3539;0,109749
719,3182;0,109081
720,2824;0,108278
721,2466;0,10734
722,2109;0,106322
723,1751;0,105298
724,1393;0,104328
725,1036;0,103434
726,0678;0,102615
727,0320;0,101855
727,9963;0,101132
728,9605;0,100421
729,9247;0,0996997
730,8890;0,0989556
731,8532;0,0981933
732,8174;0,0974374
733,7817;0,0967229
734,7459;0,0960796
735,7101;0,095519
736,6744;0,0950329
737,6386;0,0946017
738,6028;0,0942068
739,5671;0,0938369
740,5313;0,0934868
741,4955;0,0931504
742,4598;0,092816
743,4240;0,0924661
744,3882;0,0920845
745,3525;0,0916642
746,3167;0,0912122
747,2809;0,0907494
748,2452;0,090303
749,2094;0,0898958
750,1736;0,089537
751,1379;0,0892171
752,1021;0,0889108
753,0663;0,0885877
754,0306;0,0882248
754,9948;0,0878166
755,9590;0,0873765
756,9233;0,0869294
757,8875;0,0864995
758,8517;0,086101
759,8160;0,0857349
760,7802;0,0853933
761,7444;0,0850658
762,7087;0,0847435
763,6729;0,084419
764,6371;0,084085
765,6014;0,0837353
766,5656;0,0833675
767,5298;0,0829863
768,4941;0,0826033
769,4583;0,0822305
770,4225;0,0818749
771,3868;0,0815342
772,3510;0,0812006
773,3152;0,0808674
774,2795;0,0805349
775,2437;0,0802108
776,2079;0,079905
777,1722;0,0796215
778,1364;0,0793527
779,1006;0,07908
780,0649;0,0787804
781,0291;0,0784359
781,9933;0,0780416
782,9576;0,0776075
783,9218;0,0771535
784,8860;0,076701
785,8503;0,0762664
786,8145;0,0758604
787,7787;0,0754915
788,7430;0,0751695
789,7072;0,0749028
790,6714;0,0746906
791,6357;0,0745158
792,5999;0,0743458
793,5641;0,0741452
794,5284;0,0738927
795,4926;0,0735925
796,4568;0,0732714
797,4211;0,0729642
798,3853;0,0726962
799,3495;0,0724747
800,3138;0,0722921
801,2780;0,0721364
802,2422;0,0719993
803,2065;0,0718772
804,1707;0,0717663
805,1349;0,0716585
806,0992;0,0715433
807,0634;0,0714142
808,0276;0,0712736
808,9919;0,0711319
809,9561;0,071
810,9203;0,0708818
811,8846;0,0707715
812,8488;0,0706592
813,8130;0,0705391
814,7773;0,0704165
815,7415;0,0703078
816,7057;0,0702327
817,6700;0,0702048
818,6342;0,0702237
819,5984;0,0702733
820,5627;0,0703269
821,5269;0,070357
822,4911;0,0703443
823,4554;0,0702845
824,4196;0,0701872
825,3839;0,0700703
826,3481;0,0699518
827,3123;0,0698439
828,2766;0,0697503
829,2408;0,0696686
830,2050;0,0695934
831,1693;0,069518
832,1335;0,0694352
833,0977;0,0693366
834,0620;0,0692134
835,0262;0,0690576
835,9904;0,0688648
836,9547;0,0686358
837,9189;0,068378
838,8831;0,068106
839,8474;0,0678407
840,8116;0,067606
841,7758;0,0674232
842,7401;0,0673031
843,7043;0,0672411
844,6685;0,0672171
845,6328;0,0672021
846,5970;0,0671682
847,5612;0,0670984
848,5255;0,0669912
849,4897;0,0668597
850,4539;0,0667254
851,4182;0,0666106
852,3824;0,0665317
853,3466;0,0664944
854,3109;0,0664923
855,2751;0,0665093
856,2393;0,0665244
857,2036;0,0665187
858,1678;0,0664823
859,1320;0,0664179
860,0963;0,0663402
861,0605;0,0662696
862,0247;0,066225
862,9890;0,0662175
863,9532;0,066248
864,9174;0,0663108
865,8817;0,0663991
866,8459;0,0665095
867,8101;0,0666416
868,7744;0,066794
869,7386;0,0669588
870,7028;0,0671205
871,6671;0,0672595
872,6313;0,0673611
873,5955;0,0674228
874,5598;0,0674566
875,5240;0,0674852
876,4882;0,0675329
877,4525;0,0676189
878,4167;0,0677548
879,3809;0,0679474
880,3452;0,0682037
881,3094;0,0685334
882,2736;0,0689471
883,2379;0,0694517
884,2021;0,0700454
885,1663;0,0707166
886,1306;0,0714465
887,0948;0,0722152
888,0590;0,0730073
889,0233;0,0738142
889,9875;0,0746327
890,9517;0,0754601
891,9160;0,076287
892,8802;0,0770919
893,8444;0,0778399
894,8087;0,0784873
895,7729;0,0789911
896,7371;0,0793203
897,7014;0,0794623
898,6656;0,079423
899,6298;0,0792205
900,5941;0,0788785
901,5583;0,078423
902,5225;0,077885
903,4868;0,0773048
904,4510;0,0767329
905,4152;0,0762218
906,3795;0,075813
907,3437;0,0755247
908,3079;0,0753482
909,2722;0,0752547
910,2364;0,0752103
911,2007;0,0751908
912,1649;0,0751901
913,1292;0,0752196
914,0934;0,075301
915,0576;0,0754552
916,0219;0,0756943
916,9861;0,0760158
917,9503;0,0764032
918,9146;0,0768306
919,8788;0,0772703
920,8430;0,0776994
921,8073;0,0781049
922,7715;0,0784832
923,7357;0,0788363
924,7000;0,0791666
925,6642;0,0794731
926,6284;0,0797508
927,5927;0,0799928
928,5569;0,0801945
929,5211;0,0803575
930,4854;0,0804915
931,4496;0,080614
932,4138;0,0807459
933,3781;0,0809054
934,3423;0,0811026
935,3065;0,0813391
936,2708;0,0816115
937,2350;0,0819196
938,1992;0,082273
939,1635;0,0826915
940,1277;0,0831985
941,0919;0,0838103
942,0562;0,0845277
943,0204;0,0853352
943,9846;0,0862092
944,9489;0,0871304
945,9131;0,0880938
946,8773;0,0891098
947,8416;0,0901973
948,8058;0,0913729
949,7700;0,0926425
950,7343;0,0940005
951,6985;0,0954353
952,6627;0,096936
953,6270;0,098498
954,5912;0,100123
955,5554;0,101815
956,5197;0,103577
957,4839;0,105409
958,4481;0,107301
959,4124;0,10924
960,3766;0,111207
961,3408;0,113183
962,3051;0,115156
963,2693;0,117125
964,2335;0,119099
965,1978;0,121093
966,1620;0,123124
967,1262;0,125203
968,0905;0,12734
969,0547;0,129548
970,0189;0,131848
970,9832;0,134272
971,9474;0,136858
972,9116;0,139641
973,8759;0,142648
974,8401;0,145886
975,8043;0,149352
976,7686;0,153028
977,7328;0,156885
978,6970;0,160879
979,6613;0,164947
980,6255;0,169
981,5897;0,172926
982,5540;0,176611
983,5182;0,179956
984,4824;0,182908
985,4467;0,185471
986,4109;0,187697
987,3751;0,189667
988,3394;0,191461
989,3036;0,193127
990,2678;0,194677
991,2321;0,196089
992,1963;0,19733
993,1605;0,198375
994,1248;0,199227
995,0890;0,199919
996,0532;0,200503
997,0175;0,201034
997,9817;0,201552
998,9459;0,202075
999,9102;0,202607
1000,8744;0,203153
1001,8386;0,20374
1002,8029;0,204417
1003,7671;0,205246
1004,7313;0,206285
1005,6956;0,207572
1006,6598;0,209109
1007,6240;0,210877
1008,5883;0,212839
1009,5525;0,214958
1010,5167;0,217198
1011,4810;0,219524
1012,4452;0,221894
1013,4094;0,224255
1014,3737;0,226549
1015,3379;0,228714
1016,3021;0,2307
1017,2664;0,232477
1018,2306;0,234039
1019,1948;0,235406
1020,1591;0,236609
1021,1233;0,237686
1022,0875;0,238672
1023,0518;0,239593
1024,0160;0,240464
1024,9802;0,241294
1025,9445;0,242077
1026,9087;0,242794
1027,8729;0,243409
1028,8372;0,24387
1029,8014;0,244109
1030,7656;0,244049
1031,7299;0,243615
1032,6941;0,242744
1033,6583;0,241401
1034,6226;0,239604
1035,5868;0,237434
1036,5510;0,23503
1037,5153;0,232571
1038,4795;0,23024
1039,4437;0,228186
1040,4080;0,2265
1041,3722;0,225214
1042,3364;0,2243
1043,3007;0,223697
1044,2649;0,223318
1045,2291;0,223073
1046,1934;0,222872
1047,1576;0,222638
1048,1218;0,222308
1049,0861;0,22183
1050,0503;0,221162
1051,0145;0,220264
1051,9788;0,219107
1052,9430;0,217681
1053,9072;0,215996
1054,8715;0,214074
1055,8357;0,211934
1056,7999;0,209568
1057,7642;0,206935
1058,7284;0,203983
1059,6926;0,200682
1060,6569;0,197064
1061,6211;0,193236
1062,5853;0,189355
1063,5496;0,185586
1064,5138;0,182053
1065,4780;0,178817
1066,4423;0,175881
1067,4065;0,173217
1068,3707;0,170786
1069,3350;0,168556
1070,2992;0,166487
1071,2634;0,16453
1072,2277;0,162616
1073,1919;0,160673
1074,1561;0,15864
1075,1204;0,156488
1076,0846;0,154224
1077,0488;0,151888
1078,0131;0,149534
1078,9773;0,147226
1079,9415;0,145026
1080,9058;0,142982
1081,8700;0,141128
1082,8342;0,139477
1083,7985;0,138017
1084,7627;0,136729
1085,7269;0,135592
1086,6912;0,134594
1087,6554;0,133742
1088,6196;0,133045
1089,5839;0,132514
1090,5481;0,132144
1091,5123;0,131921
1092,4766;0,131822
1093,4408;0,131827
1094,4050;0,131919
1095,3693;0,132086
1096,3335;0,132315
1097,2977;0,13259
1098,2620;0,132896
1099,2262;0,133212
1100,1904;0,133522
1101,1547;0,133804
1102,1189;0,134027
1103,0831;0,134157
1104,0474;0,134156
1105,0116;0,134006
1105,9758;0,133712
1106,9401;0,133304
1107,9043;0,132818
1108,8685;0,132269
1109,8328;0,131633
1110,7970;0,130847
1111,7612;0,129839
1112,7255;0,128563
1113,6897;0,127034
1114,6539;0,125333
1115,6182;0,123582
1116,5824;0,121901
1117,5466;0,120372
1118,5109;0,119015
1119,4751;0,117792
1120,4393;0,116629
1121,4036;0,11544
1122,3678;0,114145
1123,3320;0,112685
1124,2963;0,111027
1125,2605;0,109165
1126,2247;0,107124
1127,1890;0,104948
1128,1532;0,102693
1129,1174;0,100414
1130,0817;0,0981542
1131,0459;0,0959428
1132,0101;0,093802
1132,9744;0,0917549
1133,9386;0,0898334
1134,9028;0,0880795
1135,8671;0,08654
1136,8313;0,0852577
1137,7955;0,0842619
1138,7598;0,0835626
1139,7240;0,083149
1140,6882;0,0829931
1141,6525;0,0830556
1142,6167;0,0832928
1143,5809;0,0836642
1144,5452;0,0841363
1145,5094;0,0846851
1146,4736;0,085295
1147,4379;0,0859556
1148,4021;0,0866582
1149,3663;0,0873922
1150,3306;0,0881426
1151,2948;0,0888884
1152,2590;0,0896029
1153,2233;0,0902551
1154,1875;0,0908116
1155,1517;0,0912369
1156,1160;0,0914927
1157,0802;0,0915336
1158,0444;0,0913044
1159,0087;0,0907406
1159,9729;0,0897764
1160,9371;0,0883585
1161,9014;0,0864639
1162,8656;0,0841123
1163,8298;0,0813684
1164,7941;0,0783334
1165,7583;0,0751288
1166,7225;0,0718783
1167,6868;0,0686945
1168,6510;0,0656695
1169,6152;0,0628702
1170,5795;0,060336
1171,5437;0,0580809
1172,5079;0,0560984
1173,4722;0,0543693
1174,4364;0,0528704
1175,4006;0,0515802
1176,3649;0,0504793
1177,3291;0,0495487
1178,2933;0,0487671
1179,2576;0,0481103
1180,2218;0,047555
1181,1860;0,0470833
1182,1503;0,046686
1183,1145;0,0463636
1184,0787;0,0461232
1185,0430;0,0459744
1186,0072;0,0459252
1186,9714;0,045979
1187,9357;0,0461337
1188,8999;0,0463827
1189,8641;0,0467173
1190,8284;0,0471298
1191,7926;0,0476145
1192,7568;0,0481683
1193,7211;0,0487881
1194,6853;0,0494683
1195,6495;0,0501983
1196,6138;0,0509627
1197,5780;0,0517435
1198,5422;0,0525241
1199,5065;0,0532594
1200,4707;0,0540129
1201,4349;0,054745
1202,3992;0,0554526
1203,3634;0,0561297
1204,3276;0,0567665
1205,2919;0,0573538
1206,2561;0,0578883
1207,2203;0,0583789
1208,1846;0,0588484
1209,1488;0,0593301
1210,1130;0,0598599
1211,0773;0,0604674
1212,0415;0,0611688
1213,0057;0,061964
1213,9700;0,0628399
1214,9342;0,0637752
1215,8984;0,0647471
1216,8627;0,0657348
1217,8269;0,0667227
1218,7911;0,0677005
1219,7554;0,0686618
1220,7196;0,0696009
1221,6838;0,0705095
1222,6481;0,0713764
1223,6123;0,0721892
1224,5765;0,0729393
1225,5408;0,0736268
1226,5050;0,0742603
1227,4692;0,0748528
1228,4335;0,0754143
1229,3977;0,0759463
1230,3619;0,0764404
1231,3262;0,0768827
1232,2904;0,0772602
1233,2546;0,0775663
1234,2189;0,0778029
1235,1831;0,0779779
1236,1473;0,0781017
1237,1116;0,0781824
1238,0758;0,0782248
1239,0400;0,0782299
1240,0043;0,0781964
1240,9685;0,0781219
1241,9327;0,0780036
1242,8970;0,0778382
1243,8612;0,0776216
1244,8254;0,0773504
1245,7897;0,0770239
1246,7539;0,076647
1247,7181;0,0762306
1248,6824;0,0757895
1249,6466;0,0753379
1250,6108;0,0748856
1251,5751;0,0744371
1252,5393;0,0739935
1253,5035;0,0735554
1254,4678;0,0731239
1255,4320;0,0726989
1256,3962;0,0722758
1257,3605;0,071845
1258,3247;0,0713939
1259,2889;0,0709115
1260,2532;0,0703936
1261,2174;0,0698433
1262,1816;0,0692683
1263,1459;0,068676
1264,1101;0,0680696
1265,0743;0,0674474
1266,0386;0,0668045
1267,0028;0,0661362
1267,9670;0,0654406
1268,9313;0,0647206
1269,8955;0,0639832
1270,8597;0,0632367
1271,8240;0,0624883
1272,7882;0,0617423
1273,7524;0,0610029
1274,7167;0,0602766
1275,6809;0,0595741
1276,6451;0,0589067
1277,6094;0,0582806
1278,5736;0,0576912
1279,5378;0,0571243
1280,5021;0,0565623
1281,4663;0,0559939
1282,4305;0,0554197
1283,3948;0,0548513
1284,3590;0,0543053
1285,3232;0,0537987
1286,2875;0,0533456
1287,2517;0,0529582
1288,2159;0,0526464
1289,1802;0,0524159
1290,1444;0,0522663
1291,1086;0,0521915
1292,0729;0,0521842
1293,0371;0,0522414
1294,0013;0,0523664
1294,9656;0,0525665
1295,9298;0,0528465
1296,8940;0,0532045
1297,8583;0,0536319
1298,8225;0,054118
1299,7867;0,0546542
1300,7510;0,0552359
1301,7152;0,0558602
1302,6794;0,0565233
1303,6437;0,0572202
1304,6079;0,0579464
1305,5721;0,0586994
1306,5364;0,0594791
1307,5006;0,0602849
1308,4648;0,0611132
1309,4291;0,0619555
1310,3933;0,0627979
1311,3575;0,0636206
1312,3218;0,0643981
1313,2860;0,0651005
1314,2502;0,0656952
1315,2145;0,0661497
1316,1787;0,0664351
1317,1429;0,0665337
1318,1072;0,066448
1319,0714;0,0662088
1320,0356;0,0658709
1320,9999;0,0654967
1321,9641;0,0651367
1322,9283;0,0648198
1323,8926;0,0645559
1324,8568;0,0643451
1325,8210;0,0641844
1326,7853;0,0640702
1327,7495;0,0639965
1328,7137;0,0639518
1329,6780;0,063918
1330,6422;0,063872
1331,6064;0,0637909
1332,5707;0,0636568
1333,5349;0,0634585
1334,4991;0,0631873
1335,4634;0,062831
1336,4276;0,0623733
1337,3918;0,0618035
1338,3561;0,0611368
1339,3203;0,0604283
1340,2845;0,059757
1341,2488;0,0591853
1342,2130;0,0587313
1343,1772;0,0583764
1344,1415;0,0580918
1345,1057;0,0578589
1346,0699;0,0576764
1347,0342;0,0575567
1347,9984;0,0575162
1348,9626;0,0575655
1349,9269;0,0577035
1350,8911;0,057918
1351,8553;0,0581911
1352,8196;0,0585083
1353,7838;0,0588658
1354,7480;0,059271
1355,7123;0,0597338
1356,6765;0,0602545
1357,6407;0,0608167
1358,6050;0,0613921
1359,5692;0,0619494
1360,5334;0,0624632
1361,4977;0,0629222
1362,4619;0,0633342
1363,4261;0,0637213
1364,3904;0,0641015
1365,3546;0,0644752
1366,3188;0,0648257
1367,2831;0,0651302
1368,2473;0,0653685
1369,2115;0,0655245
1370,1758;0,0655827
1371,1400;0,0655227
1372,1042;0,0653199
1373,0685;0,0649606
1374,0327;0,0644629
1374,9969;0,0638807
1375,9612;0,0632685
1376,9254;0,062638
1377,8896;0,0619538
1378,8539;0,0611713
1379,8181;0,0602836
1380,7823;0,0593395
1381,7466;0,058414
1382,7108;0,0575528
1383,6750;0,0567392
1384,6393;0,0559093
1385,6035;0,0550099
1386,5677;0,0540655
1387,5320;0,0531953
1388,4962;0,0525348
1389,4604;0,0521314
1390,4247;0,0519291
1391,3889;0,0518292
1392,3531;0,0517479
1393,3174;0,0516412
1394,2816;0,0515081
1395,2458;0,0513786
1396,2101;0,0512923
1397,1743;0,0512784
1398,1385;0,0513489
1399,1028;0,0515032
1400,0670;0,0517302
1401,0313;0,0520085
1401,9955;0,0523108
1402,9597;0,0526142
1403,9240;0,0529117
1404,8882;0,0532166
1405,8524;0,0535542
1406,8167;0,0539431
1407,7809;0,0543825
1408,7451;0,0548581
1409,7094;0,0553586
1410,6736;0,0558853
1411,6378;0,0564479
1412,6021;0,0570501
1413,5663;0,0576781
1414,5305;0,0583022
1415,4948;0,0588849
1416,4590;0,0593886
1417,4232;0,0597837
1418,3875;0,0600688
1419,3517;0,0602821
1420,3159;0,0604659
1421,2802;0,0606159
1422,2444;0,0606848
1423,2086;0,0606277
1424,1729;0,0604351
1425,1371;0,0601305
1426,1013;0,0597366
1427,0656;0,0592447
1428,0298;0,0586211
1428,9940;0,0578568
1429,9583;0,0570143
1430,9225;0,0562073
1431,8867;0,0555142
1432,8510;0,054913
1433,8152;0,0542944
1434,7794;0,0535349
1435,7437;0,0526043
1436,7079;0,0516489
1437,6721;0,0509131
1438,6364;0,050526
1439,6006;0,0504302
1440,5648;0,0504952
1441,5291;0,0506252
1442,4933;0,0507845
1443,4575;0,0509771
1444,4218;0,0512147
1445,3860;0,0514938
1446,3502;0,0517948
1447,3145;0,052097
1448,2787;0,0523971
1449,2429;0,0527114
1450,2072;0,0530575
1451,1714;0,0534335
1452,1356;0,0538124
1453,0999;0,0541468
1454,0641;0,0543638
1455,0283;0,0543477
1455,9926;0,0539636
1456,9568;0,0532403
1457,9210;0,0525353
1458,8853;0,0521927
1459,8495;0,0521928
1460,8137;0,0523161
1461,7780;0,0523466
1462,7422;0,0521126
1463,7064;0,0515072
1464,6707;0,050563
1465,6349;0,0494871
1466,5991;0,0485136
1467,5634;0,0477153
1468,5276;0,0469919
1469,4918;0,0461617
1470,4561;0,0450281
1471,4203;0,0434466
1472,3845;0,0414623
1473,3488;0,0394104
1474,3130;0,0377002
1475,2772;0,0364748
1476,2415;0,0356188
1477,2057;0,0349676
1478,1699;0,034415
1479,1342;0,0339137
1480,0984;0,0334521
1481,0626;0,0330407
1482,0269;0,0327046
1482,9911;0,0324695
1483,9553;0,0323426
1484,9196;0,0323006
1485,8838;0,0322941
1486,8480;0,0322637
1487,8123;0,0321741
1488,7765;0,0320635
1489,7407;0,0320509
1490,7050;0,0322396
1491,6692;0,0326297
1492,6334;0,0331507
1493,5977;0,0337329
1494,5619;0,0343355
1495,5261;0,0349416
1496,4904;0,0355496
1497,4546;0,0361726
1498,4188;0,0368388
1499,3831;0,0375654
1500,3473;0,0383341
1501,3115;0,0390984
1502,2758;0,039806
1503,2400;0,0404072
1504,2042;0,0408367
1505,1685;0,0409749
1506,1327;0,0406552
1507,0969;0,0399055
1508,0612;0,0391522
1509,0254;0,0387377
1509,9896;0,0386043
1510,9539;0,038564
1511,9181;0,0384834
1512,8823;0,0382938
1513,8466;0,0379674
1514,8108;0,0375116
1515,7750;0,036968
1516,7393;0,0363941
1517,7035;0,0358239
1518,6677;0,035244
1519,6320;0,0346166
1520,5962;0,0339397
1521,5604;0,0332843
1522,5247;0,03275
1523,4889;0,0323829
1524,4531;0,0321586
1525,4174;0,0320358
1526,3816;0,0320024
1527,3458;0,0320707
1528,3101;0,0322424
1529,2743;0,0324893
1530,2385;0,0327648
1531,2028;0,0330302
1532,1670;0,0332796
1533,1312;0,03355
1534,0955;0,0338952
1535,0597;0,034336
1536,0239;0,0348413
1536,9882;0,0353508
1537,9524;0,0357867
1538,9166;0,0360285
1539,8809;0,0359169
1540,8451;0,0354466
1541,8093;0,0349376
1542,7736;0,034677
1543,7378;0,0346516
1544,7020;0,0347392
1545,6663;0,0348619
1546,6305;0,0349918
1547,5947;0,035117
1548,5590;0,0352216
1549,5232;0,0352916
1550,4874;0,0353347
1551,4517;0,0353899
1552,4159;0,0355076
1553,3801;0,0357098
1554,3444;0,0359637
1555,3086;0,0361798
1556,2728;0,0362075
1557,2371;0,0358509
1558,2013;0,0350758
1559,1655;0,0343435
1560,1298;0,0341845
1561,0940;0,03456
1562,0582;0,0351719
1563,0225;0,0358156
1563,9867;0,0364008
1564,9509;0,0368934
1565,9152;0,037281
1566,8794;0,0375702
1567,8436;0,0378022
1568,8079;0,0380607
1569,7721;0,0384331
1570,7363;0,0389442
1571,7006;0,0395451
1572,6648;0,0401599
1573,6290;0,0407285
1574,5933;0,0412189
1575,5575;0,0416347
1576,5217;0,0420269
1577,4860;0,0424728
1578,4502;0,0430125
1579,4144;0,0436254
1580,3787;0,0442683
1581,3429;0,0449083
1582,3071;0,0455321
1583,2714;0,0461441
1584,2356;0,0467617
1585,1998;0,0474048
1586,1641;0,0480829
1587,1283;0,0487887
1588,0925;0,0494986
1589,0568;0,0501793
1590,0210;0,0507943
1590,9852;0,0513073
1591,9495;0,0516836
1592,9137;0,0518943
1593,8779;0,0519292
1594,8422;0,0518084
1595,8064;0,0515803
1596,7706;0,0513018
1597,7349;0,0510145
1598,6991;0,0507352
1599,6633;0,0504631
1600,6276;0,0501946
1601,5918;0,0499363
1602,5560;0,0497068
1603,5203;0,0495267
1604,4845;0,0494021
1605,4487;0,0493148
1606,4130;0,0492312
1607,3772;0,0491255
1608,3414;0,0490082
1609,3057;0,048932
1610,2699;0,0489578
1611,2341;0,0491058
1612,1984;0,0493377
1613,1626;0,0495773
1614,1268;0,049743
1615,0911;0,049788
1616,0553;0,049754
1617,0195;0,0497763
1617,9838;0,0499693
1618,9480;0,0503241
1619,9122;0,0507469
1620,8765;0,0511434
1621,8407;0,0514588
1622,8049;0,0516866
1623,7692;0,0518616
1624,7334;0,05203
1625,6976;0,0522146
1626,6619;0,0524134
1627,6261;0,0526262
1628,5903;0,0528703
1629,5546;0,0531647
1630,5188;0,0535041
1631,4830;0,0538477
1632,4473;0,0541248
1633,4115;0,0542419
1634,3757;0,0541098
1635,3400;0,0537401
1636,3042;0,0533382
1637,2684;0,0531465
1638,2327;0,0532091
1639,1969;0,0534222
1640,1611;0,0536842
1641,1254;0,0539417
1642,0896;0,054167
1643,0538;0,0543231
1644,0181;0,0543438
1644,9823;0,0541548
1645,9465;0,0537692
1646,9108;0,0533745
1647,8750;0,0531939
1648,8392;0,0532576
1649,8035;0,0533995
1650,7677;0,053354
1651,7319;0,0527967
1652,6962;0,0515427
1653,6604;0,0500327
1654,6246;0,0490627
1655,5889;0,0487881
1656,5531;0,0488581
1657,5173;0,0489599
1658,4816;0,0489263
1659,4458;0,0486701
1660,4100;0,048148
1661,3743;0,0473914
1662,3385;0,0465485
1663,3027;0,045821
1664,2670;0,0453153
1665,2312;0,0449854
1666,1954;0,0446898
1667,1597;0,0442639
1668,1239;0,0435886
1669,0881;0,0426812
1670,0524;0,0417299
1671,0166;0,0409413
1671,9808;0,0403477
1672,9451;0,0398181
1673,9093;0,0392062
1674,8735;0,0384765
1675,8378;0,0377412
1676,8020;0,0371707
1677,7662;0,0368472
1678,7305;0,0367169
1679,6947;0,0366447
1680,6589;0,0364618
1681,6232;0,0359761
1682,5874;0,0350252
1683,5516;0,0336807
1684,5159;0,0323756
1685,4801;0,0315126
1686,4443;0,0310871
1687,4086;0,0308754
1688,3728;0,0307028
1689,3370;0,0305093
1690,3013;0,0303104
1691,2655;0,0301408
1692,2297;0,0300137
1693,1940;0,0299098
1694,1582;0,0297883
1695,1224;0,0296053
1696,0867;0,0293283
1697,0509;0,0289442
1698,0151;0,0284706
1698,9794;0,0279772
1699,9436;0,0275868
1700,9078;0,02741
1701,8721;0,027468
1702,8363;0,0276904
1703,8005;0,0279742
1704,7648;0,0282404
1705,7290;0,0284652
1706,6932;0,0286838
1707,6575;0,0289587
1708,6217;0,0293333
1709,5859;0,029809
1710,5502;0,0303565
1711,5144;0,0309347
1712,4786;0,031499
1713,4429;0,0319995
1714,4071;0,0323798
1715,3713;0,0325922
1716,3356;0,0326509
1717,2998;0,0326816
1718,2640;0,0328449
1719,2283;0,0331928
1720,1925;0,0336652
1721,1567;0,0341776
1722,1210;0,034671
1723,0852;0,0351182
1724,0494;0,035517
1725,0137;0,0358836
1725,9779;0,0362431
1726,9421;0,0366157
1727,9064;0,0370044
1728,8706;0,0373863
1729,8348;0,0377077
1730,7991;0,0378838
1731,7633;0,037818
1732,7275;0,0374737
1733,6918;0,0369735
1734,6560;0,0365514
1735,6202;0,036335
1736,5845;0,0362578
1737,5487;0,0361661
1738,5129;0,0359302
1739,4772;0,0354968
1740,4414;0,0349058
1741,4056;0,0342633
1742,3699;0,0336676
1743,3341;0,0331484
1744,2983;0,0326724
1745,2626;0,0321804
1746,2268;0,0316059
1747,1910;0,0308716
1748,1553;0,0299068
1749,1195;0,0287159
1750,0837;0,0274426
1751,0480;0,0263029
1752,0122;0,0254221
1752,9764;0,0247692
1753,9407;0,0242254
1754,9049;0,0236797
1755,8691;0,0230841
1756,8334;0,0224572
1757,7976;0,0218443
1758,7618;0,0212625
1759,7261;0,0206832
1760,6903;0,0200715
1761,6545;0,0194403
1762,6188;0,0188589
1763,5830;0,0183986
1764,5472;0,0180766
1765,5115;0,0178524
1766,4757;0,0176635
1767,4399;0,0174588
1768,4042;0,0172077
1769,3684;0,0168912
1770,3326;0,0164938
1771,2969;0,0160239
1772,2611;0,0155484
1773,2253;0,0151782
1774,1896;0,0149882
1775,1538;0,0149645
1776,1180;0,01503
1777,0823;0,0150977
1778,0465;0,0151067
1779,0107;0,0150383
1779,9750;0,0149143
1780,9392;0,0147759
1781,9034;0,0146545
1782,8677;0,0145602
1783,8319;0,0144968
1784,7961;0,0144779
1785,7604;0,0145223
1786,7246;0,0146333
1787,6888;0,0147832
1788,6531;0,0149146
1789,6173;0,0149565
1790,5815;0,0148535
1791,5458;0,0146132
1792,5100;0,0143343
1793,4742;0,0141482
1794,4385;0,0141147
1795,4027;0,014197
1796,3669;0,0143151
1797,3312;0,0143962
1798,2954;0,0143969
1799,2596;0,0143121
1800,2239;0,0141755
1801,1881;0,0140438
1802,1523;0,013965
1803,1166;0,0139575
1804,0808;0,0140112
1805,0450;0,014102
1806,0093;0,0142017
1806,9735;0,0142831
1807,9377;0,0143225
1808,9020;0,014306
1809,8662;0,0142373
1810,8304;0,0141405
1811,7947;0,0140492
1812,7589;0,0139879
1813,7231;0,013961
1814,6874;0,013957
1815,6516;0,0139611
1816,6158;0,0139666
1817,5801;0,013979
1818,5443;0,0140099
1819,5085;0,0140642
1820,4728;0,0141325
1821,4370;0,0141943
1822,4012;0,0142303
1823,3655;0,0142355
1824,3297;0,0142224
1825,2939;0,0142094
1826,2582;0,0141996
1827,2224;0,0141713
1828,1866;0,0140917
1829,1509;0,0139498
1830,1151;0,0137824
1831,0793;0,0136593
1832,0436;0,0136319
1833,0078;0,0136987
1833,9720;0,0138163
1834,9363;0,0139314
1835,9005;0,0140103
1836,8647;0,0140548
1837,8290;0,0140961
1838,7932;0,0141666
1839,7574;0,0142705
1840,7217;0,0143776
1841,6859;0,0144367
1842,6501;0,014401
1843,6144;0,0142627
1844,5786;0,0140734
1845,5428;0,0139127
1846,5071;0,0138248
1847,4713;0,0137987
1848,4355;0,0137984
1849,3998;0,0137984
1850,3640;0,0137961
1851,3282;0,0138039
1852,2925;0,0138329
1853,2567;0,0138808
1854,2209;0,013934
1855,1852;0,0139792
1856,1494;0,0140117
1857,1136;0,0140344
1858,0779;0,0140494
1859,0421;0,0140525
1860,0063;0,0140397
1860,9706;0,0140183
1861,9348;0,0140113
1862,8990;0,0140459
1863,8633;0,0141327
1864,8275;0,0142527
1865,7917;0,0143566
1866,7560;0,0143848
1867,7202;0,0143054
1868,6844;0,0141521
1869,6487;0,0140112
1870,6129;0,0139534
1871,5771;0,013985
1872,5414;0,0140612
1873,5056;0,014126
1874,4698;0,014143
1875,4341;0,0141078
1876,3983;0,0140448
1877,3625;0,0139891
1878,3268;0,0139655
1879,2910;0,0139788
1880,2552;0,0140189
1881,2195;0,0140725
1882,1837;0,0141315
1883,1479;0,0141939
1884,1122;0,0142589
1885,0764;0,0143216
1886,0406;0,0143725
1887,0049;0,0144004
1887,9691;0,014398
1888,9333;0,0143659
1889,8976;0,014313
1890,8618;0,014251
1891,8260;0,0141879
1892,7903;0,0141274
1893,7545;0,0140733
1894,7188;0,014035
1895,6830;0,0140255
1896,6472;0,0140527
1897,6115;0,0141113
1898,5757;0,014182
1899,5399;0,0142416
1900,5042;0,014276
1901,4684;0,0142868
1902,4326;0,0142896
1903,3969;0,0143012
1904,3611;0,0143265
1905,3253;0,0143529
1906,2896;0,0143576
1907,2538;0,0143227
1908,2180;0,0142493
1909,1823;0,014162
1910,1465;0,0140978
1911,1107;0,0140843
1912,0750;0,0141244
1913,0392;0,0141969
1914,0034;0,0142708
1914,9677;0,0143215
1915,9319;0,0143419
1916,8961;0,0143441
1917,8604;0,0143487
1918,8246;0,0143663
1919,7888;0,0143864
1920,7531;0,0143844
1921,7173;0,0143414
1922,6815;0,014261
1923,6458;0,0141718
1924,6100;0,0141128
1925,5742;0,0141102
1926,5385;0,0141655
1927,5027;0,0142611
1928,4669;0,0143727
1929,4312;0,0144796
1930,3954;0,0145663
1931,3596;0,0146217
1932,3239;0,0146397
1933,2881;0,0146217
1934,2523;0,0145782
1935,2166;0,0145248
1936,1808;0,0144741
1937,1450;0,0144294
1938,1093;0,0143868
1939,0735;0,0143436
1940,0377;0,0143063
1941,0020;0,0142893
1941,9662;0,014304
1942,9304;0,014348
1943,8947;0,014405
1944,8589;0,0144594
1945,8231;0,0145074
1946,7874;0,0145572
1947,7516;0,0146173
1948,7158;0,0146863
1949,6801;0,0147515
1950,6443;0,0147962
1951,6085;0,0148082
1952,5728;0,0147835
1953,5370;0,0147244
1954,5012;0,0146395
1955,4655;0,0145484
1956,4297;0,0144867
1957,3939;0,0144986
1958,3582;0,0146169
1959,3224;0,0148376
1960,2866;0,0151094
1961,2509;0,0153532
1962,2151;0,0155024
1963,1793;0,0155361
1964,1436;0,015482
1965,1078;0,015391
1966,0720;0,0153014
1967,0363;0,0152151
1968,0005;0,0150997
1968,9647;0,0149159
1969,9290;0,0146508
1970,8932;0,0143369
1971,8574;0,0140504
1972,8217;0,0138893
1973,7859;0,0139369
1974,7501;0,0142187
1975,7144;0,0146761
1976,6786;0,0151787
1977,6428;0,015583
1978,6071;0,0157999
1979,5713;0,0158254
1980,5355;0,0157133
1981,4998;0,0155273
1982,4640;0,0153119
1983,4282;0,015097
1984,3925;0,0149181
1985,3567;0,0148271
1986,3209;0,0148763
1987,2852;0,0150855
1988,2494;0,0154165
1989,2136;0,0157775
1990,1779;0,0160613
1991,1421;0,0161985
1992,1063;0,0161926
1993,0706;0,0161095
1994,0348;0,0160271
1994,9990;0,0159877
1995,9633;0,0159866
1996,9275;0,0159938
1997,8917;0,0159857
1998,8560;0,0159612
1999,8202;0,0159338
2000,7844;0,015911
2001,7487;0,0158797
2002,7129;0,0158142
2003,6771;0,0156993
2004,6414;0,015553
2005,6056;0,0154282
2006,5698;0,0153889
2007,5341;0,0154732
2008,4983;0,0156689
2009,4625;0,0159187
2010,4268;0,0161495
2011,3910;0,0163042
2012,3552;0,0163575
2013,3195;0,0163152
2014,2837;0,0162033
2015,2479;0,0160578
2016,2122;0,0159196
2017,1764;0,0158354
2018,1406;0,0158568
2019,1049;0,0160302
2020,0691;0,0163756
2021,0333;0,0168611
2021,9976;0,017393
2022,9618;0,017834
2023,9260;0,0180553
2024,8903;0,0179993
2025,8545;0,0177142
2026,8187;0,0173354
2027,7830;0,0170184
2028,7472;0,0168666
2029,7114;0,0168945
2030,6757;0,0170432
2031,6399;0,0172293
2032,6041;0,0173907
2033,5684;0,0175037
2034,5326;0,0175718
2035,4968;0,0176072
2036,4611;0,0176213
2037,4253;0,0176255
2038,3895;0,0176293
2039,3538;0,0176311
2040,3180;0,017611
2041,2822;0,0175398
2042,2465;0,0174054
2043,2107;0,0172376
2044,1749;0,0171057
2045,1392;0,017083
2046,1034;0,0171964
2047,0676;0,0173984
2048,0320;0,0175905
2048,9961;0,0176881
2049,9604;0,017675
2050,9246;0,0176026
2051,8889;0,0175425
2052,8530;0,0175335
2053,8174;0,0175607
2054,7815;0,017575
2055,7458;0,0175369
2056,7100;0,0174499
2057,6743;0,0173578
2058,6384;0,0173082
2059,6028;0,0173141
2060,5669;0,0173441
2061,5313;0,0173502
2062,4954;0,0173072
2063,4597;0,0172348
2064,4238;0,0171831
2065,3882;0,0171947
2066,3523;0,0172719
2067,3167;0,0173763
2068,2808;0,0174557
2069,2451;0,0174768
2070,2092;0,0174391
2071,1736;0,0173659
2072,1377;0,0172823
2073,1021;0,0172002
2074,0662;0,0171195
2075,0305;0,0170403
2075,9946;0,0169748
2076,9590;0,0169453
2077,9231;0,0169703
2078,8875;0,0170486
2079,8516;0,0171546
2080,8159;0,01725
2081,7800;0,0173055
2082,7444;0,0173178
2083,7085;0,0173095
2084,6729;0,0173128
2085,6370;0,0173471
2086,6013;0,0174057
2087,5654;0,0174612
2088,5298;0,0174848
2089,4939;0,0174652
2090,4583;0,0174154
2091,4224;0,0173618
2092,3867;0,0173278
2093,3508;0,0173231
2094,3152;0,0173454
2095,2793;0,0173911
2096,2437;0,017461
2097,2078;0,0175568
2098,1721;0,0176706
2099,1362;0,0177796
2100,1006;0,0178533
2101,0647;0,0178687
2102,0291;0,0178238
2102,9932;0,0177394
2103,9575;0,0176482
2104,9216;0,017581
2105,8860;0,0175566
2106,8501;0,0175796
2107,8145;0,0176425
2108,7786;0,0177284
2109,7429;0,017813
2110,7070;0,017871
2111,6714;0,0178855
2112,6355;0,0178565
2113,5999;0,0178008
2114,5640;0,0177407
2115,5283;0,0176891
2116,4924;0,0176423
2117,4568;0,0175871
2118,4209;0,0175179
2119,3853;0,0174491
2120,3494;0,0174106
2121,3137;0,0174265
2122,2778;0,0174926
2123,2422;0,0175698
2124,2063;0,0176034
2125,1707;0,0175565
2126,1348;0,0174354
2127,0991;0,0172889
2128,0632;0,0171809
2129,0276;0,0171548
2129,9917;0,0172136
2130,9561;0,0173286
2131,9202;0,0174676
2132,8845;0,017622
2133,8486;0,0178113
2134,8130;0,0180599
2135,7771;0,018363
2136,7415;0,0186679
2137,7056;0,01889
2138,6699;0,0189549
2139,6340;0,018839
2140,5984;0,0185874
2141,5625;0,0183005
2142,5269;0,0180961
2143,4910;0,0180654
2144,4553;0,0182398
2145,4194;0,0185803
2146,3838;0,0189937
2147,3479;0,0193684
2148,3123;0,0196174
2149,2764;0,0197108
2150,2407;0,0196844
2151,2048;0,0196208
2152,1692;0,0196102
2153,1333;0,0197081
2154,0977;0,0199087
2155,0618;0,020145
2156,0261;0,0203159
2156,9902;0,0203339
2157,9546;0,0201788
2158,9187;0,0199213
2159,8831;0,0196872
2160,8472;0,0195824
2161,8115;0,0196428
2162,7756;0,0198344
2163,7400;0,0200839
2164,7041;0,0203074
2165,6685;0,0204303
2166,6326;0,0204028
2167,5969;0,0202122
2168,5610;0,019889
2169,5254;0,0195046
2170,4895;0,0191549
2171,4539;0,0189334
2172,4180;0,018897
2173,3823;0,0190406
2174,3464;0,0192937
2175,3108;0,0195512
2176,2749;0,0197228
2177,2393;0,0197754
2178,2034;0,0197391
2179,1677;0,019677
2180,1318;0,0196408
2181,0962;0,0196402
2182,0603;0,0196462
2183,0247;0,0196217
2183,9888;0,0195554
2184,9531;0,0194717
2185,9172;0,0194113
2186,8816;0,0193992
2187,8457;0,0194241
2188,8101;0,019442
2189,7742;0,0194011
2190,7385;0,0192704
2191,7026;0,0190588
2192,6670;0,0188144
2193,6311;0,0186053
2194,5955;0,0184915
2195,5596;0,0184981
2196,5239;0,0186021
2197,4880;0,0187398
2198,4524;0,0188358
2199,4165;0,0188406
2200,3809;0,0187564
2201,3450;0,0186347
2202,3093;0,0185445
2203,2734;0,0185302
2204,2378;0,0185846
2205,2019;0,0186563
2206,1663;0,018685
2207,1304;0,0186402
2208,0947;0,0185399
2209,0588;0,0184354
2210,0232;0,0183778
2210,9873;0,0183864
2211,9517;0,0184418
2212,9158;0,0185007
2213,8801;0,0185224
2214,8442;0,0184867
2215,8086;0,0183979
2216,7727;0,0182779
2217,7371;0,0181574
2218,7012;0,0180704
2219,6655;0,0180491
2220,6296;0,0181137
2221,5940;0,0182597
2222,5581;0,0184511
2223,5225;0,0186268
2224,4866;0,0187238
2225,4509;0,0187046
2226,4150;0,0185746
2227,3794;0,0183789
2228,3435;0,018181
2229,3079;0,0180356
2230,2720;0,0179679
2231,2363;0,0179697
2232,2004;0,0180084
2233,1648;0,0180444
2234,1289;0,01805
2235,0933;0,0180228
2236,0574;0,0179898
2237,0217;0,0179963
2237,9858;0,0180805
2238,9502;0,0182463
2239,9143;0,0184491
2240,8787;0,0186096
2241,8428;0,0186519
2242,8071;0,0185463
2243,7712;0,0183282
2244,7356;0,0180802
2245,6997;0,0178858
2246,6641;0,0177857
2247,6282;0,0177636
2248,5925;0,0177709
2249,5566;0,0177673
2250,5210;0,0177492
2251,4851;0,0177463
2252,4495;0,0177917
2253,4136;0,0178911
2254,3779;0,0180146
2255,3420;0,0181143
2256,3064;0,0181543
2257,2705;0,0181278
2258,2349;0,0180527
2259,1990;0,0179544
2260,1633;0,0178507
2261,1274;0,017751
2262,0918;0,0176652
2263,0559;0,0176097
2264,0203;0,0176039
2264,9844;0,0176574
2265,9487;0,0177596
2266,9128;0,0178802
2267,8772;0,0179819
2268,8413;0,018038
2269,8057;0,0180415
2270,7698;0,0180057
2271,7341;0,0179536
2272,6982;0,0179074
2273,6626;0,0178799
2274,6267;0,0178717
2275,5911;0,0178742
2276,5552;0,017875
2277,5195;0,0178646
2278,4836;0,0178415
2279,4480;0,0178138
2280,4121;0,0177955
2281,3765;0,0178007
2282,3406;0,0178372
2283,3049;0,0179032
2284,2690;0,0179871
2285,2334;0,0180715
2286,1975;0,0181388
2287,1619;0,0181775
2288,1260;0,0181863
2289,0903;0,0181746
2290,0544;0,0181573
2291,0188;0,0181475
2291,9829;0,01815
2292,9473;0,0181608
2293,9114;0,0181721
2294,8757;0,0181809
2295,8398;0,0181924
2296,8042;0,0182183
2297,7683;0,0182676
2298,7327;0,0183381
2299,6968;0,0184134
2300,6611;0,0184698
2301,6252;0,0184885
2302,5896;0,0184669
2303,5537;0,0184215
2304,5181;0,0183818
2305,4822;0,0183749
2306,4465;0,018411
2307,4106;0,0184747
2308,3750;0,0185296
2309,3391;0,0185365
2310,3035;0,0184747
2311,2676;0,0183563
2312,2319;0,018221
2313,1960;0,0181142
2314,1604;0,018062
2315,1245;0,0180598
2316,0889;0,0180812
2317,0530;0,0180981
2318,0173;0,0180981
2318,9814;0,0180897
2319,9458;0,0180932
2320,9099;0,0181248
2321,8743;0,0181854
2322,8384;0,0182605
2323,8027;0,0183268
2324,7668;0,0183602
2325,7312;0,018342
2326,6953;0,0182664
2327,6597;0,0181471
2328,6238;0,0180185
2329,5881;0,0179278
2330,5522;0,0179163
2331,5166;0,0179973
2332,4807;0,0181442
2333,4451;0,0182998
2334,4092;0,0184026
2335,3735;0,0184161
2336,3376;0,0183449
2337,3020;0,0182308
2338,2661;0,0181271
2339,2305;0,0180621
2340,1946;0,0180145
2341,1589;0,0179192
2342,1230;0,0177149
2343,0874;0,0174238
2344,0515;0,017202
2345,0159;0,0172518
2345,9800;0,0176415
2346,9443;0,0182433
2347,9084;0,0188387
2348,8728;0,019248
2349,8369;0,019397
2350,8013;0,019325
2351,7654;0,0191544
2352,7297;0,0190297
2353,6938;0,0190437
2354,6582;0,0191983
2355,6223;0,0194272
2356,5867;0,0196416
2357,5508;0,0197587
2358,5151;0,0197191
2359,4792;0,0195074
2360,4436;0,019157
2361,4077;0,0187244
2362,3721;0,018258
2363,3362;0,0177931
2364,3005;0,0173653
2365,2646;0,0170146
2366,2290;0,0167683
2367,1931;0,0166234
2368,1575;0,0165461
2369,1216;0,0164904
2370,0859;0,0164208
2371,0500;0,0163249
2372,0144;0,016214
2372,9785;0,0161151
2373,9429;0,0160595
2374,9070;0,0160733
2375,8713;0,0161697
2376,8354;0,0163471
2377,7998;0,0165898
2378,7639;0,0168726
2379,7283;0,0171662
2380,6924;0,0174419
2381,6567;0,0176775
2382,6208;0,0178608
2383,5852;0,0179914
2384,5493;0,0180798
2385,5137;0,018142
2386,4778;0,018194
2387,4421;0,0182457
2388,4063;0,0183003
2389,3706;0,0183549
2390,3347;0,0184052
2391,2991;0,0184473
2392,2632;0,0184792
2393,2275;0,0185001
2394,1917;0,0185104
2395,1560;0,0185132
2396,1201;0,0185146
2397,0845;0,0185228
2398,0486;0,0185442
2399,0129;0,0185781
2399,9771;0,0186162
2400,9414;0,0186471
2401,9055;0,0186627
2402,8699;0,0186643
2403,8340;0,0186616
2404,7983;0,0186672
2405,7625;0,0186884
2406,7268;0,0187236
2407,6909;0,0187642
2408,6553;0,0188009
2409,6194;0,018829
2410,5837;0,0188501
2411,5479;0,0188696
2412,5122;0,0188923
2413,4763;0,0189207
2414,4407;0,0189544
2415,4048;0,0189911
2416,3691;0,0190274
2417,3333;0,0190594
2418,2976;0,0190841
2419,2617;0,0191015
2420,2261;0,0191163
2421,1902;0,0191361
2422,1545;0,0191674
2423,1187;0,0192099
2424,0830;0,0192547
2425,0471;0,0192883
2426,0115;0,0193008
2426,9756;0,0192932
2427,9399;0,0192793
2428,9041;0,0192782
2429,8684;0,0193042
2430,8325;0,0193579
2431,7969;0,019426
2432,7610;0,0194885
2433,7253;0,0195293
2434,6895;0,0195441
2435,6538;0,0195409
2436,6179;0,0195338
2437,5823;0,0195352
2438,5464;0,0195498
2439,5107;0,0195758
2440,4749;0,0196081
2441,4392;0,0196439
2442,4033;0,0196838
2443,3677;0,0197298
2444,3318;0,0197818
2445,2961;0,0198344
2446,2603;0,0198789
2447,2246;0,0199071
2448,1887;0,0199159
2449,1531;0,0199096
2450,1172;0,0198983
2451,0815;0,0198931
2452,0457;0,019902
2453,0100;0,0199269
2453,9741;0,0199647
2454,9385;0,0200093
2455,9026;0,0200544
2456,8669;0,0200951
2457,8311;0,0201277
2458,7954;0,0201489
2459,7595;0,0201564
2460,7239;0,0201502
2461,6880;0,0201351
2462,6523;0,0201212
2463,6165;0,0201208
2464,5808;0,0201431
2465,5449;0,0201883
2466,5093;0,0202464
2467,4734;0,020301
2468,4377;0,0203389
2469,4019;0,0203575
2470,3662;0,0203662
2471,3303;0,0203806
2472,2947;0,0204116
2473,2588;0,0204585
2474,2231;0,0205088
2475,1873;0,0205462
2476,1516;0,0205607
2477,1157;0,0205547
2478,0801;0,0205407
2479,0442;0,0205327
2480,0085;0,0205375
2480,9727;0,0205513
2481,9370;0,0205639
2482,9011;0,0205666
2483,8655;0,0205598
2484,8296;0,0205533
2485,7939;0,0205604
2486,7581;0,0205895
2487,7224;0,0206381
2488,6865;0,0206942
2489,6509;0,0207426
2490,6150;0,0207728
2491,5793;0,0207832
2492,5435;0,0207799
2493,5078;0,0207717
2494,4719;0,0207658
2495,4363;0,0207662
2496,4004;0,0207742
2497,3647;0,0207906
2498,3289;0,0208151
2499,2932;0,020846
2500,2573;0,0208795
2501,2217;0,0209107
2502,1858;0,0209361
2503,1501;0,0209544
2504,1143;0,0209663
2505,0786;0,0209736
2506,0427;0,0209784
2507,0071;0,0209838
2507,9712;0,0209948
2508,9355;0,021016
2509,8997;0,0210489
2510,8640;0,0210888
2511,8281;0,021126
2512,7925;0,0211509
2513,7566;0,0211602
2514,7209;0,021159
2515,6851;0,0211577
2516,6494;0,0211643
2517,6135;0,0211794
2518,5779;0,0211962
2519,5420;0,0212062
2520,5063;0,0212057
2521,4705;0,0211982
2522,4348;0,0211919
2523,3989;0,021195
2524,3633;0,021212
2525,3274;0,0212427
2526,2917;0,0212838
2527,2559;0,0213302
2528,2202;0,0213754
2529,1843;0,0214122
2530,1487;0,0214347
2531,1128;0,0214409
2532,0771;0,0214336
2533,0413;0,0214198
2534,0056;0,0214083
2534,9697;0,0214066
2535,9341;0,021419
2536,8982;0,0214458
2537,8625;0,0214821
2538,8267;0,0215181
2539,7910;0,0215409
2540,7551;0,0215398
2541,7195;0,021513
2542,6836;0,0214708
2543,6479;0,021433
2544,6121;0,0214186
2545,5764;0,0214353
2546,5405;0,0214748
2547,5049;0,0215173
2548,4690;0,0215435
2549,4333;0,0215454
2550,3975;0,0215294
2551,3618;0,0215108
2552,3259;0,021504
2553,2903;0,021515
2554,2544;0,0215411
2555,2188;0,0215752
2556,1829;0,0216118
2557,1472;0,0216493
2558,1113;0,0216883
2559,0757;0,0217279
2560,0398;0,0217629
2561,0042;0,021786
2561,9683;0,0217919
2562,9326;0,0217818
2563,8967;0,0217647
2564,8611;0,0217535
2565,8252;0,021758
2566,7896;0,0217793
2567,7537;0,021809
2568,7180;0,021834
2569,6821;0,0218448
2570,6465;0,0218405
2571,6106;0,0218282
2572,5750;0,0218171
2573,5391;0,0218127
2574,5034;0,0218139
2575,4675;0,0218161
2576,4319;0,0218164
2577,3960;0,0218164
2578,3604;0,0218215
2579,3245;0,0218367
2580,2888;0,0218632
2581,2529;0,021898
2582,2173;0,0219366
2583,1814;0,0219752
2584,1458;0,0220122
2585,1099;0,0220464
2586,0742;0,0220756
2587,0383;0,0220963
2588,0027;0,0221051
2588,9668;0,022101
2589,9312;0,0220867
2590,8953;0,0220685
2591,8596;0,0220547
2592,8237;0,0220536
2593,7881;0,0220714
2594,7522;0,0221103
2595,7166;0,0221667
2596,6807;0,0222312
2597,6450;0,0222913
2598,6091;0,0223351
2599,5735;0,0223564
2600,5376;0,022357
2601,5020;0,022346
2602,4661;0,0223361
2603,4304;0,0223384
2604,3945;0,0223583
2605,3589;0,0223948
2606,3230;0,022442
2607,2874;0,0224924
2608,2515;0,0225396
2609,2158;0,0225797
2610,1799;0,0226117
2611,1443;0,0226363
2612,1084;0,0226551
2613,0728;0,0226701
2614,0369;0,0226835
2615,0012;0,0226978
2615,9653;0,0227156
2616,9297;0,0227395
2617,8938;0,0227709
2618,8582;0,0228091
2619,8223;0,022851
2620,7866;0,022891
2621,7507;0,0229235
2622,7151;0,0229451
2623,6792;0,0229572
2624,6436;0,0229651
2625,6077;0,0229764
2626,5720;0,0229965
2627,5361;0,0230267
2628,5005;0,0230634
2629,4646;0,0231011
2630,4290;0,0231351
2631,3931;0,0231633
2632,3574;0,0231867
2633,3215;0,023207
2634,2859;0,0232253
2635,2500;0,023242
2636,2144;0,023258
2637,1785;0,0232758
2638,1428;0,023299
2639,1069;0,0233303
2640,0713;0,02337
2641,0354;0,0234145
2641,9998;0,0234583
2642,9639;0,0234962
2643,9282;0,0235258
2644,8923;0,0235479
2645,8567;0,0235656
2646,8208;0,0235821
2647,7852;0,0235997
2648,7493;0,0236191
2649,7136;0,0236405
2650,6777;0,0236635
2651,6421;0,0236882
2652,6062;0,0237149
2653,5706;0,0237436
2654,5347;0,0237743
2655,4990;0,0238068
2656,4631;0,0238407
2657,4275;0,0238754
2658,3916;0,0239099
2659,3560;0,0239426
2660,3201;0,0239712
2661,2844;0,0239932
2662,2485;0,0240069
2663,2129;0,0240126
2664,1770;0,0240137
2665,1414;0,0240158
2666,1055;0,0240247
2667,0698;0,0240435
2668,0339;0,0240712
2668,9983;0,0241034
2669,9624;0,0241353
2670,9268;0,0241646
2671,8909;0,024192
2672,8552;0,0242199
2673,8193;0,0242492
2674,7837;0,024278
2675,7478;0,0243033
2676,7122;0,0243229
2677,6763;0,0243382
2678,6406;0,0243534
2679,6047;0,0243734
2680,5691;0,0244013
2681,5332;0,024437
2682,4976;0,024479
2683,4617;0,0245251
2684,4260;0,0245739
2685,3901;0,0246242
2686,3545;0,0246742
2687,3186;0,0247213
2688,2830;0,0247624
2689,2471;0,0247956
2690,2114;0,024821
2691,1755;0,0248406
2692,1399;0,0248575
2693,1040;0,0248759
2694,0684;0,0248994
2695,0325;0,024931
2695,9968;0,0249713
2696,9609;0,0250178
2697,9253;0,0250653
2698,8894;0,025108
2699,8538;0,0251426
2700,8179;0,0251709
2701,7822;0,0251997
2702,7463;0,025237
2703,7107;0,0252879
2704,6748;0,0253502
2705,6392;0,0254152
2706,6033;0,0254718
2707,5676;0,0255122
2708,5317;0,0255363
2709,4961;0,0255513
2710,4602;0,0255671
2711,4246;0,0255915
2712,3887;0,0256258
2713,3530;0,025666
2714,3171;0,0257063
2715,2815;0,0257429
2716,2456;0,025776
2717,2100;0,0258086
2718,1741;0,0258433
2719,1384;0,02588
2720,1025;0,0259153
2721,0669;0,025945
2722,0310;0,0259668
2722,9954;0,025983
2723,9595;0,0259996
2724,9238;0,0260239
2725,8879;0,0260607
2726,8523;0,0261103
2727,8164;0,0261681
2728,7808;0,0262274
2729,7449;0,0262821
2730,7092;0,0263289
2731,6733;0,0263671
2732,6377;0,026398
2733,6018;0,0264227
2734,5662;0,0264422
2735,5303;0,026458
2736,4946;0,026473
2737,4587;0,0264914
2738,4231;0,0265172
2739,3872;0,0265514
2740,3516;0,0265915
2741,3157;0,026631
2742,2800;0,0266631
2743,2441;0,0266834
2744,2085;0,0266924
2745,1726;0,0266956
2746,1370;0,0267007
2747,1011;0,0267143
2748,0654;0,0267397
2749,0295;0,026776
2749,9939;0,0268196
2750,9580;0,0268665
2751,9224;0,0269133
2752,8865;0,0269586
2753,8508;0,0270017
2754,8149;0,0270423
2755,7793;0,0270802
2756,7434;0,0271152
2757,7078;0,027148
2758,6719;0,0271802
2759,6362;0,0272143
2760,6003;0,0272525
2761,5647;0,0272959
2762,5288;0,0273433
2763,4932;0,0273919
2764,4573;0,0274384
2765,4216;0,0274805
2766,3857;0,0275189
2767,3501;0,0275563
2768,3142;0,0275968
2769,2786;0,0276431
2770,2427;0,0276944
2771,2070;0,0277469
2772,1711;0,0277958
2773,1355;0,0278375
2774,0996;0,0278726
2775,0640;0,0279051
2776,0281;0,0279406
2776,9924;0,0279839
2777,9565;0,0280367
2778,9209;0,0280983
2779,8850;0,0281666
2780,8494;0,02824
2781,8135;0,028317
2782,7778;0,0283957
2783,7419;0,0284725
2784,7063;0,0285428
2785,6704;0,0286024
2786,6348;0,0286509
2787,5989;0,0286922
2788,5632;0,0287343
2789,5273;0,0287861
2790,4917;0,0288533
2791,4558;0,0289363
2792,4202;0,0290309
2793,3843;0,0291303
2794,3486;0,0292288
2795,3127;0,0293239
2796,2771;0,0294165
2797,2412;0,029509
2798,2056;0,0296027
2799,1697;0,0296963
2800,1340;0,0297867
2801,0981;0,0298708
2802,0625;0,0299487
2803,0266;0,0300251
2803,9910;0,0301074
2804,9551;0,0302021
2805,9194;0,0303111
2806,8835;0,0304311
2807,8479;0,0305552
2808,8120;0,0306774
2809,7764;0,030796
2810,7405;0,0309134
2811,7048;0,031035
2812,6689;0,0311654
2813,6333;0,0313066
2814,5974;0,0314576
2815,5618;0,0316147
2816,5259;0,0317737
2817,4902;0,0319304
2818,4543;0,0320829
2819,4187;0,0322317
2820,3828;0,0323799
2821,3472;0,0325315
2822,3113;0,0326899
2823,2756;0,0328571
2824,2397;0,0330344
2825,2041;0,0332243
2826,1682;0,0334307
2827,1326;0,0336569
2828,0967;0,0339034
2829,0610;0,0341663
2830,0251;0,0344392
2830,9895;0,0347156
2831,9536;0,0349923
2832,9180;0,0352696
2833,8821;0,03555
2834,8464;0,0358376
2835,8105;0,0361384
2836,7749;0,0364625
2837,7390;0,0368239
2838,7034;0,0372379
2839,6675;0,0377164
2840,6318;0,0382641
2841,5959;0,0388788
2842,5603;0,0395524
2843,5244;0,0402737
2844,4888;0,0410255
2845,4529;0,0417817
2846,4172;0,0425042
2847,3813;0,0431469
2848,3457;0,0436651
2849,3098;0,0440279
2850,2742;0,0442266
2851,2383;0,0442748
2852,2026;0,0442019
2853,1667;0,044043
2854,1311;0,0438316
2855,0952;0,0435958
2856,0596;0,0433588
2857,0237;0,0431398
2857,9880;0,0429551
2858,9521;0,0428169
2859,9165;0,0427322
2860,8806;0,042701
2861,8450;0,0427173
2862,8091;0,0427711
2863,7734;0,042852
2864,7375;0,0429524
2865,7019;0,0430693
2866,6660;0,0432019
2867,6304;0,0433487
2868,5945;0,0435041
2869,5588;0,0436573
2870,5229;0,0437955
2871,4873;0,0439094
2872,4514;0,0439976
2873,4158;0,0440674
2874,3799;0,0441317
2875,3442;0,044203
2876,3083;0,0442877
2877,2727;0,0443846
2878,2368;0,0444877
2879,2012;0,0445912
2880,1653;0,0446936
2881,1296;0,0447985
2882,0938;0,044912
2883,0581;0,0450382
2884,0222;0,0451768
2884,9866;0,0453234
2885,9507;0,0454736
2886,9150;0,0456255
2887,8792;0,0457805
2888,8435;0,0459403
2889,8076;0,0461032
2890,7720;0,046263
2891,7361;0,046412
2892,7004;0,0465468
2893,6646;0,0466721
2894,6289;0,046799
2895,5930;0,0469391
2896,5574;0,0470968
2897,5215;0,0472663
2898,4858;0,0474349
2899,4500;0,0475903
2900,4143;0,0477276
2901,3784;0,0478518
2902,3428;0,0479743
2903,3069;0,0481071
2904,2712;0,0482584
2905,2354;0,0484323
2906,1997;0,0486317
2907,1638;0,0488627
2908,1282;0,0491354
2909,0923;0,0494616
2910,0566;0,0498491
2911,0208;0,0502963
2911,9851;0,0507876
2912,9492;0,0512944
2913,9136;0,0517792
2914,8777;0,0522026
2915,8420;0,0525304
2916,8062;0,0527393
2917,7705;0,0528199
2918,7346;0,0527762
2919,6990;0,0526234
2920,6631;0,0523827
2921,6274;0,0520763
2922,5916;0,0517229
2923,5559;0,051335
2924,5200;0,0509196
2925,4844;0,0504813
2926,4485;0,0500262
2927,4128;0,0495639
2928,3770;0,0491064
2929,3413;0,048664
2930,3054;0,0482417
2931,2698;0,0478376
2932,2339;0,0474453
2933,1982;0,0470574
2934,1624;0,0466693
2935,1267;0,0462801
2936,0908;0,0458912
2937,0552;0,0455053
2938,0193;0,0451243
2938,9836;0,0447498
2939,9478;0,0443822
2940,9121;0,0440213
2941,8762;0,043666
2942,8406;0,0433156
2943,8047;0,0429712
2944,7690;0,0426367
2945,7332;0,042319
2946,6975;0,0420245
2947,6616;0,0417571
2948,6260;0,0415154
2949,5901;0,0412941
2950,5544;0,0410863
2951,5186;0,0408862
2952,4829;0,0406899
2953,4470;0,0404952
2954,4114;0,0402995
2955,3755;0,0400994
2956,3398;0,0398912
2957,3040;0,0396726
2958,2683;0,0394437
2959,2324;0,0392077
2960,1968;0,0389695
2961,1609;0,0387341
2962,1252;0,0385045
2963,0894;0,0382807
2964,0537;0,0380605
2965,0178;0,0378406
2965,9822;0,0376195
2966,9463;0,0373982
2967,9106;0,0371789
2968,8748;0,0369625
2969,8391;0,0367469
2970,8032;0,0365275
2971,7676;0,0363012
2972,7317;0,0360702
2973,6960;0,0358428
2974,6602;0,0356309
2975,6245;0,0354432
2976,5886;0,0352812
2977,5530;0,0351389
2978,5171;0,0350068
2979,4814;0,0348781
2980,4456;0,0347513
2981,4099;0,0346294
2982,3740;0,0345164
2983,3384;0,0344142
2984,3025;0,0343217
2985,2668;0,034237
2986,2310;0,0341582
2987,1953;0,0340848
2988,1594;0,0340167
2989,1238;0,0339542
2990,0879;0,0338985
2991,0522;0,0338528
2992,0164;0,0338211
2992,9807;0,0338072
2993,9448;0,033812
2994,9092;0,0338322
2995,8733;0,0338618
2996,8376;0,0338946
2997,8018;0,0339272
2998,7661;0,0339591
2999,7302;0,033992
3000,6946;0,0340275
3001,6587;0,0340664
3002,6230;0,0341084
3003,5872;0,0341528
3004,5515;0,0341988
3005,5156;0,0342453
3006,4800;0,0342901
3007,4441;0,0343305
3008,4084;0,0343648
3009,3726;0,0343934
3010,3369;0,0344203
3011,3010;0,0344518
3012,2654;0,0344939
3013,2295;0,0345492
3014,1938;0,0346152
3015,1580;0,0346859
3016,1223;0,0347551
3017,0864;0,0348206
3018,0508;0,0348859
3019,0149;0,0349583
3019,9792;0,0350447
3020,9434;0,035147
3021,9077;0,0352609
3022,8718;0,035378
3023,8362;0,0354909
3024,8003;0,035597
3025,7646;0,0356987
3026,7288;0,0357998
3027,6931;0,0359018
3028,6572;0,0360017
3029,6216;0,036094
3030,5857;0,0361749
3031,5500;0,0362466
3032,5142;0,0363171
3033,4785;0,0363972
3034,4426;0,0364949
3035,4070;0,0366118
3036,3711;0,0367422
3037,3354;0,0368763
3038,2996;0,0370043
3039,2639;0,0371208
3040,2280;0,037227
3041,1924;0,0373302
3042,1565;0,03744
3043,1208;0,0375636
3044,0850;0,037702
3045,0493;0,0378492
3046,0134;0,0379961
3046,9778;0,0381355
3047,9419;0,038266
3048,9063;0,0383923
3049,8704;0,038521
3050,8347;0,0386559
3051,7988;0,0387954
3052,7632;0,0389351
3053,7273;0,0390714
3054,6917;0,0392059
3055,6558;0,0393443
3056,6201;0,0394931
3057,5842;0,0396541
3058,5486;0,0398235
3059,5127;0,039993
3060,4771;0,0401542
3061,4412;0,0403015
3062,4055;0,0404329
3063,3696;0,0405492
3064,3340;0,0406544
3065,2981;0,0407545
3066,2625;0,0408578
3067,2266;0,0409724
3068,1909;0,0411031
3069,1550;0,0412493
3070,1194;0,0414063
3071,0835;0,0415678
3072,0479;0,0417293
3073,0120;0,0418883
3073,9763;0,0420431
3074,9404;0,0421907
3075,9048;0,0423264
3076,8689;0,0424476
3077,8333;0,0425565
3078,7974;0,0426618
3079,7617;0,0427747
3080,7258;0,0429038
3081,6902;0,0430505
3082,6543;0,0432086
3083,6187;0,0433684
3084,5828;0,0435215
3085,5471;0,0436648
3086,5112;0,0438006
3087,4756;0,0439351
3088,4397;0,0440747
3089,4041;0,0442232
3090,3682;0,0443804
3091,3325;0,044542
3092,2966;0,0447025
3093,2610;0,0448572
3094,2251;0,0450038
3095,1895;0,045143
3096,1536;0,0452765
3097,1179;0,045406
3098,0820;0,0455332
3099,0464;0,0456601
3100,0105;0,04579
3100,9749;0,0459263
3101,9390;0,0460713
3102,9033;0,0462245
3103,8674;0,0463832
3104,8318;0,0465441
3105,7959;0,0467061
3106,7603;0,0468701
3107,7244;0,0470385
3108,6887;0,0472135
3109,6528;0,0473952
3110,6172;0,047582
3111,5813;0,0477705
3112,5457;0,0479565
3113,5098;0,048136
3114,4741;0,0483065
3115,4382;0,0484677
3116,4026;0,0486224
3117,3667;0,0487749
3118,3311;0,0489291
3119,2952;0,0490863
3120,2595;0,0492457
3121,2236;0,049406
3122,1880;0,0495676
3123,1521;0,0497342
3124,1165;0,0499105
3125,0806;0,0500988
3126,0449;0,0502968
3127,0090;0,0504974
3127,9734;0,0506911
3128,9375;0,050871
3129,9019;0,051036
3130,8660;0,051192
3131,8303;0,051349
3132,7944;0,051517
3133,7588;0,0517009
3134,7229;0,0518985
3135,6873;0,0521024
3136,6514;0,0523042
3137,6157;0,0524986
3138,5798;0,0526846
3139,5442;0,0528649
3140,5083;0,0530433
3141,4727;0,0532232
3142,4368;0,0534079
3143,4011;0,0536007
3144,3652;0,0538046
3145,3296;0,0540192
3146,2937;0,0542391
3147,2581;0,0544543
3148,2222;0,0546548
3149,1865;0,054837
3150,1506;0,0550067
3151,1150;0,0551769
3152,0791;0,0553611
3153,0435;0,0555656
3154,0076;0,0557861
3154,9719;0,0560112
3155,9360;0,0562295
3156,9004;0,056435
3157,8645;0,0566295
3158,8289;0,0568192
3159,7930;0,0570106
3160,7573;0,0572067
3161,7214;0,0574071
3162,6858;0,0576103
3163,6499;0,0578151
3164,6143;0,0580224
3165,5784;0,0582336
3166,5427;0,0584496
3167,5068;0,0586695
3168,4712;0,0588905
3169,4353;0,0590812
3170,3997;0,0592941
3171,3638;0,0594988
3172,3281;0,0596941
3173,2922;0,0598806
3174,2566;0,060061
3175,2207;0,0602404
3176,1851;0,0604254
3177,1492;0,0606228
3178,1135;0,0608361
3179,0776;0,061063
3180,0420;0,061295
3181,0061;0,0615197
3181,9705;0,0617256
3182,9346;0,0619084
3183,8989;0,0620729
3184,8630;0,0622319
3185,8274;0,0624003
3186,7915;0,0625881
3187,7559;0,0627964
3188,7200;0,0630182
3189,6843;0,0632424
3190,6484;0,0634585
3191,6128;0,0636602
3192,5769;0,0638456
3193,5413;0,0640168
3194,5054;0,0641791
3195,4697;0,0643395
3196,4338;0,0645058
3197,3982;0,0646827
3198,3623;0,0648701
3199,3267;0,0650626
3200,2908;0,065253
3201,2551;0,0654373
3202,2192;0,065617
3203,1836;0,065798
3204,1477;0,0659852
3205,1121;0,0661781
3206,0762;0,0663708
3207,0405;0,0665558
3208,0046;0,0667297
3208,9690;0,0668961
3209,9331;0,0670642
3210,8975;0,0672425
3211,8616;0,0674348
3212,8259;0,0676378
3213,7900;0,0678433
3214,7544;0,068042
3215,7185;0,0682264
3216,6829;0,0683928
3217,6470;0,0685421
3218,6113;0,0686796
3219,5754;0,0688141
3220,5398;0,0689536
3221,5039;0,0691027
3222,4683;0,0692603
3223,4324;0,0694222
3224,3967;0,0695859
3225,3608;0,069754
3226,3252;0,069933
3227,2893;0,0701278
3228,2537;0,0703353
3229,2178;0,0705438
3230,1821;0,0707378
3231,1462;0,070908
3232,1106;0,0710568
3233,0747;0,0711972
3234,0391;0,0713448
3235,0032;0,0715091
3235,9675;0,0716891
3236,9316;0,0718773
3237,8960;0,0720653
3238,8601;0,0722496
3239,8245;0,0724315
3240,7886;0,0726134
3241,7529;0,0727953
3242,7170;0,0729746
3243,6814;0,0731486
3244,6455;0,0733181
3245,6099;0,0734885
3246,5740;0,0736668
3247,5383;0,073858
3248,5024;0,074062
3249,4668;0,0742742
3250,4309;0,0744875
3251,3953;0,0746962
3252,3594;0,0748978
3253,3237;0,0750938
3254,2878;0,0752884
3255,2522;0,0754862
3256,2163;0,0756902
3257,1807;0,0758998
3258,1448;0,0761113
3259,1091;0,0763195
3260,0732;0,0765203
3261,0376;0,0767134
3262,0017;0,0769021
3262,9661;0,0770912
3263,9302;0,0772835
3264,8945;0,0774774
3265,8586;0,0776672
3266,8230;0,077846
3267,7871;0,0780094
3268,7515;0,0781575
3269,7156;0,0782933
3270,6799;0,0784199
3271,6440;0,078538
3272,6084;0,0786464
3273,5725;0,0787444
3274,5369;0,0788344
3275,5010;0,0789215
3276,4653;0,0790102
3277,4294;0,079101
3278,3938;0,079189
3279,3579;0,0792666
3280,3223;0,0793282
3281,2864;0,0793748
3282,2507;0,0794137
3283,2148;0,0794552
3284,1792;0,0795067
3285,1433;0,0795683
3286,1077;0,0796321
3287,0718;0,0796867
3288,0361;0,0797228
3289,0002;0,0797376
3289,9646;0,079737
3290,9287;0,0797311
3291,8931;0,0797293
3292,8572;0,0797342
3293,8215;0,0797409
3294,7856;0,0797409
3295,7500;0,0797286
3296,7141;0,0797058
3297,6785;0,0796817
3298,6426;0,0796673
3299,6069;0,0796683
3300,5710;0,0796811
3301,5354;0,0796948
3302,4995;0,0796975
3303,4639;0,0796827
3304,4280;0,0796522
3305,3923;0,0796144
3306,3564;0,0795789
3307,3208;0,0795526
3308,2849;0,0795378
3309,2493;0,079533
3310,2134;0,0795355
3311,1777;0,0795428
3312,1418;0,0795538
3313,1062;0,079569
3314,0703;0,0795916
3315,0347;0,0796268
3315,9988;0,0796806
3316,9631;0,0797566
3317,9272;0,0798537
3318,8916;0,0799645
3319,8557;0,0800778
3320,8201;0,0801824
3321,7842;0,0802713
3322,7485;0,0803443
3323,7126;0,0804075
3324,6770;0,0804698
3325,6411;0,0805393
3326,6055;0,0806194
3327,5696;0,0807084
3328,5339;0,0808005
3329,4980;0,0808887
3330,4624;0,0809666
3331,4265;0,0810289
3332,3909;0,0810711
3333,3550;0,0810892
3334,3193;0,081081
3335,2834;0,0810475
3336,2478;0,0809936
3337,2119;0,0809266
3338,1763;0,0808516
3339,1404;0,0807685
3340,1047;0,0806718
3341,0688;0,0805549
3342,0332;0,0804156
3342,9973;0,0802592
3343,9617;0,0800965
3344,9258;0,0799375
3345,8901;0,0797858
3346,8542;0,0796371
3347,8186;0,0794831
3348,7827;0,0793172
3349,7471;0,0791381
3350,7112;0,0789495
3351,6755;0,0787558
3352,6396;0,0785593
3353,6040;0,0783599
3354,5681;0,0781575
3355,5325;0,0779545
3356,4966;0,0777563
3357,4609;0,0775692
3358,4250;0,0773975
3359,3894;0,077241
3360,3535;0,0770953
3361,3179;0,0769528
3362,2820;0,0768051
3363,2463;0,0766453
3364,2104;0,0764706
3365,1748;0,0762836
3366,1389;0,0760919
3367,1033;0,0759042
3368,0674;0,0757257
3369,0317;0,0755552
3369,9958;0,0753857
3370,9602;0,0752095
3371,9243;0,075023
3372,8887;0,0748296
3373,8528;0,0746367
3374,8171;0,0744513
3375,7813;0,0742753
3376,7456;0,074106
3377,7097;0,0739388
3378,6741;0,0737707
3379,6382;0,0736018
3380,6025;0,073433
3381,5667;0,0732642
3382,5310;0,0730934
3383,4951;0,0729202
3384,4595;0,0727478
3385,4236;0,0725831
3386,3879;0,0724324
3387,3521;0,0722961
3388,3164;0,0721663
3389,2805;0,0720299
3390,2449;0,0718754
3391,2090;0,0717003
3392,1733;0,0715127
3393,1375;0,0713272
3394,1018;0,0711561
3395,0659;0,071003
3396,0303;0,0708609
3396,9944;0,0707172
3397,9587;0,0705598
3398,9229;0,0703823
3399,8872;0,0701857
3400,8513;0,0699762
3401,8157;0,0697618
3402,7798;0,0695494
3403,7441;0,069343
3404,7083;0,0691436
3405,6726;0,0689497
3406,6367;0,0687581
3407,6011;0,0685645
3408,5652;0,0683653
3409,5295;0,0681585
3410,4937;0,067945
3411,4580;0,0677298
3412,4221;0,0675196
3413,3865;0,0673196
3414,3506;0,0671287
3415,3149;0,0669375
3416,2791;0,0667315
3417,2434;0,0664976
3418,2075;0,0662315
3419,1719;0,0659416
3420,1360;0,0656458
3421,1003;0,0653628
3422,0645;0,0651032
3423,0288;0,064866
3423,9929;0,0646428
3424,9573;0,0644243
3425,9214;0,0642052
3426,8857;0,0639844
3427,8499;0,0637616
3428,8142;0,0635349
3429,7783;0,0632996
3430,7427;0,0630512
3431,7068;0,0627888
3432,6711;0,0625176
3433,6353;0,0622478
3434,5996;0,0619897
3435,5637;0,0617486
3436,5281;0,0615213
3437,4922;0,0612983
3438,4565;0,0610694
3439,4207;0,0608305
3440,3850;0,0605846
3441,3491;0,0603377
3442,3135;0,0600906
3443,2776;0,0598351
3444,2419;0,0595583
3445,2061;0,0592528
3446,1704;0,058927
3447,1345;0,0586041
3448,0989;0,0583095
3449,0630;0,0580557
3450,0273;0,057835
3450,9915;0,0576261
3451,9558;0,0574076
3452,9199;0,0571688
3453,8843;0,0569127
3454,8484;0,0566506
3455,8127;0,0563935
3456,7769;0,056145
3457,7412;0,0559003
3458,7053;0,055651
3459,6697;0,0553906
3460,6338;0,0551193
3461,5981;0,0548427
3462,5623;0,0545682
3463,5266;0,0542986
3464,4907;0,0540296
3465,4551;0,0537524
3466,4192;0,0534601
3467,3835;0,053154
3468,3477;0,0528441
3469,3120;0,0525433
3470,2761;0,0522593
3471,2405;0,0519912
3472,2046;0,0517334
3473,1689;0,0514834
3474,1331;0,051246
3475,0974;0,0510285
3476,0615;0,0508307
3477,0259;0,0506379
3477,9900;0,0504253
3478,9543;0,050171
3479,9185;0,0498718
3480,8828;0,0495487
3481,8469;0,0492359
3482,8113;0,0489594
3483,7754;0,0487213
3484,7397;0,0485008
3485,7039;0,0482699
3486,6682;0,0480121
3487,6323;0,0477324
3488,5967;0,0474532
3489,5608;0,0471989
3490,5251;0,04698
3491,4893;0,0467866
3492,4536;0,0465955
3493,4177;0,0463848
3494,3821;0,0461477
3495,3462;0,0458971
3496,3105;0,0456557
3497,2747;0,045437
3498,2390;0,0452318
3499,2031;0,0450102
3500,1675;0,0447404
3501,1316;0,0444133
3502,0959;0,0440579
3503,0601;0,0437301
3504,0244;0,0434767
3504,9885;0,0433024
3505,9529;0,0431674
3506,9170;0,0430141
3507,8813;0,0427997
3508,8455;0,0425182
3509,8098;0,0421998
3510,7739;0,0418887
3511,7383;0,0416144
3512,7024;0,0413793
3513,6667;0,0411687
3514,6309;0,0409693
3515,5952;0,0407799
3516,5593;0,0406084
3517,5237;0,0404598
3518,4878;0,0403262
3519,4521;0,0401876
3520,4163;0,0400217
3521,3806;0,0398157
3522,3447;0,0395706
3523,3091;0,0392954
3524,2732;0,0389966
3525,2375;0,0386742
3526,2017;0,0383284
3527,1660;0,0379729
3528,1301;0,0376392
3529,0945;0,0373644
3530,0586;0,0371674
3531,0229;0,0370344
3531,9871;0,036923
3532,9514;0,0367837
3533,9155;0,0365832
3534,8799;0,0363209
3535,8440;0,0360303
3536,8083;0,0357633
3537,7725;0,0355643
3538,7368;0,0354489
3539,7009;0,0353981
3540,6653;0,0353655
3541,6294;0,0352899
3542,5938;0,0351123
3543,5579;0,0348014
3544,5222;0,034379
3545,4863;0,0339241
3546,4507;0,0335321
3547,4148;0,0332552
3548,3792;0,0330758
3549,3433;0,0329283
3550,3076;0,0327435
3551,2717;0,0324896
3552,2361;0,0321902
3553,2002;0,0319071
3554,1646;0,0316944
3555,1287;0,0315613
3556,0930;0,0314715
3557,0571;0,0313754
3558,0215;0,0312473
3558,9856;0,0311049
3559,9500;0,0309974
3560,9141;0,0309645
3561,8784;0,0309939
3562,8425;0,0310064
3563,8069;0,030874
3564,7710;0,0304748
3565,7354;0,0297864
3566,6995;0,0289657
3567,6638;0,0282776
3568,6279;0,0278908
3569,5923;0,0277806
3570,5564;0,0278119
3571,5208;0,0278503
3572,4849;0,0278157
3573,4492;0,0276894
3574,4133;0,0274988
3575,3777;0,0272849
3576,3418;0,027073
3577,3062;0,0268665
3578,2703;0,0266683
3579,2346;0,0265026
3580,1987;0,0264131
3581,1631;0,0264301
3582,1272;0,0265349
3583,0916;0,0266456
3584,0557;0,0266343
3585,0200;0,0263766
3585,9841;0,0258401
3586,9485;0,025166
3587,9126;0,0246132
3588,8770;0,0243566
3589,8411;0,0243702
3590,8054;0,0244997
3591,7695;0,024583
3592,7339;0,0245213
3593,6980;0,0243091
3594,6624;0,0240233
3595,6265;0,023761
3596,5908;0,0235633
3597,5549;0,0233978
3598,5193;0,0232103
3599,4834;0,0229878
3600,4478;0,0227793
3601,4119;0,0226551
3602,3762;0,0226432
3603,3403;0,0227019
3604,3047;0,0227436
3605,2688;0,0226807
3606,2332;0,0224692
3607,1973;0,0221333
3608,1616;0,0217518
3609,1257;0,0214031
3610,0901;0,0211221
3611,0542;0,0209068
3612,0186;0,0207532
3612,9827;0,0206682
3613,9470;0,02065
3614,9111;0,0206582
3615,8755;0,0206092
3616,8396;0,0204087
3617,8040;0,0200163
3618,7681;0,0195116
3619,7324;0,0190851
3620,6965;0,0189181
3621,6609;0,0190622
3622,6250;0,0194388
3623,5894;0,0199067
3624,5535;0,0203047
3625,5178;0,0204568
3626,4819;0,0201928
3627,4463;0,0194557
3628,4104;0,0184603
3629,3748;0,0176179
3630,3389;0,017172
3631,3032;0,0170491
3632,2673;0,0170486
3633,2317;0,0170207
3634,1958;0,0169129
3635,1602;0,0167484
3636,1243;0,016579
3637,0886;0,0164409
3638,0527;0,0163384
3639,0171;0,0162637
3639,9812;0,0162262
3640,9456;0,0162623
3641,9097;0,0164137
3642,8740;0,0166908
3643,8381;0,0170475
3644,8025;0,0173695
3645,7666;0,0174696
3646,7310;0,0171149
3647,6951;0,0161832
3648,6594;0,0149436
3649,6235;0,0139908
3650,5879;0,0136529
3651,5520;0,0137775
3652,5164;0,0140503
3653,4805;0,0142271
3654,4448;0,0141824
3655,4089;0,0139203
3656,3733;0,0135665
3657,3374;0,0132881
3658,3018;0,0131723
3659,2659;0,0131884
3660,2302;0,0132579
3661,1943;0,0133369
3662,1587;0,0134456
3663,1228;0,0136367
3664,0872;0,0139321
3665,0513;0,0142819
3666,0156;0,0145721
3666,9797;0,0146734
3667,9441;0,014525
3668,9082;0,0142204
3669,8726;0,0139771
3670,8367;0,0139407
3671,8010;0,0140421
3672,7651;0,0140609
3673,7295;0,0137805
3674,6936;0,0131514
3675,6580;0,012395
3676,6221;0,0118546
3677,5864;0,0116847
3678,5505;0,0117938
3679,5149;0,0120257
3680,4790;0,0122908
3681,4434;0,0125803
3682,4075;0,0129225
3683,3718;0,0133284
3684,3359;0,0137554
3685,3003;0,014103
3686,2644;0,014233
3687,2288;0,0140275
3688,1929;0,0134958
3689,1572;0,0128542
3690,1213;0,0123991
3691,0857;0,0122605
3692,0498;0,0123641
3693,0142;0,0125776
3693,9783;0,0128133
3694,9426;0,0130394
3695,9067;0,0132507
3696,8711;0,0134368
3697,8352;0,0135644
3698,7996;0,0135852
3699,7637;0,0134696
3700,7280;0,0132501
3701,6921;0,0130353
3702,6565;0,0129595
3703,6206;0,0130991
3704,5850;0,0134357
3705,5491;0,0138796
3706,5134;0,0143027
3707,4775;0,0145518
3708,4419;0,0144654
3709,4060;0,0139458
3710,3704;0,0130937
3711,3345;0,0122435
3712,2988;0,0117333
3713,2629;0,0116584
3714,2273;0,0119029
3715,1914;0,012299
3716,1558;0,0127161
3717,1199;0,0130786
3718,0842;0,0133589
3719,0483;0,0135654
3720,0127;0,0137203
3720,9768;0,0138335
3721,9412;0,0138907
3722,9053;0,0138731
3723,8696;0,0137953
3724,8337;0,0137226
3725,7981;0,0137425
3726,7622;0,0139074
3727,7266;0,0142054
3728,6907;0,0145738
3729,6550;0,0149284
3730,6191;0,015178
3731,5835;0,0152259
3732,5476;0,0149788
3733,5120;0,0144033
3734,4761;0,0136226
3735,4404;0,0129258
3736,4045;0,012583
3737,3689;0,0126652
3738,3330;0,013065
3739,2974;0,0136074
3740,2615;0,0141093
3741,2258;0,0143948
3742,1899;0,0143298
3743,1543;0,0139275
3744,1184;0,0134393
3745,0828;0,0132016
3746,0469;0,0133202
3747,0112;0,0136065
3747,9753;0,0137545
3748,9397;0,0135104
3749,9038;0,012838
3750,8682;0,0120405
3751,8323;0,0115526
3752,7966;0,0115328
3753,7607;0,0118208
3754,7251;0,0121718
3755,6892;0,0124006
3756,6536;0,0124157
3757,6177;0,0122367
3758,5820;0,0119889
3759,5461;0,0118288
3760,5105;0,0118379
3761,4746;0,0119912
3762,4390;0,0122073
3763,4031;0,0124056
3764,3674;0,0125332
3765,3315;0,0125655
3766,2959;0,0124954
3767,2600;0,0123248
3768,2244;0,0120708
3769,1885;0,0117832
3770,1528;0,0115483
3771,1169;0,0114547
3772,0813;0,0115422
3773,0454;0,01178
3774,0098;0,0120851
3774,9739;0,0123558
3775,9382;0,0125025
3776,9023;0,0124801
3777,8667;0,0123183
3778,8308;0,012116
3779,7952;0,0119793
3780,7593;0,0119498
3781,7236;0,0119948
3782,6877;0,0120495
3783,6521;0,0120617
3784,6162;0,0120141
3785,5806;0,0119261
3786,5447;0,0118395
3787,5090;0,0118001
3788,4731;0,0118398
3789,4375;0,0119663
3790,4016;0,0121593
3791,3660;0,0123768
3792,3301;0,0125733
3793,2944;0,0127244
3794,2585;0,0128451
3795,2229;0,0129802
3796,1870;0,0131628
3797,1514;0,0133668
3798,1155;0,0134992
3799,0798;0,0134496
3800,0439;0,0131819
3801,0083;0,0128003
3801,9724;0,0124847
3802,9368;0,0123285
3803,9009;0,0122688
3804,8652;0,0121688
3805,8293;0,0119485
3806,7937;0,0116699
3807,7578;0,0115105
3808,7222;0,0116177
3809,6863;0,0119917
3810,6506;0,012509
3811,6147;0,0130101
3812,5791;0,0133628
3813,5432;0,0135054
3814,5076;0,0134818
3815,4717;0,0134205
3816,4360;0,0134199
3817,4001;0,0134451
3818,3645;0,0133576
3819,3286;0,0130457
3820,2930;0,0125492
3821,2571;0,0120659
3822,2214;0,0117928
3823,1855;0,0117749
3824,1499;0,0119244
3825,1140;0,0121275
3826,0784;0,0123111
3827,0425;0,0124557
3828,0068;0,012579
3828,9709;0,0127111
3829,9353;0,0128749
3830,8994;0,0130797
3831,8638;0,0133196
3832,8279;0,0135695
3833,7922;0,0137772
3834,7563;0,0138649
3835,7207;0,0137546
3836,6848;0,0134185
3837,6492;0,0129277
3838,6133;0,0124341
3839,5776;0,0120719
3840,5417;0,0118763
3841,5061;0,0118024
3842,4702;0,0117994
3843,4346;0,0118602
3844,3987;0,012022
3845,3630;0,0123312
3846,3271;0,0128063
3847,2915;0,0134199
3848,2556;0,0140961
3849,2200;0,014701
3850,1841;0,0150218
3851,1484;0,014783
3852,1125;0,0138363
3853,0769;0,0125116
3854,0410;0,0115081
3855,0054;0,0111821
3855,9695;0,0113815
3856,9338;0,0118329
3857,8979;0,012345
3858,8623;0,0128028
3859,8264;0,0131289
3860,7908;0,0132769
3861,7549;0,0132555
3862,7192;0,0131487
3863,6833;0,0130795
3864,6477;0,013126
3865,6118;0,0132715
3866,5762;0,0134285
3867,5403;0,0134931
3868,5046;0,0133899
3869,4688;0,0131081
3870,4331;0,0127175
3871,3972;0,0123421
3872,3616;0,0120999
3873,3257;0,0120508
3874,2900;0,0121859
3875,2542;0,0124446
3876,2185;0,0127401
3877,1826;0,0129853
3878,1470;0,013121
3879,1111;0,0131402
3880,0754;0,0130881
3881,0396;0,0130214
3882,0039;0,0129575
3882,9680;0,0128728
3883,9324;0,0127532
3884,8965;0,0126376
3885,8608;0,0125975
3886,8250;0,0126663
3887,7893;0,0127931
3888,7534;0,012868
3889,7178;0,0127948
3890,6819;0,0125748
3891,6462;0,0123396
3892,6104;0,0122684
3893,5747;0,0124467
3894,5388;0,012821
3895,5032;0,0132655
3896,4673;0,0136559
3897,4316;0,0139055
3898,3958;0,0139778
3899,3601;0,0138803
3900,3242;0,0136378
3901,2886;0,0132697
3902,2527;0,0128084
3903,2170;0,0123339
3904,1812;0,0119621
3905,1455;0,0117759
3906,1096;0,011776
3907,0740;0,0118981
3908,0381;0,0120641
3909,0024;0,0122204
3909,9666;0,0123523
3910,9309;0,0124756
3911,8950;0,0126119
3912,8594;0,0127625
3913,8235;0,0128962
3914,7878;0,012963
3915,7520;0,0129287
3916,7163;0,0128103
3917,6804;0,0126773
3918,6448;0,0126047
3919,6089;0,0126178
3920,5732;0,0126796
3921,5374;0,0127233
3922,5017;0,0126998
3923,4658;0,0126137
3924,4302;0,0125242
3925,3943;0,0125033
3926,3586;0,01258
3927,3228;0,0127203
3928,2871;0,0128483
3929,2512;0,0128885
3930,2156;0,0128052
3931,1797;0,0126254
3932,1440;0,0124237
3933,1082;0,0122766
3934,0725;0,0122226
3935,0366;0,01226
3936,0010;0,0123651
3936,9651;0,0125073
3937,9294;0,0126523
3938,8936;0,0127638
3939,8579;0,0128122
3940,8220;0,0127913
3941,7864;0,0127293
3942,7505;0,012677
3943,7148;0,0126739
3944,6790;0,0127203
3945,6433;0,0127768
3946,6074;0,0127906
3947,5718;0,0127295
3948,5359;0,0126042
3949,5002;0,0124631
3950,4644;0,0123605
3951,4287;0,0123238
3952,3928;0,0123455
3953,3572;0,0123994
3954,3213;0,0124609
3955,2856;0,012517
3956,2498;0,0125635
3957,2141;0,012597
3958,1782;0,0126101
3959,1426;0,0125954
3960,1067;0,0125535
3961,0710;0,0124982
3962,0352;0,0124507
3962,9995;0,0124292
3963,9636;0,0124386
3964,9280;0,0124706
3965,8921;0,012511
3966,8564;0,0125485
3967,8206;0,012579
3968,7849;0,0126041
3969,7490;0,0126251
3970,7134;0,0126388
3971,6775;0,0126382
3972,6418;0,0126183
3973,6060;0,012582
3974,5703;0,0125414
3975,5344;0,0125129
3976,4988;0,0125083
3977,4629;0,012528
3978,4272;0,0125613
3979,3914;0,0125925
3980,3557;0,0126092
3981,3198;0,0126088
3982,2842;0,0125987
3983,2483;0,0125908
3984,2126;0,0125942
3985,1768;0,0126097
3986,1411;0,0126312
3987,1052;0,0126498
3988,0696;0,0126592
3989,0337;0,0126575
3989,9980;0,0126466
3990,9622;0,0126292
3991,9265;0,0126072
3992,8906;0,0125823
3993,8550;0,0125584
3994,8191;0,012542
3995,7834;0,012539
3996,7476;0,0125511
3997,7119;0,0125737
3998,6760;0,012598
3999,6404;0,0126169
4000,6045;0,0125608

##### Extended Information
[Comments]
Sample name
Comment
Username
Division
Organization;UNIVERSIDAD INDUSTRIAL DE SANTANDER

[Detailed Information]
Creation date;18/03/2025 11:57 a.m.

Data array type;Linear data array
Horizontal axis;Wavenumber [cm-1]
Vertical axis;Abs
Start;399,193 cm-1
End;4000,6 cm-1
Data interval;0,964233 cm-1
Data points;3736    

[Measurement Information]
Model name;FT/IR-4X1typeA
Serial No.;A035162111

Accessory;ATR PRO 4X
Accessory S/N;A021162126
Incident angle;45 deg

Measurement date;18/03/2025 11:53 a.m.

Light source;Standard
Detector;TGS
Accumulation;40
Resolution;4 cm-1
Zero filling;On
Apodization;Cosine
Gain;Auto (8)
Aperture;Auto (7 mm)
Scan speed;Auto (2 mm/sec)
Filter;Auto (12800 Hz)

