TITLE;
DATA TYPE;INFRARED SPECTRUM
ORIGIN;JASCO
OWNER;
DATE;25/03/18
TIME;12:49:14
SPECTROMETER/DATA SYSTEM;
LOCALE;9226
RESOLUTION;
DELTAX;0,964233
XUNITS;1/CM
YUNITS;ABSORBANCE
FIRSTX;  399,1927
LASTX; 4000,6047
NPOINTS;    3736
FIRSTY;     0,20484
MAXY;     0,26065
MINY;     0,01130
XYDATA
399,1927;0,204843
400,1569;0,2033
401,1211;0,202492
402,0854;0,202296
403,0496;0,20254
404,0138;0,203037
404,9781;0,203553
405,9423;0,203832
406,9065;0,203702
407,8708;0,203178
408,8350;0,202499
409,7992;0,202052
410,7635;0,20223
411,7277;0,203253
412,6919;0,205044
413,6562;0,207263
414,6204;0,209459
415,5846;0,211193
416,5489;0,212108
417,5131;0,212071
418,4773;0,211455
419,4416;0,211155
420,4058;0,211862
421,3700;0,213471
422,3343;0,215393
423,2985;0,217066
424,2627;0,218157
425,2270;0,21859
426,1912;0,218527
427,1554;0,218261
428,1197;0,21807
429,0839;0,218121
430,0481;0,218471
431,0124;0,219094
431,9766;0,219904
432,9408;0,220754
433,9051;0,221448
434,8693;0,221791
435,8335;0,221687
436,7978;0,22121
437,7620;0,220571
438,7262;0,220001
439,6905;0,219645
440,6547;0,219516
441,6189;0,219536
442,5832;0,219604
443,5474;0,219649
444,5116;0,219639
445,4759;0,219541
446,4401;0,219304
447,4043;0,218872
448,3686;0,218236
449,3328;0,21747
450,2970;0,216713
451,2613;0,216108
452,2255;0,21572
453,1897;0,215511
454,1540;0,215368
455,1182;0,215173
456,0824;0,214855
457,0467;0,214431
458,0109;0,21399
458,9751;0,213646
459,9394;0,213459
460,9036;0,213414
461,8678;0,213438
462,8321;0,21343
463,7963;0,21329
464,7605;0,212946
465,7248;0,212389
466,6890;0,211694
467,6532;0,210987
468,6175;0,210396
469,5817;0,210021
470,5459;0,209926
471,5102;0,21015
472,4744;0,210693
473,4386;0,211497
474,4029;0,212438
475,3671;0,213357
476,3313;0,214097
477,2956;0,214534
478,2598;0,214611
479,2240;0,214362
480,1883;0,213916
481,1525;0,213474
482,1167;0,213252
483,0810;0,213412
484,0452;0,213994
485,0094;0,21489
485,9737;0,215888
486,9379;0,21677
487,9021;0,217399
488,8664;0,217749
489,8306;0,217874
490,7948;0,217869
491,7591;0,217821
492,7233;0,217784
493,6875;0,217772
494,6518;0,217793
495,6160;0,217867
496,5802;0,218042
497,5445;0,218372
498,5087;0,21889
499,4729;0,219574
500,4372;0,220332
501,4014;0,22102
502,3656;0,221507
503,3299;0,221742
504,2941;0,221788
505,2583;0,221783
506,2226;0,221873
507,1868;0,222153
508,1510;0,222635
509,1153;0,223266
510,0795;0,223968
511,0437;0,224678
512,0080;0,225368
512,9722;0,226039
513,9365;0,226695
514,9007;0,227314
515,8649;0,227838
516,8292;0,228179
517,7934;0,228262
518,7576;0,228075
519,7219;0,227696
520,6861;0,227255
521,6503;0,226878
522,6146;0,226637
523,5788;0,226539
524,5430;0,226528
525,5073;0,226506
526,4715;0,226381
527,4357;0,226108
528,4000;0,225712
529,3642;0,225261
530,3284;0,224832
531,2927;0,224475
532,2569;0,224191
533,2211;0,223934
534,1854;0,223636
535,1496;0,223257
536,1138;0,222825
537,0781;0,22244
538,0423;0,222223
539,0065;0,222245
539,9708;0,222477
540,9350;0,222799
541,8992;0,223076
542,8635;0,223235
543,8277;0,223314
544,7919;0,223439
545,7562;0,223755
546,7204;0,224342
547,6846;0,225174
548,6489;0,226143
549,6131;0,227109
550,5773;0,227961
551,5416;0,228648
552,5058;0,229183
553,4700;0,229626
554,4343;0,230048
555,3985;0,230475
556,3627;0,230849
557,3270;0,231012
558,2912;0,230758
559,2554;0,229923
560,2197;0,228476
561,1839;0,226559
562,1481;0,224432
563,1124;0,222378
564,0766;0,22059
565,0408;0,219133
566,0051;0,21796
566,9693;0,216983
567,9335;0,216129
568,8978;0,215368
569,8620;0,214704
570,8262;0,21414
571,7905;0,213672
572,7547;0,213281
573,7189;0,212954
574,6832;0,212681
575,6474;0,212451
576,6116;0,212245
577,5759;0,212032
578,5401;0,211784
579,5043;0,211491
580,4686;0,211175
581,4328;0,21088
582,3970;0,21065
583,3613;0,210507
584,3255;0,210439
585,2897;0,210402
586,2540;0,210353
587,2182;0,210266
588,1824;0,210147
589,1467;0,210023
590,1109;0,20992
591,0751;0,209846
592,0394;0,209776
593,0036;0,209658
593,9678;0,209438
594,9321;0,209078
595,8963;0,208578
596,8605;0,207972
597,8248;0,207323
598,7890;0,206703
599,7532;0,206162
600,7175;0,20571
601,6817;0,205318
602,6459;0,204937
603,6102;0,204531
604,5744;0,204082
605,5386;0,203592
606,5029;0,203065
607,4671;0,202492
608,4313;0,201852
609,3956;0,201136
610,3598;0,200352
611,3240;0,199538
612,2883;0,198733
613,2525;0,197956
614,2167;0,197189
615,1810;0,196373
616,1452;0,195433
617,1094;0,19431
618,0737;0,192992
619,0379;0,191516
620,0021;0,189953
620,9664;0,188375
621,9306;0,186844
622,8948;0,185414
623,8591;0,184129
624,8233;0,18302
625,7875;0,182086
626,7518;0,181291
627,7160;0,18057
628,6802;0,179853
629,6445;0,179087
630,6087;0,178247
631,5729;0,177338
632,5372;0,176388
633,5014;0,175435
634,4656;0,174527
635,4299;0,173708
636,3941;0,173007
637,3583;0,172432
638,3226;0,171957
639,2868;0,171532
640,2510;0,171099
641,2153;0,170614
642,1795;0,170063
643,1437;0,169465
644,1080;0,168859
645,0722;0,168282
646,0364;0,167758
647,0007;0,16729
647,9649;0,166873
648,9291;0,166509
649,8934;0,166215
650,8576;0,16602
651,8218;0,165945
652,7861;0,165993
653,7503;0,166152
654,7145;0,166401
655,6788;0,166729
656,6430;0,167127
657,6072;0,167576
658,5715;0,168016
659,5357;0,168337
660,4999;0,168421
661,4642;0,168231
662,4284;0,167851
663,3926;0,167445
664,3569;0,167164
665,3211;0,167071
666,2853;0,16707
667,2496;0,166826
668,2138;0,165852
669,1780;0,164039
670,1423;0,161877
671,1065;0,159823
672,0707;0,157946
673,0350;0,15612
673,9992;0,15422
674,9634;0,152208
675,9277;0,150149
676,8919;0,148163
677,8561;0,146341
678,8204;0,144704
679,7846;0,143234
680,7488;0,141914
681,7131;0,14075
682,6773;0,139761
683,6415;0,138962
684,6058;0,138352
685,5700;0,137906
686,5342;0,13757
687,4985;0,137263
688,4627;0,136903
689,4269;0,136447
690,3912;0,135907
691,3554;0,135341
692,3196;0,134813
693,2839;0,134352
694,2481;0,133952
695,2123;0,133577
696,1766;0,133203
697,1408;0,13282
698,1050;0,132437
699,0693;0,132055
700,0335;0,131658
700,9977;0,131215
701,9620;0,130698
702,9262;0,130098
703,8904;0,12943
704,8547;0,128725
705,8189;0,128012
706,7831;0,127307
707,7474;0,126606
708,7116;0,125897
709,6758;0,125161
710,6401;0,124382
711,6043;0,12355
712,5685;0,122668
713,5328;0,121761
714,4970;0,120871
715,4612;0,120067
716,4255;0,11931
717,3897;0,118607
718,3539;0,117893
719,3182;0,117085
720,2824;0,116123
721,2466;0,115006
722,2109;0,11379
723,1751;0,112556
724,1393;0,111371
725,1036;0,110269
726,0678;0,109256
727,0320;0,108321
727,9963;0,107442
728,9605;0,106597
729,9247;0,105761
730,8890;0,104922
731,8532;0,104084
732,8174;0,103265
733,7817;0,102488
734,7459;0,101772
735,7101;0,101115
736,6744;0,100506
737,6386;0,0999285
738,6028;0,0993716
739,5671;0,0988347
740,5313;0,098322
741,4955;0,0978361
742,4598;0,097375
743,4240;0,0969319
744,3882;0,0964983
745,3525;0,0960642
746,3167;0,0956172
747,2809;0,0951439
748,2452;0,0946338
749,2094;0,0940861
750,1736;0,0935138
751,1379;0,0929411
752,1021;0,0923924
753,0663;0,0918806
754,0306;0,0914015
754,9948;0,0909383
755,9590;0,0904734
756,9233;0,0899991
757,8875;0,0895208
758,8517;0,0890509
759,8160;0,0886008
760,7802;0,0881765
761,7444;0,0877808
762,7087;0,0874165
763,6729;0,0870859
764,6371;0,0867853
765,6014;0,0865001
766,5656;0,0862066
767,5298;0,0858817
768,4941;0,0855166
769,4583;0,0851224
770,4225;0,0847252
771,3868;0,0843521
772,3510;0,0840186
773,3152;0,0837255
774,2795;0,0834638
775,2437;0,0832243
776,2079;0,0830022
777,1722;0,0827951
778,1364;0,0825969
779,1006;0,0823944
780,0649;0,0821684
781,0291;0,0818997
781,9933;0,0815752
782,9576;0,0811915
783,9218;0,0807555
784,8860;0,0802829
785,8503;0,079797
786,8145;0,0793258
787,7787;0,0788972
788,7430;0,0785327
789,7072;0,0782398
790,6714;0,0780101
791,6357;0,0778219
792,5999;0,0776479
793,5641;0,0774641
794,5284;0,0772559
795,4926;0,0770207
796,4568;0,0767655
797,4211;0,0765041
798,3853;0,0762525
799,3495;0,0760251
800,3138;0,0758295
801,2780;0,0756643
802,2422;0,0755174
803,2065;0,0753699
804,1707;0,0752028
805,1349;0,075005
806,0992;0,0747794
807,0634;0,0745439
808,0276;0,0743252
808,9919;0,0741488
809,9561;0,0740275
810,9203;0,0739557
811,8846;0,0739111
812,8488;0,0738648
813,8130;0,0737943
814,7773;0,0736939
815,7415;0,0735769
816,7057;0,0734686
817,6700;0,0733938
818,6342;0,0733654
819,5984;0,0733787
820,5627;0,0734133
821,5269;0,0734407
822,4911;0,0734353
823,4554;0,0733814
824,4196;0,0732763
825,3839;0,0731276
826,3481;0,0729473
827,3123;0,072748
828,2766;0,0725398
829,2408;0,0723316
830,2050;0,0721311
831,1693;0,0719436
832,1335;0,0717682
833,0977;0,0715961
834,0620;0,0714112
835,0262;0,0711969
835,9904;0,0709437
836,9547;0,0706541
837,9189;0,0703421
838,8831;0,0700286
839,8474;0,0697348
840,8116;0,0694772
841,7758;0,0692656
842,7401;0,0691005
843,7043;0,0689719
844,6685;0,0688593
845,6328;0,0687362
846,5970;0,0685795
847,5612;0,0683803
848,5255;0,068149
849,4897;0,0679117
850,4539;0,0676984
851,4182;0,0675297
852,3824;0,0674096
853,3466;0,0673282
854,3109;0,0672702
855,2751;0,0672233
856,2393;0,0671812
857,2036;0,0671415
858,1678;0,0671029
859,1320;0,0670654
860,0963;0,0670336
861,0605;0,0670192
862,0247;0,0670398
862,9890;0,0671115
863,9532;0,0672421
864,9174;0,0674282
865,8817;0,0676589
866,8459;0,0679236
867,8101;0,0682175
868,7744;0,0685405
869,7386;0,0688916
870,7028;0,069263
871,6671;0,0696392
872,6313;0,0700032
873,5955;0,0703452
874,5598;0,0706672
875,5240;0,0709808
876,4882;0,0712997
877,4525;0,0716334
878,4167;0,0719871
879,3809;0,0723679
880,3452;0,0727926
881,3094;0,0732879
882,2736;0,073883
883,2379;0,0745963
884,2021;0,0754266
885,1663;0,0763538
886,1306;0,077348
887,0948;0,0783819
888,0590;0,0794364
889,0233;0,0804982
889,9875;0,0815525
890,9517;0,0825771
891,9160;0,0835422
892,8802;0,0844153
893,8444;0,0851659
894,8087;0,0857679
895,7729;0,0861991
896,7371;0,0864408
897,7014;0,0864791
898,6656;0,0863089
899,6298;0,0859375
900,5941;0,0853867
901,5583;0,0846937
902,5225;0,083909
903,4868;0,0830925
904,4510;0,0823045
905,4152;0,0815952
906,3795;0,0809934
907,3437;0,0805025
908,3079;0,0801063
909,2722;0,0797817
910,2364;0,0795118
911,2007;0,0792935
912,1649;0,0791361
913,1292;0,0790545
914,0934;0,0790607
915,0576;0,0791598
916,0219;0,0793477
916,9861;0,0796116
917,9503;0,0799325
918,9146;0,0802888
919,8788;0,0806622
920,8430;0,0810424
921,8073;0,0814282
922,7715;0,0818234
923,7357;0,0822294
924,7000;0,082641
925,6642;0,0830471
926,6284;0,0834374
927,5927;0,0838092
928,5569;0,0841702
929,5211;0,0845346
930,4854;0,0849167
931,4496;0,0853245
932,4138;0,085759
933,3781;0,0862172
934,3423;0,0866977
935,3065;0,0872061
936,2708;0,0877577
937,2350;0,0883758
938,1992;0,0890871
939,1635;0,0899142
940,1277;0,0908674
941,0919;0,0919406
942,0562;0,0931136
943,0204;0,094361
943,9846;0,0956637
944,9489;0,0970163
945,9131;0,0984274
946,8773;0,099912
947,8416;0,10148
948,8058;0,10313
949,7700;0,104847
950,7343;0,106612
951,6985;0,108406
952,6627;0,110219
953,6270;0,112046
954,5912;0,11389
955,5554;0,115752
956,5197;0,117639
957,4839;0,119561
958,4481;0,121531
959,4124;0,123558
960,3766;0,125643
961,3408;0,127776
962,3051;0,129933
963,2693;0,132092
964,2335;0,134238
965,1978;0,13637
966,1620;0,138503
967,1262;0,140662
968,0905;0,14288
969,0547;0,145194
970,0189;0,147638
970,9832;0,150248
971,9474;0,153048
972,9116;0,156053
973,8759;0,159264
974,8401;0,162675
975,8043;0,166275
976,7686;0,170048
977,7328;0,173967
978,6970;0,177979
979,6613;0,182
980,6255;0,185914
981,5897;0,18959
982,5540;0,192918
983,5182;0,195829
984,4824;0,198317
985,4467;0,200429
986,4109;0,202247
987,3751;0,203857
988,3394;0,205327
989,3036;0,206698
990,2678;0,20798
991,2321;0,209163
992,1963;0,210229
993,1605;0,211168
994,1248;0,211982
995,0890;0,212694
996,0532;0,213338
997,0175;0,213947
997,9817;0,214546
998,9459;0,215145
999,9102;0,215753
1000,8744;0,216389
1001,8386;0,217094
1002,8029;0,217928
1003,7671;0,21895
1004,7313;0,220203
1005,6956;0,221695
1006,6598;0,223405
1007,6240;0,225297
1008,5883;0,22734
1009,5525;0,229515
1010,5167;0,231808
1011,4810;0,234196
1012,4452;0,23664
1013,4094;0,239078
1014,3737;0,241442
1015,3379;0,243676
1016,3021;0,24574
1017,2664;0,247621
1018,2306;0,249321
1019,1948;0,250849
1020,1591;0,252219
1021,1233;0,253453
1022,0875;0,254576
1023,0518;0,255619
1024,0160;0,256609
1024,9802;0,25756
1025,9445;0,258463
1026,9087;0,259289
1027,8729;0,259982
1028,8372;0,260467
1029,8014;0,260648
1030,7656;0,260417
1031,7299;0,259674
1032,6941;0,258345
1033,6583;0,256418
1034,6226;0,253962
1035,5868;0,251124
1036,5510;0,248115
1037,5153;0,245165
1038,4795;0,242484
1039,4437;0,240226
1040,4080;0,238473
1041,3722;0,237236
1042,3364;0,236464
1043,3007;0,236067
1044,2649;0,235937
1045,2291;0,235961
1046,1934;0,236034
1047,1576;0,236069
1048,1218;0,235991
1049,0861;0,235739
1050,0503;0,235257
1051,0145;0,234505
1051,9788;0,233455
1052,9430;0,232105
1053,9072;0,23047
1054,8715;0,228571
1055,8357;0,22641
1056,7999;0,223954
1057,7642;0,221143
1058,7284;0,217911
1059,6926;0,214238
1060,6569;0,210176
1061,6211;0,205861
1062,5853;0,201481
1063,5496;0,197227
1064,5138;0,193239
1065,4780;0,189584
1066,4423;0,18626
1067,4065;0,183222
1068,3707;0,180408
1069,3350;0,177769
1070,2992;0,175262
1071,2634;0,172847
1072,2277;0,17048
1073,1919;0,168108
1074,1561;0,165682
1075,1204;0,163172
1076,0846;0,160578
1077,0488;0,157939
1078,0131;0,15532
1078,9773;0,152802
1079,9415;0,150466
1080,9058;0,148378
1081,8700;0,146578
1082,8342;0,145072
1083,7985;0,143839
1084,7627;0,142839
1085,7269;0,142027
1086,6912;0,141365
1087,6554;0,140831
1088,6196;0,14042
1089,5839;0,140133
1090,5481;0,139971
1091,5123;0,139927
1092,4766;0,139985
1093,4408;0,140125
1094,4050;0,140325
1095,3693;0,140569
1096,3335;0,140842
1097,2977;0,141128
1098,2620;0,141411
1099,2262;0,141671
1100,1904;0,141886
1101,1547;0,142038
1102,1189;0,142107
1103,0831;0,142081
1104,0474;0,141954
1105,0116;0,14173
1105,9758;0,141423
1106,9401;0,141047
1107,9043;0,140601
1108,8685;0,140058
1109,8328;0,139357
1110,7970;0,138419
1111,7612;0,137173
1112,7255;0,13559
1113,6897;0,13371
1114,6539;0,131634
1115,6182;0,129501
1116,5824;0,127449
1117,5466;0,125569
1118,5109;0,12389
1119,4751;0,122375
1120,4393;0,120941
1121,4036;0,119481
1122,3678;0,117896
1123,3320;0,116111
1124,2963;0,114093
1125,2605;0,111854
1126,2247;0,109443
1127,1890;0,106927
1128,1532;0,104376
1129,1174;0,101841
1130,0817;0,0993528
1131,0459;0,0969243
1132,0101;0,0945679
1132,9744;0,0923057
1133,9386;0,0901754
1134,9028;0,0882262
1135,8671;0,0865103
1136,8313;0,0850736
1137,7955;0,0839498
1138,7598;0,0831576
1139,7240;0,0826987
1140,6882;0,0825568
1141,6525;0,0826976
1142,6167;0,0830714
1143,5809;0,083621
1144,5452;0,0842916
1145,5094;0,0850404
1146,4736;0,0858409
1147,4379;0,0866819
1148,4021;0,0875612
1149,3663;0,0884775
1150,3306;0,0894233
1151,2948;0,0903808
1152,2590;0,0913212
1153,2233;0,0922064
1154,1875;0,0929926
1155,1517;0,0936329
1156,1160;0,0940791
1157,0802;0,0942803
1158,0444;0,0941801
1159,0087;0,0937156
1159,9729;0,0928211
1160,9371;0,0914386
1161,9014;0,0895344
1162,8656;0,0871144
1163,8298;0,0842337
1164,7941;0,0809944
1165,7583;0,077532
1166,7225;0,0739963
1167,6868;0,0705298
1168,6510;0,0672498
1169,6152;0,0642369
1170,5795;0,0615315
1171,5437;0,0591385
1172,5079;0,0570389
1173,4722;0,0552038
1174,4364;0,0536046
1175,4006;0,0522187
1176,3649;0,0510269
1177,3291;0,0500097
1178,2933;0,0491445
1179,2576;0,0484071
1180,2218;0,0477761
1181,1860;0,0472367
1182,1503;0,0467822
1183,1145;0,0464118
1184,0787;0,0461273
1185,0430;0,0459312
1186,0072;0,0458263
1186,9714;0,0458162
1187,9357;0,0459054
1188,8999;0,0460973
1189,8641;0,0463925
1190,8284;0,0467865
1191,7926;0,0472694
1192,7568;0,0478269
1193,7211;0,0484432
1194,6853;0,0491032
1195,6495;0,0497943
1196,6138;0,0505062
1197,5780;0,0512288
1198,5422;0,0519513
1199,5065;0,0526793
1200,4707;0,0533638
1201,4349;0,0540144
1202,3992;0,054623
1203,3634;0,055182
1204,3276;0,0556826
1205,2919;0,056116
1206,2561;0,0564786
1207,2203;0,056779
1208,1846;0,0570428
1209,1488;0,0573113
1210,1130;0,0576329
1211,0773;0,0580499
1212,0415;0,0585867
1213,0057;0,0592452
1213,9700;0,0600076
1214,9342;0,0608453
1215,8984;0,0617289
1216,8627;0,0626348
1217,8269;0,0635474
1218,7911;0,0644583
1219,7554;0,065363
1220,7196;0,0662578
1221,6838;0,0671375
1222,6481;0,0679936
1223,6123;0,0688161
1224,5765;0,0695954
1225,5408;0,0703262
1226,5050;0,071009
1227,4692;0,0716488
1228,4335;0,0722513
1229,3977;0,0728184
1230,3619;0,0733456
1231,3262;0,0738226
1232,2904;0,0742361
1233,2546;0,0745753
1234,2189;0,0748353
1235,1831;0,0750193
1236,1473;0,0751376
1237,1116;0,0752046
1238,0758;0,0752345
1239,0400;0,0752375
1240,0043;0,0752167
1240,9685;0,0751687
1241,9327;0,0750852
1242,8970;0,0749569
1243,8612;0,0747762
1244,8254;0,0745398
1245,7897;0,0742498
1246,7539;0,0739126
1247,7181;0,0735383
1248,6824;0,0731384
1249,6466;0,0727239
1250,6108;0,0723045
1251,5751;0,0718882
1252,5393;0,0714821
1253,5035;0,0710928
1254,4678;0,0707258
1255,4320;0,0703827
1256,3962;0,070059
1257,3605;0,0697429
1258,3247;0,0694174
1259,2889;0,0690649
1260,2532;0,0686731
1261,2174;0,0682386
1262,1816;0,067767
1263,1459;0,0672684
1264,1101;0,0667518
1265,0743;0,0662214
1266,0386;0,065676
1267,0028;0,0651122
1267,9670;0,0645285
1268,9313;0,0639284
1269,8955;0,06332
1270,8597;0,0627114
1271,8240;0,0621065
1272,7882;0,0615035
1273,7524;0,0608987
1274,7167;0,0602923
1275,6809;0,059692
1276,6451;0,0591101
1277,6094;0,058556
1278,5736;0,0580283
1279,5378;0,0575138
1280,5021;0,0569942
1281,4663;0,0564572
1282,4305;0,0559052
1283,3948;0,0553548
1284,3590;0,0548308
1285,3232;0,0543571
1286,2875;0,0539515
1287,2517;0,0536235
1288,2159;0,0533753
1289,1802;0,0532032
1290,1444;0,0530999
1291,1086;0,0530575
1292,0729;0,0530725
1293,0371;0,0531481
1294,0013;0,0532933
1294,9656;0,053518
1295,9298;0,0538264
1296,8940;0,0542147
1297,8583;0,0546739
1298,8225;0,0551953
1299,7867;0,0557739
1300,7510;0,0564075
1301,7152;0,0570925
1302,6794;0,0578219
1303,6437;0,0585878
1304,6079;0,0593854
1305,5721;0,0602157
1306,5364;0,061083
1307,5006;0,0619888
1308,4648;0,0629261
1309,4291;0,0638786
1310,3933;0,0648222
1311,3575;0,0657287
1312,3218;0,0665683
1313,2860;0,06731
1314,2502;0,0679225
1315,2145;0,0683738
1316,1787;0,0686354
1317,1429;0,068689
1318,1072;0,0685384
1319,0714;0,0682176
1320,0356;0,0677858
1320,9999;0,0673098
1321,9641;0,0668437
1322,9283;0,0664196
1323,8926;0,0660518
1324,8568;0,0657452
1325,8210;0,0655022
1326,7853;0,0653225
1327,7495;0,0652003
1328,7137;0,0651212
1329,6780;0,0650628
1330,6422;0,0649989
1331,6064;0,0649073
1332,5707;0,0647741
1333,5349;0,0645933
1334,4991;0,0643584
1335,4634;0,0640525
1336,4276;0,0636448
1337,3918;0,0631024
1338,3561;0,0624184
1339,3203;0,0616376
1340,2845;0,0608481
1341,2488;0,0601359
1342,2130;0,0595461
1343,1772;0,0590798
1344,1415;0,058716
1345,1057;0,0584331
1346,0699;0,0582209
1347,0342;0,0580816
1347,9984;0,0580253
1348,9626;0,0580617
1349,9269;0,0581921
1350,8911;0,0584066
1351,8553;0,0586861
1352,8196;0,0590102
1353,7838;0,0593667
1354,7480;0,0597566
1355,7123;0,06019
1356,6765;0,0606748
1357,6407;0,0612057
1358,6050;0,0617615
1359,5692;0,0623092
1360,5334;0,0628135
1361,4977;0,0632517
1362,4619;0,063626
1363,4261;0,0639611
1364,3904;0,0642848
1365,3546;0,0646105
1366,3188;0,0649338
1367,2831;0,065238
1368,2473;0,0655001
1369,2115;0,0656935
1370,1758;0,0657876
1371,1400;0,0657465
1372,1042;0,0655362
1373,0685;0,0651445
1374,0327;0,0646055
1374,9969;0,0639952
1375,9612;0,0633827
1376,9254;0,0627789
1377,8896;0,0621365
1378,8539;0,0613964
1379,8181;0,0605415
1380,7823;0,0596196
1381,7466;0,0587165
1382,7108;0,057895
1383,6750;0,0571525
1384,6393;0,056427
1385,6035;0,0556507
1386,5677;0,054821
1387,5320;0,0540291
1388,4962;0,053398
1389,4604;0,0529875
1390,4247;0,05277
1391,3889;0,0526729
1392,3531;0,0526239
1393,3174;0,0525752
1394,2816;0,0525127
1395,2458;0,0524515
1396,2101;0,0524191
1397,1743;0,0524379
1398,1385;0,052522
1399,1028;0,0526792
1400,0670;0,0529105
1401,0313;0,0532054
1401,9955;0,0535433
1402,9597;0,0539001
1403,9240;0,0542595
1404,8882;0,0546216
1405,8524;0,0550009
1406,8167;0,0554132
1407,7809;0,0558633
1408,7451;0,0563463
1409,7094;0,0568574
1410,6736;0,0574003
1411,6378;0,0579863
1412,6021;0,058625
1413,5663;0,0593128
1414,5305;0,060028
1415,4948;0,0607296
1416,4590;0,0613581
1417,4232;0,0618508
1418,3875;0,0621798
1419,3517;0,0623773
1420,3159;0,0624987
1421,2802;0,0625646
1422,2444;0,0625551
1423,2086;0,0624435
1424,1729;0,062225
1425,1371;0,0619162
1426,1013;0,0615272
1427,0656;0,0610344
1428,0298;0,0603915
1428,9940;0,0595839
1429,9583;0,0586814
1430,9225;0,0578165
1431,8867;0,0570881
1432,8510;0,0564829
1433,8152;0,0558798
1434,7794;0,0551229
1435,7437;0,0541467
1436,7079;0,0530857
1437,6721;0,0522011
1438,6364;0,0516513
1439,6006;0,0514079
1440,5648;0,0513606
1441,5291;0,0514176
1442,4933;0,0515317
1443,4575;0,0516875
1444,4218;0,0518795
1445,3860;0,0520967
1446,3502;0,0523208
1447,3145;0,0525376
1448,2787;0,05275
1449,2429;0,0529781
1450,2072;0,0532466
1451,1714;0,0535683
1452,1356;0,0539348
1453,0999;0,0543033
1454,0641;0,0545744
1455,0283;0,0545747
1455,9926;0,0541258
1456,9568;0,0532979
1457,9210;0,0525216
1458,8853;0,0521314
1459,8495;0,0520806
1460,8137;0,052167
1461,7780;0,0521994
1462,7422;0,0520086
1463,7064;0,0514732
1464,6707;0,0506101
1465,6349;0,0496146
1466,5991;0,0487133
1467,5634;0,0479852
1468,5276;0,0473472
1469,4918;0,0466267
1470,4561;0,0456187
1471,4203;0,0441654
1472,3845;0,0423143
1473,3488;0,0404054
1474,3130;0,0388229
1475,2772;0,0376753
1476,2415;0,0368436
1477,2057;0,0361854
1478,1699;0,0356167
1479,1342;0,0351016
1480,0984;0,0346285
1481,0626;0,0342028
1482,0269;0,0338443
1482,9911;0,0335786
1483,9553;0,0334193
1484,9196;0,0333523
1485,8838;0,033333
1486,8480;0,0333011
1487,8123;0,0332218
1488,7765;0,0331389
1489,7407;0,0331641
1490,7050;0,0333732
1491,6692;0,0337513
1492,6334;0,034243
1493,5977;0,0347997
1494,5619;0,0353851
1495,5261;0,0359735
1496,4904;0,0365595
1497,4546;0,037167
1498,4188;0,0378244
1499,3831;0,03853
1500,3473;0,0392586
1501,3115;0,0399857
1502,2758;0,0406884
1503,2400;0,041327
1504,2042;0,0418164
1505,1685;0,0420094
1506,1327;0,0417752
1507,0969;0,0412361
1508,0612;0,0407639
1509,0254;0,0405358
1509,9896;0,0404712
1510,9539;0,0404627
1511,9181;0,040439
1512,8823;0,0403422
1513,8466;0,0401224
1514,8108;0,0397584
1515,7750;0,0392799
1516,7393;0,038754
1517,7035;0,038233
1518,6677;0,0377139
1519,6320;0,0371582
1520,5962;0,0365595
1521,5604;0,0359876
1522,5247;0,0355455
1523,4889;0,0352862
1524,4531;0,0351926
1525,4174;0,0352209
1526,3816;0,0353402
1527,3458;0,0355384
1528,3101;0,0358059
1529,2743;0,0361223
1530,2385;0,0364553
1531,2028;0,0367727
1532,1670;0,0370654
1533,1312;0,0373648
1534,0955;0,0377237
1535,0597;0,0381685
1536,0239;0,0386769
1536,9882;0,0391808
1537,9524;0,0395591
1538,9166;0,0396412
1539,8809;0,0393253
1540,8451;0,038821
1541,8093;0,0385299
1542,7736;0,0385503
1543,7378;0,038713
1544,7020;0,0388771
1545,6663;0,0389953
1546,6305;0,0390709
1547,5947;0,0391167
1548,5590;0,0391331
1549,5232;0,03911
1550,4874;0,0390458
1551,4517;0,0389682
1552,4159;0,0389297
1553,3801;0,0389732
1554,3444;0,039093
1555,3086;0,0392085
1556,2728;0,0391487
1557,2371;0,0387025
1558,2013;0,0378972
1559,1655;0,0372335
1560,1298;0,0370949
1561,0940;0,0373413
1562,0582;0,0377436
1563,0225;0,0381952
1563,9867;0,038654
1564,9509;0,0390858
1565,9152;0,039453
1566,8794;0,0397345
1567,8436;0,0399611
1568,8079;0,0402248
1569,7721;0,0406175
1570,7363;0,041152
1571,7006;0,0417654
1572,6648;0,0423781
1573,6290;0,042927
1574,5933;0,0433776
1575,5575;0,0437493
1576,5217;0,0441261
1577,4860;0,0445902
1578,4502;0,0451501
1579,4144;0,0457678
1580,3787;0,046408
1581,3429;0,047047
1582,3071;0,0476691
1583,2714;0,0482705
1584,2356;0,0488637
1585,1998;0,0494702
1586,1641;0,0501059
1587,1283;0,0507683
1588,0925;0,0514347
1589,0568;0,0520696
1590,0210;0,0526341
1590,9852;0,0530935
1591,9495;0,0534197
1592,9137;0,0535951
1593,8779;0,0536191
1594,8422;0,0535143
1595,8064;0,0533202
1596,7706;0,0530772
1597,7349;0,0528119
1598,6991;0,0525352
1599,6633;0,0522509
1600,6276;0,0519665
1601,5918;0,0516985
1602,5560;0,0514683
1603,5203;0,0512907
1604,4845;0,0511637
1605,4487;0,0510666
1606,4130;0,0509707
1607,3772;0,0508602
1608,3414;0,0507525
1609,3057;0,0506973
1610,2699;0,0507438
1611,2341;0,0509018
1612,1984;0,0511307
1613,1626;0,0513539
1614,1268;0,0514864
1615,0911;0,051486
1616,0553;0,0514192
1617,0195;0,0514417
1617,9838;0,0516509
1618,9480;0,0520085
1619,9122;0,0524143
1620,8765;0,0527821
1621,8407;0,0530641
1622,8049;0,0532622
1623,7692;0,0534235
1624,7334;0,0536021
1625,6976;0,0538178
1626,6619;0,0540601
1627,6261;0,0543206
1628,5903;0,0546102
1629,5546;0,0549475
1630,5188;0,0553339
1631,4830;0,0557348
1632,4473;0,0560691
1633,4115;0,056212
1634,3757;0,0560513
1635,3400;0,0556399
1636,3042;0,0552619
1637,2684;0,0551635
1638,2327;0,0553306
1639,1969;0,0556293
1640,1611;0,0559635
1641,1254;0,0562914
1642,0896;0,0565858
1643,0538;0,0567937
1644,0181;0,0568155
1644,9823;0,0565479
1645,9465;0,0560251
1646,9108;0,0555096
1647,8750;0,0552818
1648,8392;0,0553777
1649,8035;0,0556129
1650,7677;0,0556792
1651,7319;0,0551891
1652,6962;0,0539419
1653,6604;0,0524311
1654,6246;0,0514314
1655,5889;0,0510411
1656,5531;0,0509443
1657,5173;0,0508917
1658,4816;0,050741
1659,4458;0,0503878
1660,4100;0,0497597
1661,3743;0,0488806
1662,3385;0,0479216
1663,3027;0,0471072
1664,2670;0,0465434
1665,2312;0,0461685
1666,1954;0,045818
1667,1597;0,0452997
1668,1239;0,0444794
1669,0881;0,0434012
1670,0524;0,0423159
1671,0166;0,0414737
1671,9808;0,0409023
1672,9451;0,0404422
1673,9093;0,0399138
1674,8735;0,0392469
1675,8378;0,0385243
1676,8020;0,0379083
1677,7662;0,037504
1678,7305;0,0372992
1679,6947;0,0371916
1680,6589;0,0370129
1681,6232;0,0365377
1682,5874;0,0355701
1683,5516;0,0341976
1684,5159;0,0328892
1685,4801;0,0320284
1686,4443;0,0315749
1687,4086;0,0313094
1688,3728;0,0310809
1689,3370;0,030846
1690,3013;0,0306244
1691,2655;0,0304447
1692,2297;0,0303043
1693,1940;0,0301582
1694,1582;0,0299391
1695,1224;0,0295965
1696,0867;0,0291326
1697,0509;0,028604
1698,0151;0,0280832
1698,9794;0,0276218
1699,9436;0,027251
1700,9078;0,0269925
1701,8721;0,0268523
1702,8363;0,0268133
1703,8005;0,0268429
1704,7648;0,0269118
1705,7290;0,0270117
1706,6932;0,0271602
1707,6575;0,0273821
1708,6217;0,0276867
1709,5859;0,0280633
1710,5502;0,0284908
1711,5144;0,0289445
1712,4786;0,0293921
1713,4429;0,0297859
1714,4071;0,030062
1715,3713;0,0301701
1716,3356;0,0301462
1717,2998;0,0301418
1718,2640;0,0302979
1719,2283;0,0306223
1720,1925;0,0310435
1721,1567;0,0314961
1722,1210;0,0319388
1723,0852;0,0323466
1724,0494;0,0327089
1725,0137;0,0330324
1725,9779;0,0333385
1726,9421;0,0336526
1727,9064;0,0339881
1728,8706;0,0343326
1729,8348;0,0346351
1730,7991;0,0347996
1731,7633;0,0347097
1732,7275;0,0343184
1733,6918;0,033755
1734,6560;0,0332579
1735,6202;0,0329533
1736,5845;0,0327896
1737,5487;0,0326415
1738,5129;0,0323996
1739,4772;0,0320119
1740,4414;0,0315021
1741,4056;0,0309502
1742,3699;0,0304293
1743,3341;0,0299587
1744,2983;0,0295125
1745,2626;0,0290519
1746,2268;0,0285382
1747,1910;0,0279271
1748,1553;0,0271764
1749,1195;0,0262906
1750,0837;0,0253605
1751,0480;0,0245207
1752,0122;0,0238507
1752,9764;0,023337
1753,9407;0,0229123
1754,9049;0,0225099
1755,8691;0,0220978
1756,8334;0,0216828
1757,7976;0,0212845
1758,7618;0,0208988
1759,7261;0,0204914
1760,6903;0,0200324
1761,6545;0,0195428
1762,6188;0,0190966
1763,5830;0,0187689
1764,5472;0,0185823
1765,5115;0,0184992
1766,4757;0,0184493
1767,4399;0,0183602
1768,4042;0,018176
1769,3684;0,0178665
1770,3326;0,01744
1771,2969;0,0169596
1772,2611;0,0165381
1773,2253;0,0162773
1774,1896;0,0162011
1775,1538;0,0162581
1776,1180;0,01637
1777,0823;0,0164686
1778,0465;0,01651
1779,0107;0,0164841
1779,9750;0,0164139
1780,9392;0,0163373
1781,9034;0,0162777
1782,8677;0,0162353
1783,8319;0,0162038
1784,7961;0,0161909
1785,7604;0,0162186
1786,7246;0,0163024
1787,6888;0,0164289
1788,6531;0,0165479
1789,6173;0,0165843
1790,5815;0,0164751
1791,5458;0,0162296
1792,5100;0,0159546
1793,4742;0,0157794
1794,4385;0,0157516
1795,4027;0,0158307
1796,3669;0,0159462
1797,3312;0,0160387
1798,2954;0,0160751
1799,2596;0,0160541
1800,2239;0,0160025
1801,1881;0,0159556
1802,1523;0,0159355
1803,1166;0,0159464
1804,0808;0,0159822
1805,0450;0,0160345
1806,0093;0,0160914
1806,9735;0,0161349
1807,9377;0,0161429
1808,9020;0,0160987
1809,8662;0,0160047
1810,8304;0,0158881
1811,7947;0,015789
1812,7589;0,0157384
1813,7231;0,0157442
1814,6874;0,0157922
1815,6516;0,015857
1816,6158;0,0159161
1817,5801;0,0159607
1818,5443;0,0159983
1819,5085;0,0160433
1820,4728;0,0161022
1821,4370;0,0161655
1822,4012;0,0162118
1823,3655;0,0162205
1824,3297;0,0161845
1825,2939;0,0161125
1826,2582;0,0160175
1827,2224;0,015906
1828,1866;0,0157821
1829,1509;0,0156638
1830,1151;0,0155876
1831,0793;0,0155876
1832,0436;0,015666
1833,0078;0,0157894
1833,9720;0,0159085
1834,9363;0,0159808
1835,9005;0,0159921
1836,8647;0,0159682
1837,8290;0,015963
1838,7932;0,0160207
1839,7574;0,0161452
1840,7217;0,0162955
1841,6859;0,0164035
1842,6501;0,0164077
1843,6144;0,0162958
1844,5786;0,0161235
1845,5428;0,0159718
1846,5071;0,0158827
1847,4713;0,0158456
1848,4355;0,0158296
1849,3998;0,015813
1850,3640;0,0157934
1851,3282;0,0157826
1852,2925;0,0157917
1853,2567;0,0158205
1854,2209;0,0158569
1855,1852;0,0158873
1856,1494;0,0159056
1857,1136;0,0159154
1858,0779;0,0159238
1859,0421;0,0159346
1860,0063;0,0159489
1860,9706;0,0159702
1861,9348;0,016007
1862,8990;0,016067
1863,8633;0,0161469
1864,8275;0,016224
1865,7917;0,0162595
1866,7560;0,0162182
1867,7202;0,0161012
1868,6844;0,015962
1869,6487;0,0158738
1870,6129;0,0158731
1871,5771;0,0159432
1872,5414;0,0160388
1873,5056;0,0161152
1874,4698;0,0161441
1875,4341;0,016122
1876,3983;0,0160687
1877,3625;0,0160164
1878,3268;0,0159906
1879,2910;0,0159985
1880,2552;0,0160294
1881,2195;0,0160645
1882,1837;0,0160894
1883,1479;0,0161027
1884,1122;0,0161147
1885,0764;0,0161396
1886,0406;0,0161839
1887,0049;0,0162406
1887,9691;0,0162904
1888,9333;0,0163122
1889,8976;0,0162966
1890,8618;0,016253
1891,8260;0,0162039
1892,7903;0,0161727
1893,7545;0,0161734
1894,7188;0,0162064
1895,6830;0,016259
1896,6472;0,0163102
1897,6115;0,0163377
1898,5757;0,0163266
1899,5399;0,016274
1900,5042;0,0161906
1901,4684;0,0160984
1902,4326;0,0160237
1903,3969;0,0159865
1904,3611;0,0159924
1905,3253;0,0160318
1906,2896;0,0160863
1907,2538;0,0161383
1908,2180;0,0161772
1909,1823;0,0162016
1910,1465;0,0162157
1911,1107;0,0162231
1912,0750;0,0162225
1913,0392;0,0162088
1914,0034;0,0161765
1914,9677;0,016127
1915,9319;0,016075
1916,8961;0,0160484
1917,8604;0,0160738
1918,8246;0,0161547
1919,7888;0,0162625
1920,7531;0,0163506
1921,7173;0,0163795
1922,6815;0,0163388
1923,6458;0,0162535
1924,6100;0,0161704
1925,5742;0,0161302
1926,5385;0,0161453
1927,5027;0,016199
1928,4669;0,0162596
1929,4312;0,0162978
1930,3954;0,016299
1931,3596;0,0162662
1932,3239;0,0162147
1933,2881;0,0161661
1934,2523;0,016142
1935,2166;0,0161588
1936,1808;0,0162216
1937,1450;0,0163206
1938,1093;0,0164322
1939,0735;0,0165265
1940,0377;0,0165757
1941,0020;0,0165633
1941,9662;0,0164899
1942,9304;0,0163729
1943,8947;0,0162398
1944,8589;0,0161195
1945,8231;0,0160378
1946,7874;0,0160143
1947,7516;0,0160592
1948,7158;0,0161668
1949,6801;0,0163121
1950,6443;0,0164547
1951,6085;0,0165521
1952,5728;0,016575
1953,5370;0,0165191
1954,5012;0,0164066
1955,4655;0,0162779
1956,4297;0,0161757
1957,3939;0,016129
1958,3582;0,0161423
1959,3224;0,0161965
1960,2866;0,01626
1961,2509;0,0163051
1962,2151;0,0163212
1963,1793;0,0163138
1964,1436;0,0162944
1965,1078;0,0162679
1966,0720;0,016227
1967,0363;0,0161574
1968,0005;0,0160499
1968,9647;0,0159124
1969,9290;0,0157727
1970,8932;0,015673
1971,8574;0,0156585
1972,8217;0,0157622
1973,7859;0,0159853
1974,7501;0,0162823
1975,7144;0,0165627
1976,6786;0,0167216
1977,6428;0,0166926
1978,6071;0,0164868
1979,5713;0,0161868
1980,5355;0,0158998
1981,4998;0,0157067
1982,4640;0,0156381
1983,4282;0,015682
1984,3925;0,0158067
1985,3567;0,015984
1986,3209;0,0161968
1987,2852;0,0164306
1988,2494;0,016657
1989,2136;0,0168294
1990,1779;0,0168994
1991,1421;0,0168491
1992,1063;0,0167144
1993,0706;0,016575
1994,0348;0,0165115
1994,9990;0,0165631
1995,9633;0,0167145
1996,9275;0,0169143
1997,8917;0,017108
1998,8560;0,0172631
1999,8202;0,0173733
2000,7844;0,0174431
2001,7487;0,0174701
2002,7129;0,0174438
2003,6771;0,0173634
2004,6414;0,0172583
2005,6056;0,0171854
2006,5698;0,0171963
2007,5341;0,0172935
2008,4983;0,0174152
2009,4625;0,0174721
2010,4268;0,0174103
2011,3910;0,0172518
2012,3552;0,0170832
2013,3195;0,0170023
2014,2837;0,0170587
2015,2479;0,0172243
2016,2122;0,0174146
2017,1764;0,0175452
2018,1406;0,0175854
2019,1049;0,017568
2020,0691;0,0175537
2021,0333;0,0175853
2021,9976;0,017665
2022,9618;0,0177649
2023,9260;0,0178513
2024,8903;0,017902
2025,8545;0,0179057
2026,8187;0,0178546
2027,7830;0,0177461
2028,7472;0,0175971
2029,7114;0,0174567
2030,6757;0,0173944
2031,6399;0,0174629
2032,6041;0,0176573
2033,5684;0,017905
2034,5326;0,018103
2035,4968;0,0181809
2036,4611;0,0181432
2037,4253;0,0180604
2038,3895;0,0180194
2039,3538;0,0180695
2040,3180;0,0181947
2041,2822;0,0183285
2042,2465;0,0183974
2043,2107;0,0183665
2044,1749;0,0182567
2045,1392;0,0181291
2046,1034;0,0180485
2047,0676;0,0180492
2048,0320;0,018122
2048,9961;0,0182291
2049,9604;0,0183319
2050,9246;0,0184107
2051,8889;0,0184642
2052,8530;0,0184969
2053,8174;0,0185085
2054,7815;0,018494
2055,7458;0,0184512
2056,7100;0,0183887
2057,6743;0,018326
2058,6384;0,0182836
2059,6028;0,0182725
2060,5669;0,0182909
2061,5313;0,0183298
2062,4954;0,0183818
2063,4597;0,0184451
2064,4238;0,0185199
2065,3882;0,0186012
2066,3523;0,0186761
2067,3167;0,018729
2068,2808;0,0187497
2069,2451;0,0187376
2070,2092;0,0186988
2071,1736;0,01864
2072,1377;0,0185639
2073,1021;0,0184718
2074,0662;0,018369
2075,0305;0,0182695
2075,9946;0,0181938
2076,9590;0,0181602
2077,9231;0,0181759
2078,8875;0,0182324
2079,8516;0,018309
2080,8159;0,0183815
2081,7800;0,0184311
2082,7444;0,0184489
2083,7085;0,0184355
2084,6729;0,0183976
2085,6370;0,0183458
2086,6013;0,0182935
2087,5654;0,0182574
2088,5298;0,0182539
2089,4939;0,018293
2090,4583;0,0183704
2091,4224;0,0184668
2092,3867;0,018555
2093,3508;0,0186137
2094,3152;0,0186407
2095,2793;0,0186545
2096,2437;0,0186833
2097,2078;0,0187456
2098,1721;0,0188363
2099,1362;0,0189272
2100,1006;0,0189805
2101,0647;0,0189686
2102,0291;0,0188848
2102,9932;0,0187487
2103,9575;0,0185987
2104,9216;0,0184798
2105,8860;0,0184282
2106,8501;0,0184587
2107,8145;0,0185582
2108,7786;0,0186902
2109,7429;0,0188093
2110,7070;0,0188811
2111,6714;0,0188959
2112,6355;0,0188691
2113,5999;0,0188272
2114,5640;0,018791
2115,5283;0,018765
2116,4924;0,0187417
2117,4568;0,0187151
2118,4209;0,0186931
2119,3853;0,0186961
2120,3494;0,0187436
2121,3137;0,0188358
2122,2778;0,0189467
2123,2422;0,0190345
2124,2063;0,0190658
2125,1707;0,0190375
2126,1348;0,0189805
2127,0991;0,0189422
2128,0632;0,0189567
2129,0276;0,0190229
2129,9917;0,0191046
2130,9561;0,0191539
2131,9202;0,0191448
2132,8845;0,0190967
2133,8486;0,0190702
2134,8130;0,0191345
2135,7771;0,0193226
2136,7415;0,0196037
2137,7056;0,0198922
2138,6699;0,0200894
2139,6340;0,0201316
2140,5984;0,0200211
2141,5625;0,0198264
2142,5269;0,0196528
2143,4910;0,0195981
2144,4553;0,0197099
2145,4194;0,0199644
2146,3838;0,0202742
2147,3479;0,0205238
2148,3123;0,0206191
2149,2764;0,0205293
2150,2407;0,0203039
2151,2048;0,0200562
2152,1692;0,0199182
2153,1333;0,0199841
2154,0977;0,0202646
2155,0618;0,0206711
2156,0261;0,0210421
2156,9902;0,0212156
2157,9546;0,0211284
2158,9187;0,0208762
2159,8831;0,0206574
2160,8472;0,0206263
2161,8115;0,0207867
2162,7756;0,0210095
2163,7400;0,0211326
2164,7041;0,0210633
2165,6685;0,0208272
2166,6326;0,0205423
2167,5969;0,0203412
2168,5610;0,0202942
2169,5254;0,020382
2170,4895;0,0205252
2171,4539;0,0206387
2172,4180;0,0206746
2173,3823;0,0206314
2174,3464;0,0205368
2175,3108;0,020423
2176,2749;0,0203139
2177,2393;0,0202248
2178,2034;0,0201647
2179,1677;0,020133
2180,1318;0,020116
2181,0962;0,020091
2182,0603;0,0200418
2183,0247;0,0199723
2183,9888;0,0199036
2184,9531;0,0198549
2185,9172;0,0198246
2186,8816;0,0197906
2187,8457;0,0197301
2188,8101;0,0196413
2189,7742;0,0195467
2190,7385;0,0194748
2191,7026;0,0194359
2192,6670;0,0194132
2193,6311;0,0193788
2194,5955;0,0193194
2195,5596;0,0192487
2196,5239;0,0191973
2197,4880;0,0191876
2198,4524;0,019219
2199,4165;0,0192736
2200,3809;0,0193373
2201,3450;0,0194131
2202,3093;0,0195137
2203,2734;0,019639
2204,2378;0,0197613
2205,2019;0,0198349
2206,1663;0,0198264
2207,1304;0,0197418
2208,0947;0,0196281
2209,0588;0,019546
2210,0232;0,0195335
2210,9873;0,0195862
2211,9517;0,0196658
2212,9158;0,019729
2213,8801;0,0197523
2214,8442;0,0197382
2215,8086;0,0197035
2216,7727;0,0196625
2217,7371;0,0196202
2218,7012;0,0195766
2219,6655;0,019535
2220,6296;0,0195042
2221,5940;0,0194929
2222,5581;0,0195015
2223,5225;0,0195177
2224,4866;0,0195205
2225,4509;0,0194889
2226,4150;0,0194126
2227,3794;0,0192989
2228,3435;0,0191735
2229,3079;0,0190729
2230,2720;0,0190292
2231,2363;0,019054
2232,2004;0,0191305
2233,1648;0,0192203
2234,1289;0,0192833
2235,0933;0,0193018
2236,0574;0,0192909
2237,0217;0,0192895
2237,9858;0,0193338
2238,9502;0,0194321
2239,9143;0,0195552
2240,8787;0,0196502
2241,8428;0,0196693
2242,8071;0,0195955
2243,7712;0,0194506
2244,7356;0,0192815
2245,6997;0,0191358
2246,6641;0,0190415
2247,6282;0,019003
2248,5925;0,0190114
2249,5566;0,0190583
2250,5210;0,0191416
2251,4851;0,0192568
2252,4495;0,0193856
2253,4136;0,0194913
2254,3779;0,0195319
2255,3420;0,0194834
2256,3064;0,0193586
2257,2705;0,019205
2258,2349;0,019082
2259,1990;0,0190296
2260,1633;0,0190499
2261,1274;0,0191097
2262,0918;0,0191632
2263,0559;0,0191787
2264,0203;0,0191537
2264,9844;0,0191107
2265,9487;0,0190792
2266,9128;0,0190764
2267,8772;0,0190989
2268,8413;0,019129
2269,8057;0,0191488
2270,7698;0,0191517
2271,7341;0,0191454
2272,6982;0,0191442
2273,6626;0,0191577
2274,6267;0,0191843
2275,5911;0,0192132
2276,5552;0,0192328
2277,5195;0,0192407
2278,4836;0,0192458
2279,4480;0,0192628
2280,4121;0,0193025
2281,3765;0,0193653
2282,3406;0,0194419
2283,3049;0,0195195
2284,2690;0,0195884
2285,2334;0,0196453
2286,1975;0,0196917
2287,1619;0,019731
2288,1260;0,0197674
2289,0903;0,0198058
2290,0544;0,0198524
2291,0188;0,0199137
2291,9829;0,0199934
2292,9473;0,0200911
2293,9114;0,0202029
2294,8757;0,0203244
2295,8398;0,0204524
2296,8042;0,0205845
2297,7683;0,0207154
2298,7327;0,020835
2299,6968;0,0209297
2300,6611;0,0209882
2301,6252;0,0210095
2302,5896;0,021007
2303,5537;0,0210065
2304,5181;0,0210387
2305,4822;0,0211266
2306,4465;0,0212737
2307,4106;0,0214581
2308,3750;0,0216355
2309,3391;0,021755
2310,3035;0,0217805
2311,2676;0,0217096
2312,2319;0,0215753
2313,1960;0,0214306
2314,1604;0,0213216
2315,1245;0,0212684
2316,0889;0,0212627
2317,0530;0,0212815
2318,0173;0,0213045
2318,9814;0,0213251
2319,9458;0,0213506
2320,9099;0,0213924
2321,8743;0,0214536
2322,8384;0,0215221
2323,8027;0,0215715
2324,7668;0,0215698
2325,7312;0,0214905
2326,6953;0,0213258
2327,6597;0,0210947
2328,6238;0,0208445
2329,5881;0,0206374
2330,5522;0,0205246
2331,5166;0,0205172
2332,4807;0,0205766
2333,4451;0,0206316
2334,4092;0,0206135
2335,3735;0,0204906
2336,3376;0,0202865
2337,3020;0,0200737
2338,2661;0,0199388
2339,2305;0,0199322
2340,1946;0,0200312
2341,1589;0,0201429
2342,1230;0,0201579
2343,0874;0,0200449
2344,0515;0,0199211
2345,0159;0,0199842
2345,9800;0,0203331
2346,9443;0,0208871
2347,9084;0,0214675
2348,8728;0,0219122
2349,8369;0,0221373
2350,8013;0,0221462
2351,7654;0,0220093
2352,7297;0,0218245
2353,6938;0,0216735
2354,6582;0,021598
2355,6223;0,0216039
2356,5867;0,0216709
2357,5508;0,021757
2358,5151;0,0218053
2359,4792;0,0217606
2360,4436;0,02159
2361,4077;0,0212934
2362,3721;0,0209049
2363,3362;0,0204881
2364,3005;0,0201213
2365,2646;0,0198677
2366,2290;0,0197453
2367,1931;0,0197206
2368,1575;0,019734
2369,1216;0,0197339
2370,0859;0,0196997
2371,0500;0,0196408
2372,0144;0,0195823
2372,9785;0,0195489
2373,9429;0,0195556
2374,9070;0,0196061
2375,8713;0,0196951
2376,8354;0,019811
2377,7998;0,0199392
2378,7639;0,0200637
2379,7283;0,020169
2380,6924;0,020242
2381,6567;0,0202745
2382,6208;0,0202656
2383,5852;0,0202227
2384,5493;0,0201594
2385,5137;0,0200919
2386,4778;0,0200336
2387,4421;0,019992
2388,4063;0,0199684
2389,3706;0,0199599
2390,3347;0,0199627
2391,2991;0,0199729
2392,2632;0,0199874
2393,2275;0,0200025
2394,1917;0,0200146
2395,1560;0,0200225
2396,1201;0,0200285
2397,0845;0,0200386
2398,0486;0,0200596
2399,0129;0,0200936
2399,9771;0,0201355
2400,9414;0,0201751
2401,9055;0,0202015
2402,8699;0,0202092
2403,8340;0,0202015
2404,7983;0,0201886
2405,7625;0,0201831
2406,7268;0,020193
2407,6909;0,020219
2408,6553;0,0202545
2409,6194;0,0202895
2410,5837;0,0203157
2411,5479;0,02033
2412,5122;0,0203348
2413,4763;0,0203361
2414,4407;0,0203413
2415,4048;0,0203556
2416,3691;0,0203816
2417,3333;0,0204184
2418,2976;0,0204621
2419,2617;0,0205068
2420,2261;0,020546
2421,1902;0,020574
2422,1545;0,0205889
2423,1187;0,0205928
2424,0830;0,020591
2425,0471;0,0205891
2426,0115;0,0205911
2426,9756;0,0205982
2427,9399;0,0206108
2428,9041;0,0206294
2429,8684;0,0206555
2430,8325;0,0206893
2431,7969;0,0207275
2432,7610;0,0207626
2433,7253;0,0207867
2434,6895;0,0207962
2435,6538;0,0207946
2436,6179;0,0207912
2437,5823;0,0207955
2438,5464;0,0208117
2439,5107;0,0208371
2440,4749;0,0208659
2441,4392;0,020894
2442,4033;0,0209221
2443,3677;0,020953
2444,3318;0,0209872
2445,2961;0,0210193
2446,2603;0,0210405
2447,2246;0,0210439
2448,1887;0,0210299
2449,1531;0,0210074
2450,1172;0,0209887
2451,0815;0,0209832
2452,0457;0,0209941
2453,0100;0,0210184
2453,9741;0,0210515
2454,9385;0,0210902
2455,9026;0,0211322
2456,8669;0,0211736
2457,8311;0,021208
2458,7954;0,021228
2459,7595;0,0212305
2460,7239;0,0212209
2461,6880;0,0212128
2462,6523;0,0212218
2463,6165;0,0212576
2464,5808;0,0213192
2465,5449;0,0213951
2466,5093;0,021469
2467,4734;0,0215273
2468,4377;0,0215625
2469,4019;0,0215739
2470,3662;0,021565
2471,3303;0,0215417
2472,2947;0,0215119
2473,2588;0,0214851
2474,2231;0,0214718
2475,1873;0,0214797
2476,1516;0,0215104
2477,1157;0,0215578
2478,0801;0,0216096
2479,0442;0,021652
2480,0085;0,0216755
2480,9727;0,0216785
2481,9370;0,021668
2482,9011;0,0216568
2483,8655;0,0216578
2484,8296;0,0216783
2485,7939;0,0217162
2486,7581;0,0217603
2487,7224;0,0217972
2488,6865;0,0218185
2489,6509;0,021827
2490,6150;0,0218345
2491,5793;0,0218538
2492,5435;0,021889
2493,5078;0,0219317
2494,4719;0,0219659
2495,4363;0,0219789
2496,4004;0,0219709
2497,3647;0,021955
2498,3289;0,0219497
2499,2932;0,0219663
2500,2573;0,0220027
2501,2217;0,0220454
2502,1858;0,0220783
2503,1501;0,0220924
2504,1143;0,0220894
2505,0786;0,0220784
2506,0427;0,0220695
2507,0071;0,0220687
2507,9712;0,0220765
2508,9355;0,0220897
2509,8997;0,0221047
2510,8640;0,0221195
2511,8281;0,0221346
2512,7925;0,0221526
2513,7566;0,0221772
2514,7209;0,0222108
2515,6851;0,0222518
2516,6494;0,0222929
2517,6135;0,0223225
2518,5779;0,0223302
2519,5420;0,0223127
2520,5063;0,0222775
2521,4705;0,0222397
2522,4348;0,0222153
2523,3989;0,0222127
2524,3633;0,0222302
2525,3274;0,0222592
2526,2917;0,0222903
2527,2559;0,0223189
2528,2202;0,0223436
2529,1843;0,0223628
2530,1487;0,0223713
2531,1128;0,0223622
2532,0771;0,0223331
2533,0413;0,0222917
2534,0056;0,0222554
2534,9697;0,0222437
2535,9341;0,0222682
2536,8982;0,0223262
2537,8625;0,0224019
2538,8267;0,022474
2539,7910;0,0225253
2540,7551;0,0225481
2541,7195;0,0225457
2542,6836;0,0225278
2543,6479;0,0225065
2544,6121;0,0224907
2545,5764;0,022484
2546,5405;0,0224843
2547,5049;0,0224867
2548,4690;0,0224869
2549,4333;0,0224854
2550,3975;0,0224869
2551,3618;0,0224972
2552,3259;0,0225181
2553,2903;0,0225457
2554,2544;0,0225717
2555,2188;0,0225897
2556,1829;0,0225988
2557,1472;0,0226038
2558,1113;0,0226115
2559,0757;0,0226252
2560,0398;0,0226426
2561,0042;0,0226576
2561,9683;0,0226633
2562,9326;0,0226566
2563,8967;0,0226383
2564,8611;0,0226128
2565,8252;0,0225863
2566,7896;0,0225649
2567,7537;0,0225535
2568,7180;0,0225545
2569,6821;0,0225669
2570,6465;0,0225863
2571,6106;0,0226069
2572,5750;0,0226237
2573,5391;0,022634
2574,5034;0,0226389
2575,4675;0,0226418
2576,4319;0,0226475
2577,3960;0,0226598
2578,3604;0,0226808
2579,3245;0,0227092
2580,2888;0,0227417
2581,2529;0,0227742
2582,2173;0,0228044
2583,1814;0,0228324
2584,1458;0,0228597
2585,1099;0,0228869
2586,0742;0,0229115
2587,0383;0,0229293
2588,0027;0,022937
2588,9668;0,0229357
2589,9312;0,0229302
2590,8953;0,0229265
2591,8596;0,0229282
2592,8237;0,0229347
2593,7881;0,0229435
2594,7522;0,0229533
2595,7166;0,0229664
2596,6807;0,0229874
2597,6450;0,0230194
2598,6091;0,0230613
2599,5735;0,0231071
2600,5376;0,0231492
2601,5020;0,0231824
2602,4661;0,0232061
2603,4304;0,0232237
2604,3945;0,0232396
2605,3589;0,0232559
2606,3230;0,0232706
2607,2874;0,0232798
2608,2515;0,0232806
2609,2158;0,0232741
2610,1799;0,0232661
2611,1443;0,0232635
2612,1084;0,0232716
2613,0728;0,0232912
2614,0369;0,0233196
2615,0012;0,0233539
2615,9653;0,0233928
2616,9297;0,0234367
2617,8938;0,0234846
2618,8582;0,0235325
2619,8223;0,0235733
2620,7866;0,023601
2621,7507;0,0236141
2622,7151;0,0236163
2623,6792;0,0236147
2624,6436;0,0236154
2625,6077;0,0236217
2626,5720;0,0236349
2627,5361;0,0236559
2628,5005;0,0236855
2629,4646;0,0237226
2630,4290;0,0237625
2631,3931;0,0237979
2632,3574;0,0238228
2633,3215;0,0238366
2634,2859;0,0238451
2635,2500;0,0238569
2636,2144;0,023878
2637,1785;0,0239082
2638,1428;0,0239416
2639,1069;0,0239717
2640,0713;0,0239951
2641,0354;0,0240139
2641,9998;0,0240326
2642,9639;0,024055
2643,9282;0,0240816
2644,8923;0,02411
2645,8567;0,0241374
2646,8208;0,0241627
2647,7852;0,0241872
2648,7493;0,0242136
2649,7136;0,0242442
2650,6777;0,024279
2651,6421;0,0243158
2652,6062;0,0243505
2653,5706;0,0243794
2654,5347;0,024401
2655,4990;0,0244171
2656,4631;0,0244326
2657,4275;0,0244532
2658,3916;0,0244831
2659,3560;0,0245223
2660,3201;0,0245662
2661,2844;0,0246073
2662,2485;0,0246388
2663,2129;0,0246578
2664,1770;0,0246672
2665,1414;0,0246738
2666,1055;0,0246854
2667,0698;0,0247057
2668,0339;0,0247329
2668,9983;0,0247607
2669,9624;0,0247826
2670,9268;0,0247959
2671,8909;0,0248037
2672,8552;0,0248131
2673,8193;0,024831
2674,7837;0,0248603
2675,7478;0,0248993
2676,7122;0,0249432
2677,6763;0,0249876
2678,6406;0,0250299
2679,6047;0,0250699
2680,5691;0,0251073
2681,5332;0,0251412
2682,4976;0,0251696
2683,4617;0,0251919
2684,4260;0,0252102
2685,3901;0,0252297
2686,3545;0,0252568
2687,3186;0,0252948
2688,2830;0,0253423
2689,2471;0,0253929
2690,2114;0,0254385
2691,1755;0,0254738
2692,1399;0,0254988
2693,1040;0,0255184
2694,0684;0,0255393
2695,0325;0,0255659
2695,9968;0,0255984
2696,9609;0,0256334
2697,9253;0,0256665
2698,8894;0,0256948
2699,8538;0,0257185
2700,8179;0,0257407
2701,7822;0,0257657
2702,7463;0,025798
2703,7107;0,0258402
2704,6748;0,0258922
2705,6392;0,0259502
2706,6033;0,0260079
2707,5676;0,0260581
2708,5317;0,026096
2709,4961;0,0261207
2710,4602;0,026136
2711,4246;0,0261485
2712,3887;0,0261648
2713,3530;0,0261891
2714,3171;0,0262224
2715,2815;0,0262627
2716,2456;0,0263064
2717,2100;0,0263502
2718,1741;0,0263919
2719,1384;0,0264302
2720,1025;0,026464
2721,0669;0,0264917
2722,0310;0,0265118
2722,9954;0,0265238
2723,9595;0,02653
2724,9238;0,0265361
2725,8879;0,0265497
2726,8523;0,026577
2727,8164;0,0266202
2728,7808;0,0266761
2729,7449;0,0267375
2730,7092;0,026796
2731,6733;0,0268452
2732,6377;0,0268813
2733,6018;0,0269039
2734,5662;0,0269147
2735,5303;0,0269177
2736,4946;0,0269185
2737,4587;0,0269238
2738,4231;0,026939
2739,3872;0,0269665
2740,3516;0,0270046
2741,3157;0,0270476
2742,2800;0,0270889
2743,2441;0,0271232
2744,2085;0,0271479
2745,1726;0,0271638
2746,1370;0,0271734
2747,1011;0,0271803
2748,0654;0,0271884
2749,0295;0,0272006
2749,9939;0,0272194
2750,9580;0,0272457
2751,9224;0,0272792
2752,8865;0,0273184
2753,8508;0,0273612
2754,8149;0,0274053
2755,7793;0,0274486
2756,7434;0,0274897
2757,7078;0,0275279
2758,6719;0,027564
2759,6362;0,0275994
2760,6003;0,0276359
2761,5647;0,0276742
2762,5288;0,0277132
2763,4932;0,0277506
2764,4573;0,0277848
2765,4216;0,0278167
2766,3857;0,0278505
2767,3501;0,0278913
2768,3142;0,0279426
2769,2786;0,0280038
2770,2427;0,0280693
2771,2070;0,0281306
2772,1711;0,0281804
2773,1355;0,0282159
2774,0996;0,0282396
2775,0640;0,0282586
2776,0281;0,0282812
2776,9924;0,0283138
2777,9565;0,0283588
2778,9209;0,0284148
2779,8850;0,0284783
2780,8494;0,0285456
2781,8135;0,028614
2782,7778;0,0286817
2783,7419;0,0287467
2784,7063;0,0288065
2785,6704;0,0288592
2786,6348;0,0289052
2787,5989;0,0289485
2788,5632;0,0289955
2789,5273;0,0290527
2790,4917;0,0291233
2791,4558;0,0292056
2792,4202;0,0292943
2793,3843;0,0293833
2794,3486;0,0294688
2795,3127;0,0295505
2796,2771;0,0296311
2797,2412;0,0297134
2798,2056;0,0297985
2799,1697;0,029885
2800,1340;0,0299698
2801,0981;0,0300506
2802,0625;0,0301282
2803,0266;0,0302066
2803,9910;0,030291
2804,9551;0,0303843
2805,9194;0,0304848
2806,8835;0,0305868
2807,8479;0,0306839
2808,8120;0,0307737
2809,7764;0,0308598
2810,7405;0,0309502
2811,7048;0,0310528
2812,6689;0,031172
2813,6333;0,0313063
2814,5974;0,0314499
2815,5618;0,0315958
2816,5259;0,0317384
2817,4902;0,0318744
2818,4543;0,0320035
2819,4187;0,0321285
2820,3828;0,0322545
2821,3472;0,0323872
2822,3113;0,032531
2823,2756;0,0326867
2824,2397;0,0328517
2825,2041;0,0330225
2826,1682;0,033197
2827,1326;0,0333768
2828,0967;0,033566
2829,0610;0,0337693
2830,0251;0,0339892
2830,9895;0,0342248
2831,9536;0,034472
2832,9180;0,0347253
2833,8821;0,0349798
2834,8464;0,0352342
2835,8105;0,0354934
2836,7749;0,0357692
2837,7390;0,036078
2838,7034;0,0364356
2839,6675;0,0368523
2840,6318;0,0373305
2841,5959;0,0378669
2842,5603;0,0384555
2843,5244;0,0390892
2844,4888;0,0397558
2845,4529;0,0404317
2846,4172;0,0410774
2847,3813;0,0416411
2848,3457;0,0420708
2849,3098;0,0423303
2850,2742;0,0424118
2851,2383;0,0423379
2852,2026;0,0421531
2853,1667;0,0419101
2854,1311;0,0416554
2855,0952;0,0414216
2856,0596;0,0412267
2857,0237;0,0410777
2857,9880;0,040976
2858,9521;0,0409206
2859,9165;0,0409097
2860,8806;0,0409393
2861,8450;0,0410037
2862,8091;0,0410962
2863,7734;0,0412114
2864,7375;0,0413459
2865,7019;0,0414973
2866,6660;0,0416614
2867,6304;0,0418302
2868,5945;0,0419924
2869,5588;0,0421371
2870,5229;0,0422577
2871,4873;0,0423548
2872,4514;0,0424344
2873,4158;0,0425048
2874,3799;0,0425721
2875,3442;0,0426397
2876,3083;0,0427084
2877,2727;0,0427791
2878,2368;0,0428532
2879,2012;0,0429327
2880,1653;0,0430192
2881,1296;0,0431134
2882,0938;0,0432149
2883,0581;0,0433229
2884,0222;0,0434355
2884,9866;0,0435505
2885,9507;0,0436659
2886,9150;0,0437807
2887,8792;0,0438957
2888,8435;0,0440125
2889,8076;0,0441325
2890,7720;0,0442547
2891,7361;0,0443768
2892,7004;0,0444964
2893,6646;0,0446137
2894,6289;0,0447313
2895,5930;0,0448531
2896,5574;0,0449811
2897,5215;0,0451132
2898,4858;0,0452441
2899,4500;0,0453678
2900,4143;0,0454806
2901,3784;0,0455834
2902,3428;0,0456803
2903,3069;0,0457775
2904,2712;0,0458818
2905,2354;0,0460003
2906,1997;0,0461423
2907,1638;0,0463199
2908,1282;0,0465475
2909,0923;0,0468389
2910,0566;0,0472013
2911,0208;0,04763
2911,9851;0,0481038
2912,9492;0,0485858
2913,9136;0,0490278
2914,8777;0,0493804
2915,8420;0,0496038
2916,8062;0,0496767
2917,7705;0,0495997
2918,7346;0,0493921
2919,6990;0,0490839
2920,6631;0,0487067
2921,6274;0,0482872
2922,5916;0,0478449
2923,5559;0,0473938
2924,5200;0,0469442
2925,4844;0,0465053
2926,4485;0,0460846
2927,4128;0,0456872
2928,3770;0,0453156
2929,3413;0,0449694
2930,3054;0,044646
2931,2698;0,044341
2932,2339;0,0440483
2933,1982;0,0437621
2934,1624;0,0434778
2935,1267;0,0431943
2936,0908;0,042914
2937,0552;0,0426411
2938,0193;0,042378
2938,9836;0,0421234
2939,9478;0,0418722
2940,9121;0,0416186
2941,8762;0,0413595
2942,8406;0,0410961
2943,8047;0,0408328
2944,7690;0,0405742
2945,7332;0,0403236
2946,6975;0,040082
2947,6616;0,0398506
2948,6260;0,0396319
2949,5901;0,0394295
2950,5544;0,0392462
2951,5186;0,039081
2952,4829;0,0389283
2953,4470;0,0387795
2954,4114;0,0386266
2955,3755;0,038465
2956,3398;0,0382944
2957,3040;0,0381173
2958,2683;0,0379364
2959,2324;0,0377532
2960,1968;0,0375679
2961,1609;0,0373806
2962,1252;0,0371923
2963,0894;0,0370053
2964,0537;0,0368223
2965,0178;0,036645
2965,9822;0,0364736
2966,9463;0,0363067
2967,9106;0,0361416
2968,8748;0,0359742
2969,8391;0,0358004
2970,8032;0,0356171
2971,7676;0,0354246
2972,7317;0,035228
2973,6960;0,0350364
2974,6602;0,0348596
2975,6245;0,0347031
2976,5886;0,0345652
2977,5530;0,0344386
2978,5171;0,0343147
2979,4814;0,0341897
2980,4456;0,034066
2981,4099;0,0339508
2982,3740;0,0338509
2983,3384;0,033768
2984,3025;0,0336985
2985,2668;0,0336359
2986,2310;0,0335747
2987,1953;0,0335133
2988,1594;0,0334532
2989,1238;0,0333977
2990,0879;0,0333499
2991,0522;0,0333121
2992,0164;0,0332861
2992,9807;0,0332723
2993,9448;0,0332698
2994,9092;0,0332756
2995,8733;0,0332854
2996,8376;0,0332963
2997,8018;0,0333078
2998,7661;0,0333223
2999,7302;0,0333437
3000,6946;0,0333741
3001,6587;0,0334129
3002,6230;0,0334566
3003,5872;0,0335007
3004,5515;0,0335422
3005,5156;0,0335797
3006,4800;0,0336139
3007,4441;0,0336465
3008,4084;0,0336796
3009,3726;0,0337164
3010,3369;0,0337611
3011,3010;0,0338178
3012,2654;0,0338884
3013,2295;0,0339702
3014,1938;0,0340565
3015,1580;0,0341388
3016,1223;0,0342115
3017,0864;0,0342747
3018,0508;0,0343346
3019,0149;0,0344
3019,9792;0,0344774
3020,9434;0,0345685
3021,9077;0,0346693
3022,8718;0,0347738
3023,8362;0,0348775
3024,8003;0,0349791
3025,7646;0,0350801
3026,7288;0,0351817
3027,6931;0,0352827
3028,6572;0,0353789
3029,6216;0,0354654
3030,5857;0,0355399
3031,5500;0,0356051
3032,5142;0,0356689
3033,4785;0,0357418
3034,4426;0,0358327
3035,4070;0,0359451
3036,3711;0,0360752
3037,3354;0,0362128
3038,2996;0,0363452
3039,2639;0,0364625
3040,2280;0,0365625
3041,1924;0,0366518
3042,1565;0,0367428
3043,1208;0,0368469
3044,0850;0,0369685
3045,0493;0,0371027
3046,0134;0,0372388
3046,9778;0,0373677
3047,9419;0,0374867
3048,9063;0,0376012
3049,8704;0,0377192
3050,8347;0,0378458
3051,7988;0,0379795
3052,7632;0,0381142
3053,7273;0,0382442
3054,6917;0,0383686
3055,6558;0,0384912
3056,6201;0,0386173
3057,5842;0,0387491
3058,5486;0,0388842
3059,5127;0,0390178
3060,4771;0,0391458
3061,4412;0,039267
3062,4055;0,0393818
3063,3696;0,0394914
3064,3340;0,0395968
3065,2981;0,0396991
3066,2625;0,0398008
3067,2266;0,0399057
3068,1909;0,0400167
3069,1550;0,0401347
3070,1194;0,0402584
3071,0835;0,0403865
3072,0479;0,0405187
3073,0120;0,040655
3073,9763;0,0407937
3074,9404;0,0409297
3075,9048;0,0410555
3076,8689;0,0411653
3077,8333;0,04126
3078,7974;0,0413476
3079,7617;0,0414401
3080,7258;0,041547
3081,6902;0,0416696
3082,6543;0,041801
3083,6187;0,0419307
3084,5828;0,0420515
3085,5471;0,042164
3086,5112;0,0422764
3087,4756;0,0423996
3088,4397;0,04254
3089,4041;0,0426953
3090,3682;0,0428544
3091,3325;0,0430034
3092,2966;0,0431329
3093,2610;0,0432427
3094,2251;0,0433418
3095,1895;0,0434421
3096,1536;0,0435515
3097,1179;0,0436695
3098,0820;0,0437894
3099,0464;0,0439042
3100,0105;0,0440127
3100,9749;0,0441208
3101,9390;0,0442379
3102,9033;0,0443705
3103,8674;0,0445186
3104,8318;0,0446761
3105,7959;0,0448348
3106,7603;0,0449891
3107,7244;0,0451386
3108,6887;0,0452868
3109,6528;0,0454382
3110,6172;0,0455951
3111,5813;0,0457556
3112,5457;0,0459147
3113,5098;0,0460662
3114,4741;0,0462065
3115,4382;0,0463366
3116,4026;0,0464621
3117,3667;0,0465906
3118,3311;0,0467276
3119,2952;0,0468736
3120,2595;0,047025
3121,2236;0,0471764
3122,1880;0,0473254
3123,1521;0,0474747
3124,1165;0,0476312
3125,0806;0,0478013
3126,0449;0,0479858
3127,0090;0,0481774
3127,9734;0,048363
3128,9375;0,04853
3129,9019;0,048674
3130,8660;0,0488018
3131,8303;0,0489299
3132,7944;0,0490759
3133,7588;0,0492496
3134,7229;0,0494472
3135,6873;0,0496544
3136,6514;0,0498538
3137,6157;0,050034
3138,5798;0,0501942
3139,5442;0,0503425
3140,5083;0,0504903
3141,4727;0,0506466
3142,4368;0,0508147
3143,4011;0,0509933
3144,3652;0,0511789
3145,3296;0,0513679
3146,2937;0,0515574
3147,2581;0,0517454
3148,2222;0,0519305
3149,1865;0,0521119
3150,1506;0,0522897
3151,1150;0,0524648
3152,0791;0,0526384
3153,0435;0,0528122
3154,0076;0,0529883
3154,9719;0,0531689
3155,9360;0,0533553
3156,9004;0,0535471
3157,8645;0,0537414
3158,8289;0,0539343
3159,7930;0,0541233
3160,7573;0,0543093
3161,7214;0,0544966
3162,6858;0,0546898
3163,6499;0,0548911
3164,6143;0,0550975
3165,5784;0,0553022
3166,5427;0,0554981
3167,5068;0,0556815
3168,4712;0,0558543
3169,4353;0,0560114
3170,3997;0,0561859
3171,3638;0,0563718
3172,3281;0,0565699
3173,2922;0,0567751
3174,2566;0,0569789
3175,2207;0,0571738
3176,1851;0,0573574
3177,1492;0,0575339
3178,1135;0,0577115
3179,0776;0,0578968
3180,0420;0,0580897
3181,0061;0,0582829
3181,9705;0,0584668
3182,9346;0,0586361
3183,8989;0,0587953
3184,8630;0,0589567
3185,8274;0,0591333
3186,7915;0,0593303
3187,7559;0,0595418
3188,7200;0,0597544
3189,6843;0,059955
3190,6484;0,0601379
3191,6128;0,0603065
3192,5769;0,0604697
3193,5413;0,060636
3194,5054;0,0608097
3195,4697;0,0609907
3196,4338;0,0611762
3197,3982;0,0613634
3198,3623;0,06155
3199,3267;0,0617345
3200,2908;0,0619159
3201,2551;0,0620938
3202,2192;0,0622692
3203,1836;0,0624435
3204,1477;0,0626176
3205,1121;0,0627913
3206,0762;0,0629638
3207,0405;0,0631347
3208,0046;0,0633045
3208,9690;0,0634741
3209,9331;0,0636436
3210,8975;0,0638118
3211,8616;0,0639773
3212,8259;0,0641399
3213,7900;0,0643007
3214,7544;0,0644607
3215,7185;0,0646185
3216,6829;0,0647708
3217,6470;0,0649149
3218,6113;0,0650531
3219,5754;0,065194
3220,5398;0,0653487
3221,5039;0,0655244
3222,4683;0,065719
3223,4324;0,065922
3224,3967;0,066121
3225,3608;0,0663093
3226,3252;0,0664882
3227,2893;0,0666642
3228,2537;0,0668407
3229,2178;0,0670139
3230,1821;0,0671749
3231,1462;0,0673172
3232,1106;0,0674438
3233,0747;0,0675679
3234,0391;0,0677071
3235,0032;0,0678729
3235,9675;0,0680651
3236,9316;0,0682721
3237,8960;0,0684774
3238,8601;0,0686684
3239,8245;0,0688408
3240,7886;0,0689988
3241,7529;0,0691509
3242,7170;0,0693053
3243,6814;0,0694669
3244,6455;0,0696375
3245,6099;0,0698171
3246,5740;0,0700055
3247,5383;0,0702029
3248,5024;0,070409
3249,4668;0,0706214
3250,4309;0,0708358
3251,3953;0,0710464
3252,3594;0,0712484
3253,3237;0,0714404
3254,2878;0,0716257
3255,2522;0,0718115
3256,2163;0,0720059
3257,1807;0,0722144
3258,1448;0,0724362
3259,1091;0,0726646
3260,0732;0,0728888
3261,0376;0,0730987
3262,0017;0,0732893
3262,9661;0,0734633
3263,9302;0,0736287
3264,8945;0,0737947
3265,8586;0,0739666
3266,8230;0,0741429
3267,7871;0,0743165
3268,7515;0,0744784
3269,7156;0,0746215
3270,6799;0,0747425
3271,6440;0,074842
3272,6084;0,0749234
3273,5725;0,0749922
3274,5369;0,075055
3275,5010;0,075119
3276,4653;0,07519
3277,4294;0,0752708
3278,3938;0,0753595
3279,3579;0,0754497
3280,3223;0,075532
3281,2864;0,0755978
3282,2507;0,075643
3283,2148;0,0756703
3284,1792;0,0756888
3285,1433;0,0757092
3286,1077;0,0757386
3287,0718;0,0757756
3288,0361;0,0758112
3289,0002;0,0758331
3289,9646;0,0758336
3290,9287;0,0758145
3291,8931;0,0757862
3292,8572;0,0757622
3293,8215;0,0757518
3294,7856;0,0757555
3295,7500;0,075767
3296,7141;0,0757777
3297,6785;0,075781
3298,6426;0,0757752
3299,6069;0,0757621
3300,5710;0,0757444
3301,5354;0,0757233
3302,4995;0,0756977
3303,4639;0,0756644
3304,4280;0,0756209
3305,3923;0,0755671
3306,3564;0,0755077
3307,3208;0,0754517
3308,2849;0,0754093
3309,2493;0,0753868
3310,2134;0,0753839
3311,1777;0,0753938
3312,1418;0,075408
3313,1062;0,0754223
3314,0703;0,0754404
3315,0347;0,0754715
3315,9988;0,0755242
3316,9631;0,0755996
3317,9272;0,0756888
3318,8916;0,0757754
3319,8557;0,0758444
3320,8201;0,0758895
3321,7842;0,0759166
3322,7485;0,0759412
3323,7126;0,0759801
3324,6770;0,0760433
3325,6411;0,0761292
3326,6055;0,0762268
3327,5696;0,0763219
3328,5339;0,0764043
3329,4980;0,0764711
3330,4624;0,0765245
3331,4265;0,0765666
3332,3909;0,0765944
3333,3550;0,0766004
3334,3193;0,0765761
3335,2834;0,0765182
3336,2478;0,0764326
3337,2119;0,0763321
3338,1763;0,0762302
3339,1404;0,0761336
3340,1047;0,0760399
3341,0688;0,0759394
3342,0332;0,075822
3342,9973;0,0756834
3343,9617;0,0755265
3344,9258;0,0753599
3345,8901;0,075192
3346,8542;0,0750275
3347,8186;0,0748653
3348,7827;0,0747001
3349,7471;0,0745256
3350,7112;0,0743369
3351,6755;0,0741328
3352,6396;0,0739164
3353,6040;0,0736948
3354,5681;0,0734778
3355,5325;0,0732748
3356,4966;0,0730918
3357,4609;0,0729285
3358,4250;0,0727793
3359,3894;0,0726356
3360,3535;0,07249
3361,3179;0,0723393
3362,2820;0,0721841
3363,2463;0,0720271
3364,2104;0,0718698
3365,1748;0,0717108
3366,1389;0,0715465
3367,1033;0,0713732
3368,0674;0,0711899
3369,0317;0,071
3369,9958;0,07081
3370,9602;0,070628
3371,9243;0,0704598
3372,8887;0,0703066
3373,8528;0,0701642
3374,8171;0,0700246
3375,7813;0,0698796
3376,7456;0,0697249
3377,7097;0,0695615
3378,6741;0,0693945
3379,6382;0,0692291
3380,6025;0,0690668
3381,5667;0,0689045
3382,5310;0,0687375
3383,4951;0,0685642
3384,4595;0,0683891
3385,4236;0,0682219
3386,3879;0,0680718
3387,3521;0,0679405
3388,3164;0,0678203
3389,2805;0,0676965
3390,2449;0,0675553
3391,2090;0,0673911
3392,1733;0,0672098
3393,1375;0,0670255
3394,1018;0,0668534
3395,0659;0,0667016
3396,0303;0,0665693
3396,9944;0,0664481
3397,9587;0,066326
3398,9229;0,0661921
3399,8872;0,066039
3400,8513;0,0658647
3401,8157;0,0656728
3402,7798;0,0654712
3403,7441;0,0652698
3404,7083;0,0650763
3405,6726;0,0648936
3406,6367;0,0647191
3407,6011;0,0645465
3408,5652;0,064369
3409,5295;0,0641821
3410,4937;0,0639848
3411,4580;0,0637797
3412,4221;0,0635721
3413,3865;0,0633672
3414,3506;0,0631674
3415,3149;0,0629699
3416,2791;0,0627659
3417,2434;0,0625449
3418,2075;0,0622999
3419,1719;0,0620334
3420,1360;0,0617585
3421,1003;0,0614941
3422,0645;0,0612554
3423,0288;0,061047
3423,9929;0,0608619
3424,9573;0,060686
3425,9214;0,0605043
3426,8857;0,0603063
3427,8499;0,0600875
3428,8142;0,0598495
3429,7783;0,0595975
3430,7427;0,0593383
3431,7068;0,059079
3432,6711;0,0588265
3433,6353;0,0585876
3434,5996;0,0583671
3435,5637;0,0581652
3436,5281;0,0579755
3437,4922;0,0577868
3438,4565;0,0575883
3439,4207;0,0573755
3440,3850;0,0571525
3441,3491;0,0569263
3442,3135;0,0566981
3443,2776;0,0564585
3444,2419;0,0561914
3445,2061;0,0558876
3446,1704;0,0555565
3447,1345;0,0552262
3448,0989;0,0549282
3449,0630;0,0546779
3450,0273;0,0544663
3450,9915;0,0542688
3451,9558;0,0540625
3452,9199;0,0538386
3453,8843;0,0536044
3454,8484;0,0533734
3455,8127;0,0531523
3456,7769;0,0529359
3457,7412;0,0527107
3458,7053;0,0524662
3459,6697;0,0522025
3460,6338;0,0519303
3461,5981;0,0516637
3462,5623;0,0514105
3463,5266;0,051168
3464,4907;0,0509254
3465,4551;0,0506717
3466,4192;0,0504045
3467,3835;0,0501314
3468,3477;0,0498656
3469,3120;0,0496165
3470,2761;0,0493826
3471,2405;0,0491523
3472,2046;0,0489135
3473,1689;0,0486644
3474,1331;0,0484173
3475,0974;0,0481907
3476,0615;0,0479937
3477,0259;0,0478151
3477,9900;0,0476269
3478,9543;0,0474012
3479,9185;0,0471302
3480,8828;0,0468343
3481,8469;0,0465515
3482,8113;0,0463108
3483,7754;0,0461127
3484,7397;0,0459296
3485,7039;0,0457255
3486,6682;0,0454804
3487,6323;0,0452026
3488,5967;0,0449229
3489,5608;0,0446731
3490,5251;0,0444638
3491,4893;0,0442778
3492,4536;0,0440824
3493,4177;0,0438517
3494,3821;0,0435862
3495,3462;0,0433158
3496,3105;0,0430822
3497,2747;0,0429085
3498,2390;0,0427794
3499,2031;0,0426451
3500,1675;0,0424481
3501,1316;0,0421582
3502,0959;0,0417979
3503,0601;0,041435
3504,0244;0,0411394
3504,9885;0,040937
3505,9529;0,0407974
3506,9170;0,0406599
3507,8813;0,0404718
3508,8455;0,0402186
3509,8098;0,0399284
3510,7739;0,0396502
3511,7383;0,0394191
3512,7024;0,0392376
3513,6667;0,0390822
3514,6309;0,0389248
3515,5952;0,0387505
3516,5593;0,0385625
3517,5237;0,0383742
3518,4878;0,0381969
3519,4521;0,0380316
3520,4163;0,0378706
3521,3806;0,0377025
3522,3447;0,0375171
3523,3091;0,037305
3524,2732;0,0370554
3525,2375;0,0367589
3526,2017;0,0364167
3527,1660;0,0360506
3528,1301;0,0357039
3529,0945;0,0354238
3530,0586;0,0352356
3531,0229;0,035127
3531,9871;0,0350533
3532,9514;0,0349591
3533,9155;0,0348036
3534,8799;0,0345783
3535,8440;0,0343107
3536,8083;0,0340499
3537,7725;0,0338415
3538,7368;0,033706
3539,7009;0,0336325
3540,6653;0,0335842
3541,6294;0,0335089
3542,5938;0,0333536
3543,5579;0,0330863
3544,5222;0,0327208
3545,4863;0,0323214
3546,4507;0,0319696
3547,4148;0,0317129
3548,3792;0,0315396
3549,3433;0,0313948
3550,3076;0,0312179
3551,2717;0,0309797
3552,2361;0,0307021
3553,2002;0,0304445
3554,1646;0,0302614
3555,1287;0,0301631
3556,0930;0,030112
3557,0571;0,0300506
3558,0215;0,0299395
3558,9856;0,029786
3559,9500;0,0296423
3560,9141;0,0295686
3561,8784;0,0295825
3562,8425;0,0296281
3563,8069;0,0295815
3564,7710;0,0292984
3565,7354;0,0287153
3566,6995;0,0279492
3567,6638;0,0272529
3568,6279;0,0268166
3569,5923;0,0266514
3570,5564;0,0266482
3571,5208;0,026679
3572,4849;0,0266545
3573,4492;0,0265434
3574,4133;0,026368
3575,3777;0,0261755
3576,3418;0,0260004
3577,3062;0,0258462
3578,2703;0,0257022
3579,2346;0,0255728
3580,1987;0,0254901
3581,1631;0,025492
3582,1272;0,0255826
3583,0916;0,0257047
3584,0557;0,0257419
3585,0200;0,0255595
3585,9841;0,0250973
3586,9485;0,0244654
3587,9126;0,0239093
3588,8770;0,0236167
3589,8411;0,0235916
3590,8054;0,023706
3591,7695;0,0238054
3592,7339;0,023778
3593,6980;0,0235929
3594,6624;0,0233058
3595,6265;0,0230096
3596,5908;0,022759
3597,5549;0,0225426
3598,5193;0,0223228
3599,4834;0,022095
3600,4478;0,0219087
3601,4119;0,0218298
3602,3762;0,0218792
3603,3403;0,022007
3604,3047;0,0221141
3605,2688;0,0220991
3606,2332;0,021907
3607,1973;0,0215635
3608,1616;0,0211616
3609,1257;0,0207957
3610,0901;0,0205044
3611,0542;0,0202778
3612,0186;0,0201028
3612,9827;0,0199878
3613,9470;0,0199437
3614,9111;0,0199476
3615,8755;0,0199247
3616,8396;0,0197743
3617,8040;0,0194361
3618,7681;0,0189674
3619,7324;0,0185458
3620,6965;0,0183571
3621,6609;0,018473
3622,6250;0,0188406
3623,5894;0,019337
3624,5535;0,0198017
3625,5178;0,020037
3626,4819;0,0198361
3627,4463;0,0191176
3628,4104;0,0181108
3629,3748;0,0172632
3630,3389;0,0168366
3631,3032;0,0167573
3632,2673;0,0168211
3633,2317;0,0168694
3634,1958;0,0168342
3635,1602;0,0167227
3636,1243;0,016581
3637,0886;0,0164517
3638,0527;0,0163502
3639,0171;0,0162743
3639,9812;0,0162309
3640,9456;0,0162511
3641,9097;0,0163768
3642,8740;0,0166265
3643,8381;0,0169605
3644,8025;0,0172565
3645,7666;0,0172959
3646,7310;0,0168086
3647,6951;0,0156838
3648,6594;0,0142919
3649,6235;0,0133247
3650,5879;0,0130921
3651,5520;0,0133723
3652,5164;0,0138132
3653,4805;0,014157
3654,4448;0,0142638
3655,4089;0,0141191
3656,3733;0,0138395
3657,3374;0,0135994
3658,3018;0,0135025
3659,2659;0,013531
3660,2302;0,0136066
3661,1943;0,0136761
3662,1587;0,0137526
3663,1228;0,0138937
3664,0872;0,0141383
3665,0513;0,0144503
3666,0156;0,0147105
3666,9797;0,0147632
3667,9441;0,0145194
3668,9082;0,0140787
3669,8726;0,0137091
3670,8367;0,0136105
3671,8010;0,0137303
3672,7651;0,0138267
3673,7295;0,0136433
3674,6936;0,013097
3675,6580;0,0124003
3676,6221;0,0119082
3677,5864;0,0117876
3678,5505;0,0119534
3679,5149;0,0122474
3680,4790;0,0125672
3681,4434;0,0128871
3682,4075;0,0132277
3683,3718;0,0136081
3684,3359;0,0140024
3685,3003;0,0143172
3686,2644;0,0144034
3687,2288;0,0141235
3688,1929;0,0134909
3689,1572;0,0127651
3690,1213;0,0122865
3691,0857;0,0121864
3692,0498;0,0123637
3693,0142;0,0126614
3693,9783;0,0129785
3694,9426;0,0132787
3695,9067;0,0135592
3696,8711;0,0138138
3697,8352;0,0140086
3698,7996;0,0140846
3699,7637;0,0139926
3700,7280;0,0137485
3701,6921;0,0134603
3702,6565;0,0132808
3703,6206;0,0133124
3704,5850;0,0135576
3705,5491;0,0139348
3706,5134;0,0143119
3707,4775;0,0145241
3708,4419;0,0144017
3709,4060;0,0138581
3710,3704;0,0130259
3711,3345;0,0122569
3712,2988;0,0118621
3713,2629;0,011895
3714,2273;0,0122226
3715,1914;0,0126821
3716,1558;0,0131497
3717,1199;0,013547
3718,0842;0,0138375
3719,0483;0,0140266
3720,0127;0,0141479
3720,9768;0,0142334
3721,9412;0,014287
3722,9053;0,0142894
3723,8696;0,0142337
3724,8337;0,0141562
3725,7981;0,0141271
3726,7622;0,0142062
3727,7266;0,0144083
3728,6907;0,0147022
3729,6550;0,0150267
3730,6191;0,0152996
3731,5835;0,0154172
3732,5476;0,0152632
3733,5120;0,014763
3734,4761;0,0139882
3735,4404;0,0131944
3736,4045;0,0126693
3737,3689;0,0125502
3738,3330;0,012809
3739,2974;0,0133276
3740,2615;0,0139388
3741,2258;0,0144308
3742,1899;0,0145798
3743,1543;0,0142822
3744,1184;0,0137198
3745,0828;0,013272
3746,0469;0,0131601
3747,0112;0,013288
3747,9753;0,0133755
3748,9397;0,0131426
3749,9038;0,0125104
3750,8682;0,0117538
3751,8323;0,0112987
3752,7966;0,0113093
3753,7607;0,0116428
3754,7251;0,0120698
3755,6892;0,012401
3756,6536;0,0125218
3757,6177;0,0124252
3758,5820;0,012227
3759,5461;0,0120957
3760,5105;0,0121321
3761,4746;0,0123213
3762,4390;0,0125783
3763,4031;0,0128092
3764,3674;0,0129474
3765,3315;0,0129644
3766,2959;0,0128636
3767,2600;0,0126669
3768,2244;0,0124079
3769,1885;0,0121403
3770,1528;0,0119397
3771,1169;0,0118793
3772,0813;0,0119899
3773,0454;0,0122416
3774,0098;0,0125567
3774,9739;0,0128339
3775,9382;0,0129768
3776,9023;0,0129327
3777,8667;0,0127331
3778,8308;0,0124906
3779,7952;0,0123247
3780,7593;0,01228
3781,7236;0,0123184
3782,6877;0,012371
3783,6521;0,0123878
3784,6162;0,0123588
3785,5806;0,0123082
3786,5447;0,0122738
3787,5090;0,0122879
3788,4731;0,0123689
3789,4375;0,0125182
3790,4016;0,012718
3791,3660;0,0129306
3792,3301;0,0131088
3793,2944;0,0132191
3794,2585;0,0132668
3795,2229;0,0132973
3796,1870;0,0133562
3797,1514;0,013434
3798,1155;0,0134455
3799,0798;0,0132804
3800,0439;0,0129103
3801,0083;0,0124647
3801,9724;0,0121531
3802,9368;0,0120786
3803,9009;0,0121629
3804,8652;0,0122378
3805,8293;0,0121813
3806,7937;0,0120146
3807,7578;0,0118973
3808,7222;0,0119943
3809,6863;0,0123466
3810,6506;0,0128644
3811,6147;0,0133914
3812,5791;0,0137617
3813,5432;0,0138589
3814,5076;0,0136929
3815,4717;0,0134161
3816,4360;0,0132007
3817,4001;0,013083
3818,3645;0,0129554
3819,3286;0,0126984
3820,2930;0,0123194
3821,2571;0,0119718
3822,2214;0,0118143
3823,1855;0,0118783
3824,1499;0,0120871
3825,1140;0,0123431
3826,0784;0,0125782
3827,0425;0,0127635
3828,0068;0,0129
3828,9709;0,0130039
3829,9353;0,0130947
3830,8994;0,0131917
3831,8638;0,0133113
3832,8279;0,0134548
3833,7922;0,0135914
3834,7563;0,0136524
3835,7207;0,0135562
3836,6848;0,0132675
3837,6492;0,0128518
3838,6133;0,0124549
3839,5776;0,0121983
3840,5417;0,0120999
3841,5061;0,0120999
3842,4702;0,0121368
3843,4346;0,0121977
3844,3987;0,0123213
3845,3630;0,0125688
3846,3271;0,0129858
3847,2915;0,0135772
3848,2556;0,0142917
3849,2200;0,0149995
3850,1841;0,0154609
3851,1484;0,0153444
3852,1125;0,0144496
3853,0769;0,0131035
3854,0410;0,0120352
3855,0054;0,011625
3855,9695;0,0117504
3856,9338;0,0121724
3857,8979;0,0127155
3858,8623;0,0132492
3859,8264;0,0136557
3860,7908;0,0138391
3861,7549;0,0137769
3862,7192;0,0135644
3863,6833;0,0133758
3864,6477;0,0133437
3865,6118;0,0134774
3866,5762;0,0136824
3867,5403;0,0138281
3868,5046;0,0138081
3869,4688;0,0135872
3870,4331;0,0132246
3871,3972;0,0128481
3872,3616;0,0125881
3873,3257;0,012522
3874,2900;0,0126581
3875,2542;0,0129473
3876,2185;0,0133022
3877,1826;0,0136208
3878,1470;0,0138191
3879,1111;0,0138682
3880,0754;0,0138093
3881,0396;0,0137153
3882,0039;0,0136247
3882,9680;0,0135228
3883,9324;0,0133892
3884,8965;0,0132544
3885,8608;0,0131937
3886,8250;0,0132571
3887,7893;0,0134095
3888,7534;0,0135383
3889,7178;0,0135206
3890,6819;0,0133183
3891,6462;0,0130403
3892,6104;0,0128819
3893,5747;0,0129739
3894,5388;0,0133075
3895,5032;0,0137777
3896,4673;0,0142521
3897,4316;0,0146146
3898,3958;0,014795
3899,3601;0,0147789
3900,3242;0,0145857
3901,2886;0,0142368
3902,2527;0,0137646
3903,2170;0,0132485
3904,1812;0,012811
3905,1455;0,0125522
3906,1096;0,0124933
3907,0740;0,0125841
3908,0381;0,0127483
3909,0024;0,0129227
3909,9666;0,0130787
3910,9309;0,0132235
3911,8950;0,0133811
3912,8594;0,0135616
3913,8235;0,0137396
3914,7878;0,0138583
3915,7520;0,0138639
3916,7163;0,0137518
3917,6804;0,0135842
3918,6448;0,013451
3919,6089;0,0134063
3920,5732;0,0134373
3921,5374;0,0134838
3922,5017;0,0134826
3923,4658;0,0134135
3924,4302;0,0133174
3925,3943;0,0132675
3926,3586;0,0133148
3927,3228;0,013452
3928,2871;0,0136185
3929,2512;0,0137324
3930,2156;0,0137316
3931,1797;0,0136084
3932,1440;0,0134139
3933,1082;0,0132251
3934,0725;0,0131026
3935,0366;0,0130744
3936,0010;0,0131403
3936,9651;0,0132799
3937,9294;0,0134552
3938,8936;0,0136155
3939,8579;0,0137113
3940,8220;0,0137182
3941,7864;0,0136565
3942,7505;0,0135833
3943,7148;0,0135546
3944,6790;0,0135868
3945,6433;0,0136467
3946,6074;0,0136741
3947,5718;0,0136221
3948,5359;0,0134891
3949,5002;0,0133233
3950,4644;0,0131904
3951,4287;0,0131317
3952,3928;0,0131468
3953,3572;0,013206
3954,3213;0,013276
3955,2856;0,0133379
3956,2498;0,013389
3957,2141;0,0134329
3958,1782;0,0134671
3959,1426;0,013481
3960,1067;0,0134643
3961,0710;0,0134185
3962,0352;0,0133606
3962,9995;0,013315
3963,9636;0,0132998
3964,9280;0,0133174
3965,8921;0,0133563
3966,8564;0,0133996
3967,8206;0,0134345
3968,7849;0,0134566
3969,7490;0,0134674
3970,7134;0,013469
3971,6775;0,0134607
3972,6418;0,0134409
3973,6060;0,0134119
3974,5703;0,0133828
3975,5344;0,0133669
3976,4988;0,0133734
3977,4629;0,013401
3978,4272;0,0134368
3979,3914;0,0134624
3980,3557;0,0134644
3981,3198;0,013442
3982,2842;0,0134082
3983,2483;0,0133827
3984,2126;0,0133808
3985,1768;0,0134057
3986,1411;0,0134475
3987,1052;0,0134891
3988,0696;0,0135156
3989,0337;0,0135201
3989,9980;0,0135054
3990,9622;0,0134796
3991,9265;0,0134509
3992,8906;0,0134236
3993,8550;0,0133991
3994,8191;0,0133785
3995,7834;0,013364
3996,7476;0,0133576
3997,7119;0,0133592
3998,6760;0,0133656
3999,6404;0,013373
4000,6045;0,0132338

##### Extended Information
[Comments]
Sample name
Comment
Username
Division
Organization;UNIVERSIDAD INDUSTRIAL DE SANTANDER

[Detailed Information]
Creation date;18/03/2025 12:49 p.m.

Data array type;Linear data array
Horizontal axis;Wavenumber [cm-1]
Vertical axis;Abs
Start;399,193 cm-1
End;4000,6 cm-1
Data interval;0,964233 cm-1
Data points;3736    

[Measurement Information]
Model name;FT/IR-4X1typeA
Serial No.;A035162111

Accessory;ATR PRO 4X
Accessory S/N;A021162126
Incident angle;45 deg

Measurement date;18/03/2025 12:44 p.m.

Light source;Standard
Detector;TGS
Accumulation;40
Resolution;4 cm-1
Zero filling;On
Apodization;Cosine
Gain;Auto (8)
Aperture;Auto (7 mm)
Scan speed;Auto (2 mm/sec)
Filter;Auto (12800 Hz)

