TITLE;
DATA TYPE;INFRARED SPECTRUM
ORIGIN;JASCO
OWNER;
DATE;25/03/18
TIME;13:06:16
SPECTROMETER/DATA SYSTEM;
LOCALE;9226
RESOLUTION;
DELTAX;0,964233
XUNITS;1/CM
YUNITS;ABSORBANCE
FIRSTX;  399,1927
LASTX; 4000,6047
NPOINTS;    3736
FIRSTY;     0,20572
MAXY;     0,25260
MINY;     0,01225
XYDATA
399,1927;0,20572
400,1569;0,205635
401,1211;0,204391
402,0854;0,202704
403,0496;0,201016
404,0138;0,199535
404,9781;0,198351
405,9423;0,19751
406,9065;0,197054
407,8708;0,197005
408,8350;0,197338
409,7992;0,197952
410,7635;0,198684
411,7277;0,199361
412,6919;0,199864
413,6562;0,200148
414,6204;0,20019
415,5846;0,199942
416,5489;0,199338
417,5131;0,198419
418,4773;0,197542
419,4416;0,197321
420,4058;0,198108
421,3700;0,199729
422,3343;0,201785
423,2985;0,203948
424,2627;0,205985
425,2270;0,207716
426,1912;0,209007
427,1554;0,209797
428,1197;0,210105
429,0839;0,210019
430,0481;0,209674
431,0124;0,209234
431,9766;0,208856
432,9408;0,208647
433,9051;0,208615
434,8693;0,20868
435,8335;0,208713
436,7978;0,208612
437,7620;0,208353
438,7262;0,207979
439,6905;0,207568
440,6547;0,207184
441,6189;0,206852
442,5832;0,20655
443,5474;0,206224
444,5116;0,205814
445,4759;0,205283
446,4401;0,204623
447,4043;0,203841
448,3686;0,202953
449,3328;0,201996
450,2970;0,201044
451,2613;0,20022
452,2255;0,199658
453,1897;0,19946
454,1540;0,199644
455,1182;0,200131
456,0824;0,200744
457,0467;0,201238
458,0109;0,201386
458,9751;0,201089
459,9394;0,20042
460,9036;0,199543
461,8678;0,198612
462,8321;0,197742
463,7963;0,197016
464,7605;0,196501
465,7248;0,196225
466,6890;0,19615
467,6532;0,196172
468,6175;0,196176
469,5817;0,196096
470,5459;0,195977
471,5102;0,195963
472,4744;0,196225
473,4386;0,196823
474,4029;0,197643
475,3671;0,198461
476,3313;0,19907
477,2956;0,199378
478,2598;0,199424
479,2240;0,199344
480,1883;0,199298
481,1525;0,199398
482,1167;0,199687
483,0810;0,200149
484,0452;0,200751
485,0094;0,201453
485,9737;0,202207
486,9379;0,202938
487,9021;0,203547
488,8664;0,203938
489,8306;0,204061
490,7948;0,203955
491,7591;0,203747
492,7233;0,203613
493,6875;0,203688
494,6518;0,204014
495,6160;0,204534
496,5802;0,205134
497,5445;0,205697
498,5087;0,206136
499,4729;0,206412
500,4372;0,206536
501,4014;0,206571
502,3656;0,206611
503,3299;0,20674
504,2941;0,206992
505,2583;0,207334
506,2226;0,207694
507,1868;0,20801
508,1510;0,20828
509,1153;0,20857
510,0795;0,208985
511,0437;0,209607
512,0080;0,210434
512,9722;0,211379
513,9365;0,212294
514,9007;0,213034
515,8649;0,213512
516,8292;0,213731
517,7934;0,213779
518,7576;0,213764
519,7219;0,213746
520,6861;0,213709
521,6503;0,21359
522,6146;0,213337
523,5788;0,212951
524,5430;0,212498
525,5073;0,212086
526,4715;0,211805
527,4357;0,211659
528,4000;0,21157
529,3642;0,211422
530,3284;0,211134
531,2927;0,210701
532,2569;0,210186
533,2211;0,209683
534,1854;0,209264
535,1496;0,20894
536,1138;0,208674
537,0781;0,208427
538,0423;0,208195
539,0065;0,208028
539,9708;0,20799
540,9350;0,208117
541,8992;0,208384
542,8635;0,20872
543,8277;0,209048
544,7919;0,209329
545,7562;0,209576
546,7204;0,209847
547,6846;0,210203
548,6489;0,210681
549,6131;0,211284
550,5773;0,211989
551,5416;0,212767
552,5058;0,213583
553,4700;0,214399
554,4343;0,215165
555,3985;0,215816
556,3627;0,216267
557,3270;0,216423
558,2912;0,216193
559,2554;0,215511
560,2197;0,21437
561,1839;0,212845
562,1481;0,211095
563,1124;0,209316
564,0766;0,207688
565,0408;0,206314
566,0051;0,205205
566,9693;0,204312
567,9335;0,203562
568,8978;0,202912
569,8620;0,202358
570,8262;0,201919
571,7905;0,201602
572,7547;0,201382
573,7189;0,201203
574,6832;0,201
575,6474;0,200725
576,6116;0,200373
577,5759;0,19998
578,5401;0,199608
579,5043;0,199318
580,4686;0,199152
581,4328;0,19912
582,3970;0,199199
583,3613;0,199336
584,3255;0,19946
585,2897;0,199503
586,2540;0,199427
587,2182;0,19924
588,1824;0,198987
589,1467;0,198733
590,1109;0,198528
591,0751;0,198381
592,0394;0,198254
593,0036;0,198085
593,9678;0,197822
594,9321;0,197448
595,8963;0,196987
596,8605;0,196483
597,8248;0,195982
598,7890;0,195513
599,7532;0,195091
600,7175;0,194714
601,6817;0,194383
602,6459;0,194103
603,6102;0,193871
604,5744;0,193666
605,5386;0,193432
606,5029;0,193092
607,4671;0,192573
608,4313;0,191847
609,3956;0,190949
610,3598;0,189965
611,3240;0,188986
612,2883;0,188065
613,2525;0,187197
614,2167;0,186335
615,1810;0,185427
616,1452;0,184443
617,1094;0,183381
618,0737;0,18225
619,0379;0,181044
620,0021;0,179752
620,9664;0,178374
621,9306;0,176949
622,8948;0,175559
623,8591;0,174303
624,8233;0,173263
625,7875;0,172426
626,7518;0,171735
627,7160;0,171103
628,6802;0,170455
629,6445;0,169744
630,6087;0,168948
631,5729;0,168061
632,5372;0,167083
633,5014;0,166035
634,4656;0,164966
635,4299;0,163947
636,3941;0,163039
637,3583;0,162266
638,3226;0,161602
639,2868;0,160993
640,2510;0,160383
641,2153;0,159746
642,1795;0,159085
643,1437;0,158415
644,1080;0,157743
645,0722;0,157065
646,0364;0,156374
647,0007;0,155679
647,9649;0,155014
648,9291;0,154426
649,8934;0,153955
650,8576;0,153614
651,8218;0,153402
652,7861;0,153316
653,7503;0,153371
654,7145;0,153589
655,6788;0,153973
656,6430;0,154473
657,6072;0,154987
658,5715;0,155387
659,5357;0,155572
660,4999;0,155525
661,4642;0,155331
662,4284;0,155131
663,3926;0,155034
664,3569;0,155034
665,3211;0,154951
666,2853;0,154403
667,2496;0,152952
668,2138;0,150639
669,1780;0,148278
670,1423;0,146544
671,1065;0,145332
672,0707;0,144262
673,0350;0,143062
673,9992;0,141596
674,9634;0,139858
675,9277;0,137969
676,8919;0,136106
677,8561;0,134402
678,8204;0,132893
679,7846;0,131567
680,7488;0,130418
681,7131;0,129458
682,6773;0,128691
683,6415;0,128094
684,6058;0,127617
685,5700;0,127208
686,5342;0,126829
687,4985;0,126465
688,4627;0,126116
689,4269;0,125801
690,3912;0,125545
691,3554;0,125362
692,3196;0,125244
693,2839;0,125155
694,2481;0,125045
695,2123;0,124876
696,1766;0,124632
697,1408;0,124324
698,1050;0,123979
699,0693;0,123621
700,0335;0,123259
700,9977;0,12289
701,9620;0,122501
702,9262;0,12208
703,8904;0,121624
704,8547;0,121137
705,8189;0,12063
706,7831;0,120113
707,7474;0,119589
708,7116;0,119047
709,6758;0,118474
710,6401;0,11786
711,6043;0,117205
712,5685;0,116522
713,5328;0,115824
714,4970;0,115112
715,4612;0,114601
716,4255;0,113767
717,3897;0,112851
718,3539;0,111868
719,3182;0,110861
720,2824;0,109882
721,2466;0,108965
722,2109;0,108111
723,1751;0,10729
724,1393;0,10647
725,1036;0,105627
726,0678;0,104755
727,0320;0,103861
727,9963;0,102961
728,9605;0,10207
729,9247;0,101205
730,8890;0,100381
731,8532;0,0996119
732,8174;0,0989013
733,7817;0,0982407
734,7459;0,0976132
735,7101;0,097004
736,6744;0,0964096
737,6386;0,0958385
738,6028;0,0953025
739,5671;0,0948062
740,5313;0,0943408
741,4955;0,0938907
742,4598;0,0934434
743,4240;0,0929981
744,3882;0,0925625
745,3525;0,0921426
746,3167;0,0917332
747,2809;0,0913168
748,2452;0,0908751
749,2094;0,0904021
750,1736;0,08991
751,1379;0,0894226
752,1021;0,0889586
753,0663;0,0885187
754,0306;0,0880841
754,9948;0,08763
755,9590;0,0871434
756,9233;0,0866333
757,8875;0,0861261
758,8517;0,085651
759,8160;0,0852247
760,7802;0,0848461
761,7444;0,0845013
762,7087;0,0841731
763,6729;0,0838487
764,6371;0,0835216
765,6014;0,0831901
766,5656;0,0828569
767,5298;0,0825284
768,4941;0,0822132
769,4583;0,0819181
770,4225;0,0816417
771,3868;0,0813723
772,3510;0,0810928
773,3152;0,0807914
774,2795;0,0804708
775,2437;0,0801497
776,2079;0,079853
777,1722;0,0795976
778,1364;0,079381
779,1006;0,0791808
780,0649;0,0789661
781,0291;0,0787128
781,9933;0,0784131
782,9576;0,0780751
783,9218;0,0777138
784,8860;0,0773409
785,8503;0,0769618
786,8145;0,0765802
787,7787;0,0762056
788,7430;0,075854
789,7072;0,0755411
790,6714;0,0752721
791,6357;0,0750364
792,5999;0,0748134
793,5641;0,0745854
794,5284;0,0743484
795,4926;0,0741121
796,4568;0,0738904
797,4211;0,07369
798,3853;0,0735057
799,3495;0,0733263
800,3138;0,0731438
801,2780;0,072958
802,2422;0,0727745
803,2065;0,0725975
804,1707;0,0724264
805,1349;0,0722579
806,0992;0,0720926
807,0634;0,0719388
808,0276;0,0718091
808,9919;0,0717139
809,9561;0,0716542
810,9203;0,0716201
811,8846;0,0715954
812,8488;0,0715645
813,8130;0,0715179
814,7773;0,0714546
815,7415;0,071381
816,7057;0,0713074
817,6700;0,0712445
818,6342;0,0711986
819,5984;0,0711689
820,5627;0,0711464
821,5269;0,0711154
822,4911;0,0710583
823,4554;0,0709607
824,4196;0,0708174
825,3839;0,0706347
826,3481;0,0704288
827,3123;0,0702201
828,2766;0,0700241
829,2408;0,0698442
830,2050;0,069671
831,1693;0,069489
832,1335;0,0692875
833,0977;0,0690677
834,0620;0,0688412
835,0262;0,0686208
835,9904;0,0684109
836,9547;0,0682031
837,9189;0,0679832
838,8831;0,0677408
839,8474;0,0674764
840,8116;0,0672001
841,7758;0,066926
842,7401;0,0666651
843,7043;0,0664252
844,6685;0,0662118
845,6328;0,0660285
846,5970;0,0658743
847,5612;0,0657394
848,5255;0,0656071
849,4897;0,0654614
850,4539;0,0652968
851,4182;0,0651221
852,3824;0,0649545
853,3466;0,0648074
854,3109;0,0646821
855,2751;0,0645699
856,2393;0,0644627
857,2036;0,0643639
858,1678;0,064289
859,1320;0,0642565
860,0963;0,0642744
861,0605;0,0643336
862,0247;0,0644133
862,9890;0,0644952
863,9532;0,0645754
864,9174;0,0646673
865,8817;0,0647936
866,8459;0,0649729
867,8101;0,0652102
868,7744;0,065496
869,7386;0,0658131
870,7028;0,066145
871,6671;0,0664818
872,6313;0,0668198
873,5955;0,0671579
874,5598;0,0674946
875,5240;0,0678287
876,4882;0,068162
877,4525;0,0685025
878,4167;0,0688642
879,3809;0,0692636
880,3452;0,069715
881,3094;0,0702275
882,2736;0,0708068
883,2379;0,0714578
884,2021;0,0721873
885,1663;0,0730019
886,1306;0,0739029
887,0948;0,07488
888,0590;0,0759103
889,0233;0,0769615
889,9875;0,0779992
890,9517;0,0789935
891,9160;0,0799197
892,8802;0,0807546
893,8444;0,0814716
894,8087;0,0820395
895,7729;0,0824267
896,7371;0,0826102
897,7014;0,0825837
898,6656;0,0823603
899,6298;0,0819687
900,5941;0,0814449
901,5583;0,0808251
902,5225;0,0801413
903,4868;0,0794234
904,4510;0,078701
905,4152;0,0780049
906,3795;0,0773636
907,3437;0,0767975
908,3079;0,0763147
909,2722;0,075912
910,2364;0,0755819
911,2007;0,075321
912,1649;0,0751347
913,1292;0,0750349
914,0934;0,0750315
915,0576;0,0751239
916,0219;0,0752974
916,9861;0,0755285
917,9503;0,0757943
918,9146;0,0760809
919,8788;0,0763847
920,8430;0,0767073
921,8073;0,0770488
922,7715;0,0774027
923,7357;0,0777577
924,7000;0,0781018
925,6642;0,0784269
926,6284;0,0787302
927,5927;0,0790138
928,5569;0,0792837
929,5211;0,0795514
930,4854;0,0798335
931,4496;0,0801497
932,4138;0,0805153
933,3781;0,0809352
934,3423;0,0814019
935,3065;0,0819018
936,2708;0,0824276
937,2350;0,0829869
938,1992;0,0836033
939,1635;0,0843057
940,1277;0,0851155
941,0919;0,0860381
942,0562;0,0870648
943,0204;0,0881813
943,9846;0,0893765
944,9489;0,0906444
945,9131;0,0919797
946,8773;0,0933728
947,8416;0,09481
948,8058;0,0962797
949,7700;0,0977794
950,7343;0,0993177
951,6985;0,100908
952,6627;0,102561
953,6270;0,104274
954,5912;0,106036
955,5554;0,107832
956,5197;0,10965
957,4839;0,111486
958,4481;0,113342
959,4124;0,115223
960,3766;0,117134
961,3408;0,11908
962,3051;0,121063
963,2693;0,123079
964,2335;0,125121
965,1978;0,127178
966,1620;0,129246
967,1262;0,131333
968,0905;0,133464
969,0547;0,135678
970,0189;0,138013
970,9832;0,140502
971,9474;0,143167
972,9116;0,146024
973,8759;0,14909
974,8401;0,152381
975,8043;0,155906
976,7686;0,159651
977,7328;0,16357
978,6970;0,167585
979,6613;0,171597
980,6255;0,175501
981,5897;0,1792
982,5540;0,182616
983,5182;0,185694
984,4824;0,188409
985,4467;0,190766
986,4109;0,192804
987,3751;0,194585
988,3394;0,196176
989,3036;0,197632
990,2678;0,198981
991,2321;0,200219
992,1963;0,201324
993,1605;0,202274
994,1248;0,203063
995,0890;0,203713
996,0532;0,204261
997,0175;0,204753
997,9817;0,205226
998,9459;0,205708
999,9102;0,206221
1000,8744;0,206796
1001,8386;0,207476
1002,8029;0,208316
1003,7671;0,209373
1004,7313;0,210681
1005,6956;0,212251
1006,6598;0,214065
1007,6240;0,216088
1008,5883;0,218281
1009,5525;0,220607
1010,5167;0,223025
1011,4810;0,225487
1012,4452;0,22794
1013,4094;0,230333
1014,3737;0,232625
1015,3379;0,234799
1016,3021;0,236853
1017,2664;0,238789
1018,2306;0,240601
1019,1948;0,242273
1020,1591;0,243791
1021,1233;0,245154
1022,0875;0,24638
1023,0518;0,247503
1024,0160;0,248552
1024,9802;0,249539
1025,9445;0,250455
1026,9087;0,251267
1027,8729;0,251935
1028,8372;0,252404
1029,8014;0,252605
1030,7656;0,252454
1031,7299;0,251858
1032,6941;0,250742
1033,6583;0,249081
1034,6226;0,246922
1035,5868;0,244388
1036,5510;0,241658
1037,5153;0,238937
1038,4795;0,236416
1039,4437;0,234255
1040,4080;0,23256
1041,3722;0,231381
1042,3364;0,2307
1043,3007;0,230436
1044,2649;0,230461
1045,2291;0,230625
1046,1934;0,230792
1047,1576;0,230859
1048,1218;0,230762
1049,0861;0,230457
1050,0503;0,229909
1051,0145;0,229085
1051,9788;0,227961
1052,9430;0,22654
1053,9072;0,224846
1054,8715;0,222913
1055,8357;0,220748
1056,7999;0,218318
1057,7642;0,215555
1058,7284;0,212388
1059,6926;0,208796
1060,6569;0,204836
1061,6211;0,200643
1062,5853;0,196399
1063,5496;0,192284
1064,5138;0,188426
1065,4780;0,184892
1066,4423;0,18168
1067,4065;0,178748
1068,3707;0,176038
1069,3350;0,173487
1070,2992;0,171042
1071,2634;0,168661
1072,2277;0,166304
1073,1919;0,163933
1074,1561;0,161517
1075,1204;0,159031
1076,0846;0,156476
1077,0488;0,153882
1078,0131;0,151311
1078,9773;0,148845
1079,9415;0,146567
1080,9058;0,144537
1081,8700;0,142782
1082,8342;0,141298
1083,7985;0,140061
1084,7627;0,139042
1085,7269;0,138219
1086,6912;0,137569
1087,6554;0,137072
1088,6196;0,136701
1089,5839;0,136434
1090,5481;0,136253
1091,5123;0,136152
1092,4766;0,136132
1093,4408;0,136195
1094,4050;0,136338
1095,3693;0,136546
1096,3335;0,136797
1097,2977;0,137068
1098,2620;0,137339
1099,2262;0,137589
1100,1904;0,137798
1101,1547;0,137945
1102,1189;0,138014
1103,0831;0,137994
1104,0474;0,137888
1105,0116;0,137709
1105,9758;0,137474
1106,9401;0,137193
1107,9043;0,136852
1108,8685;0,136412
1109,8328;0,135806
1110,7970;0,134959
1111,7612;0,133816
1112,7255;0,132363
1113,6897;0,130647
1114,6539;0,128768
1115,6182;0,126851
1116,5824;0,125009
1117,5466;0,123315
1118,5109;0,121778
1119,4751;0,120357
1120,4393;0,118975
1121,4036;0,117546
1122,3678;0,115992
1123,3320;0,114261
1124,2963;0,11233
1125,2605;0,110206
1126,2247;0,107924
1127,1890;0,105534
1128,1532;0,103088
1129,1174;0,100634
1130,0817;0,0982042
1131,0459;0,0958193
1132,0101;0,0934989
1132,9744;0,0912688
1133,9386;0,089167
1134,9028;0,0872429
1135,8671;0,0855506
1136,8313;0,0841398
1137,7955;0,0830476
1138,7598;0,0822915
1139,7240;0,0818676
1140,6882;0,0817514
1141,6525;0,0819028
1142,6167;0,082273
1143,5809;0,0828113
1144,5452;0,0834708
1145,5094;0,0842124
1146,4736;0,0850069
1147,4379;0,0858351
1148,4021;0,0866869
1149,3663;0,0875558
1150,3306;0,0884329
1151,2948;0,0892998
1152,2590;0,0901271
1153,2233;0,0908768
1154,1875;0,0915084
1155,1517;0,0919838
1156,1160;0,0922654
1157,0802;0,0923098
1158,0444;0,0920614
1159,0087;0,0914515
1159,9729;0,090408
1160,9371;0,0888739
1161,9014;0,0868269
1162,8656;0,0842928
1163,8298;0,0813477
1164,7941;0,0781072
1165,7583;0,0747087
1166,7225;0,0712909
1167,6868;0,067976
1168,6510;0,0648571
1169,6152;0,0619923
1170,5795;0,0594068
1171,5437;0,0571005
1172,5079;0,0550586
1173,4722;0,0532618
1174,4364;0,0516916
1175,4006;0,0503316
1176,3649;0,0491658
1177,3291;0,0481775
1178,2933;0,0473478
1179,2576;0,0466564
1180,2218;0,0460819
1181,1860;0,0456025
1182,1503;0,0451983
1183,1145;0,0448548
1184,0787;0,0445668
1185,0430;0,0443396
1186,0072;0,0441871
1186,9714;0,0441259
1187,9357;0,0441692
1188,8999;0,0443224
1189,8641;0,0445838
1190,8284;0,0449464
1191,7926;0,0454006
1192,7568;0,0459349
1193,7211;0,046535
1194,6853;0,0471828
1195,6495;0,0478584
1196,6138;0,0485437
1197,5780;0,0492253
1198,5422;0,0498956
1199,5065;0,050581
1200,4707;0,0512151
1201,4349;0,0518254
1202,3992;0,0524034
1203,3634;0,0529393
1204,3276;0,0534246
1205,2919;0,0538542
1206,2561;0,0542293
1207,2203;0,0545591
1208,1846;0,0548637
1209,1488;0,0551739
1210,1130;0,0555277
1211,0773;0,0559618
1212,0415;0,0565013
1213,0057;0,0571517
1213,9700;0,0578985
1214,9342;0,0587141
1215,8984;0,059569
1216,8627;0,0604396
1217,8269;0,0613115
1218,7911;0,0621759
1219,7554;0,0630266
1220,7196;0,063857
1221,6838;0,0646612
1222,6481;0,0654344
1223,6123;0,0661731
1224,5765;0,0668735
1225,5408;0,0675309
1226,5050;0,068142
1227,4692;0,0687074
1228,4335;0,0692333
1229,3977;0,0697268
1230,3619;0,0701894
1231,3262;0,0706107
1232,2904;0,0709696
1233,2546;0,0712435
1234,2189;0,0714208
1235,1831;0,0715095
1236,1473;0,0715344
1237,1116;0,0715268
1238,0758;0,0715101
1239,0400;0,071492
1240,0043;0,0714659
1240,9685;0,0714186
1241,9327;0,0713392
1242,8970;0,0712225
1243,8612;0,0710671
1244,8254;0,0708717
1245,7897;0,0706344
1246,7539;0,070354
1247,7181;0,0700337
1248,6824;0,0696824
1249,6466;0,0693131
1250,6108;0,0689397
1251,5751;0,0685738
1252,5393;0,0682232
1253,5035;0,0678918
1254,4678;0,0675792
1255,4320;0,0672805
1256,3962;0,0669865
1257,3605;0,0666865
1258,3247;0,0663709
1259,2889;0,0660341
1260,2532;0,0656753
1261,2174;0,0652961
1262,1816;0,0648971
1263,1459;0,0644761
1264,1101;0,0640283
1265,0743;0,0635488
1266,0386;0,0630354
1267,0028;0,0624898
1267,9670;0,0619171
1268,9313;0,0613243
1269,8955;0,0607185
1270,8597;0,0601046
1271,8240;0,0594862
1272,7882;0,0588661
1273,7524;0,0582494
1274,7167;0,0576441
1275,6809;0,0570602
1276,6451;0,0565058
1277,6094;0,0559815
1278,5736;0,0554777
1279,5378;0,0549767
1280,5021;0,05446
1281,4663;0,0539171
1282,4305;0,0533512
1283,3948;0,0527789
1284,3590;0,0522249
1285,3232;0,0517159
1286,2875;0,0512759
1287,2517;0,0509232
1288,2159;0,050668
1289,1802;0,0505108
1290,1444;0,0504419
1291,1086;0,0504449
1292,0729;0,0505036
1293,0371;0,050608
1294,0013;0,0507583
1294,9656;0,050963
1295,9298;0,051234
1296,8940;0,0515798
1297,8583;0,0520027
1298,8225;0,0524977
1299,7867;0,0530555
1300,7510;0,0536647
1301,7152;0,0543139
1302,6794;0,054995
1303,6437;0,0557043
1304,6079;0,0564423
1305,5721;0,0572105
1306,5364;0,0580074
1307,5006;0,0588262
1308,4648;0,0596566
1309,4291;0,0604891
1310,3933;0,0613156
1311,3575;0,0621269
1312,3218;0,0629058
1313,2860;0,0636231
1314,2502;0,0642399
1315,2145;0,0647171
1316,1787;0,0650256
1317,1429;0,0651558
1318,1072;0,0651215
1319,0714;0,0649588
1320,0356;0,0647154
1320,9999;0,0644375
1321,9641;0,0641582
1322,9283;0,0638958
1323,8926;0,0636593
1324,8568;0,0634534
1325,8210;0,0632811
1326,7853;0,0631433
1327,7495;0,0630353
1328,7137;0,0629459
1329,6780;0,0628579
1330,6422;0,0627501
1331,6064;0,0626023
1332,5707;0,0623984
1333,5349;0,0621261
1334,4991;0,0617739
1335,4634;0,0613277
1336,4276;0,0607742
1337,3918;0,060115
1338,3561;0,0593868
1339,3203;0,0586623
1340,2845;0,0580197
1341,2488;0,0574992
1342,2130;0,0570917
1343,1772;0,0567616
1344,1415;0,0564755
1345,1057;0,0562195
1346,0699;0,056002
1347,0342;0,0558469
1347,9984;0,0557811
1348,9626;0,0558206
1349,9269;0,0559637
1350,8911;0,0561918
1351,8553;0,0564777
1352,8196;0,0567959
1353,7838;0,0571321
1354,7480;0,0574855
1355,7123;0,0578637
1356,6765;0,0582718
1357,6407;0,0587053
1358,6050;0,0591498
1359,5692;0,0595872
1360,5334;0,0600044
1361,4977;0,0603999
1362,4619;0,0607825
1363,4261;0,0611608
1364,3904;0,0615348
1365,3546;0,0618971
1366,3188;0,062237
1367,2831;0,0625414
1368,2473;0,0627939
1369,2115;0,062974
1370,1758;0,0630576
1371,1400;0,0630174
1372,1042;0,0628279
1373,0685;0,0624798
1374,0327;0,0619982
1374,9969;0,0614388
1375,9612;0,0608527
1376,9254;0,0602489
1377,8896;0,0595942
1378,8539;0,0588476
1379,8181;0,0579996
1380,7823;0,0570899
1381,7466;0,0561856
1382,7108;0,0553354
1383,6750;0,0545374
1384,6393;0,0537479
1385,6035;0,0529273
1386,5677;0,0520942
1387,5320;0,0513367
1388,4962;0,0507488
1389,4604;0,0503578
1390,4247;0,0501212
1391,3889;0,0499699
1392,3531;0,0498445
1393,3174;0,0497138
1394,2816;0,0495842
1395,2458;0,0494925
1396,2101;0,0494811
1397,1743;0,0495709
1398,1385;0,0497532
1399,1028;0,0500008
1400,0670;0,0502834
1401,0313;0,0505775
1401,9955;0,0508721
1402,9597;0,0511685
1403,9240;0,0514783
1404,8882;0,051817
1405,8524;0,052194
1406,8167;0,0526075
1407,7809;0,0530512
1408,7451;0,0535266
1409,7094;0,0540453
1410,6736;0,0546208
1411,6378;0,0552529
1412,6021;0,0559224
1413,5663;0,0566002
1414,5305;0,0572625
1415,4948;0,0578939
1416,4590;0,0584825
1417,4232;0,0590143
1418,3875;0,0594741
1419,3517;0,0598435
1420,3159;0,0601012
1421,2802;0,0602298
1422,2444;0,0602203
1423,2086;0,0600751
1424,1729;0,0598114
1425,1371;0,0594553
1426,1013;0,0590188
1427,0656;0,0584797
1428,0298;0,0577929
1428,9940;0,0569398
1429,9583;0,0559784
1430,9225;0,0550283
1431,8867;0,0541866
1432,8510;0,0534575
1433,8152;0,0527533
1434,7794;0,0519588
1435,7437;0,0510343
1436,7079;0,0500927
1437,6721;0,049325
1438,6364;0,048827
1439,6006;0,0485593
1440,5648;0,0484394
1441,5291;0,0484101
1442,4933;0,0484493
1443,4575;0,0485543
1444,4218;0,0487236
1445,3860;0,0489466
1446,3502;0,0492046
1447,3145;0,0494795
1448,2787;0,0497603
1449,2429;0,0500442
1450,2072;0,0503323
1451,1714;0,0506265
1452,1356;0,050923
1453,0999;0,0511976
1454,0641;0,0513873
1455,0283;0,0513841
1455,9926;0,0510993
1456,9568;0,050625
1457,9210;0,0502362
1458,8853;0,0500781
1459,8495;0,0500781
1460,8137;0,0501147
1461,7780;0,0500771
1462,7422;0,049846
1463,7064;0,0493158
1464,6707;0,0484829
1465,6349;0,0474963
1466,5991;0,0465481
1467,5634;0,0457194
1468,5276;0,0449529
1469,4918;0,0441044
1470,4561;0,0429935
1471,4203;0,0414859
1472,3845;0,0396471
1473,3488;0,0378098
1474,3130;0,0363172
1475,2772;0,0352353
1476,2415;0,0344299
1477,2057;0,0337638
1478,1699;0,033165
1479,1342;0,0326099
1480,0984;0,0320987
1481,0626;0,0316438
1482,0269;0,0312639
1482,9911;0,0309748
1483,9553;0,0307777
1484,9196;0,0306518
1485,8838;0,0305588
1486,8480;0,0304614
1487,8123;0,0303618
1488,7765;0,0303309
1489,7407;0,0304591
1490,7050;0,0307591
1491,6692;0,0311701
1492,6334;0,0316351
1493,5977;0,03213
1494,5619;0,0326484
1495,5261;0,0331897
1496,4904;0,0337601
1497,4546;0,0343677
1498,4188;0,0350015
1499,3831;0,0356317
1500,3473;0,0362383
1501,3115;0,0368208
1502,2758;0,0373758
1503,2400;0,0378663
1504,2042;0,0381885
1505,1685;0,0381593
1506,1327;0,0376267
1507,0969;0,0367654
1508,0612;0,0360333
1509,0254;0,0356091
1509,9896;0,0353638
1510,9539;0,0351626
1511,9181;0,0349293
1512,8823;0,0346122
1513,8466;0,0341733
1514,8108;0,0336081
1515,7750;0,0329647
1516,7393;0,0323233
1517,7035;0,03174
1518,6677;0,0312053
1519,6320;0,0306625
1520,5962;0,0300729
1521,5604;0,0294691
1522,5247;0,0289344
1523,4889;0,0285307
1524,4531;0,0282664
1525,4174;0,0281186
1526,3816;0,0280633
1527,3458;0,0280856
1528,3101;0,028174
1529,2743;0,0283133
1530,2385;0,0284832
1531,2028;0,0286645
1532,1670;0,0288538
1533,1312;0,0290727
1534,0955;0,0293515
1535,0597;0,0297021
1536,0239;0,0301117
1536,9882;0,0305417
1537,9524;0,0309105
1538,9166;0,0310818
1539,8809;0,0309409
1540,8451;0,0305833
1541,8093;0,0302853
1542,7736;0,0301712
1543,7378;0,0301827
1544,7020;0,0302487
1545,6663;0,0303355
1546,6305;0,0304305
1547,5947;0,0305295
1548,5590;0,0306305
1549,5232;0,030734
1550,4874;0,0308479
1551,4517;0,0309877
1552,4159;0,0311703
1553,3801;0,031401
1554,3444;0,0316643
1555,3086;0,0319127
1556,2728;0,0320606
1557,2371;0,0320245
1558,2013;0,0318735
1559,1655;0,0318577
1560,1298;0,0320559
1561,0940;0,0323438
1562,0582;0,032657
1563,0225;0,0330027
1563,9867;0,0333878
1564,9509;0,0337963
1565,9152;0,0341999
1566,8794;0,0345845
1567,8436;0,0349747
1568,8079;0,0354239
1569,7721;0,0359597
1570,7363;0,0365504
1571,7006;0,0371438
1572,6648;0,0377147
1573,6290;0,0382704
1574,5933;0,038839
1575,5575;0,0394542
1576,5217;0,0401229
1577,4860;0,0408
1578,4502;0,0414366
1579,4144;0,0420356
1580,3787;0,0426338
1581,3429;0,0432614
1582,3071;0,0439264
1583,2714;0,0446227
1584,2356;0,0453428
1585,1998;0,0460848
1586,1641;0,0468466
1587,1283;0,0476147
1588,0925;0,04836
1589,0568;0,0490451
1590,0210;0,0496363
1590,9852;0,0501099
1591,9495;0,0504481
1592,9137;0,0506362
1593,8779;0,0506672
1594,8422;0,050553
1595,8064;0,0503258
1596,7706;0,0500265
1597,7349;0,049689
1598,6991;0,0493333
1599,6633;0,0489702
1600,6276;0,048609
1601,5918;0,048262
1602,5560;0,0479416
1603,5203;0,047654
1604,4845;0,0473944
1605,4487;0,0471478
1606,4130;0,0468968
1607,3772;0,0466341
1608,3414;0,0463755
1609,3057;0,0461598
1610,2699;0,0460263
1611,2341;0,0459877
1612,1984;0,0460204
1613,1626;0,046071
1614,1268;0,046071
1615,0911;0,0459726
1616,0553;0,0458027
1617,0195;0,0456622
1617,9838;0,045628
1618,9480;0,04569
1619,9122;0,0457922
1620,8765;0,0458794
1621,8407;0,0459166
1622,8049;0,0459025
1623,7692;0,0458707
1624,7334;0,0458599
1625,6976;0,0458819
1626,6619;0,0459254
1627,6261;0,0459817
1628,5903;0,0460591
1629,5546;0,0461753
1630,5188;0,0463375
1631,4830;0,0465263
1632,4473;0,0466841
1633,4115;0,0467148
1634,3757;0,046529
1635,3400;0,0461573
1636,3042;0,0457955
1637,2684;0,0456069
1638,2327;0,0455791
1639,1969;0,0456313
1640,1611;0,0457155
1641,1254;0,0458178
1642,0896;0,0459274
1643,0538;0,0460068
1644,0181;0,0459772
1644,9823;0,0457538
1645,9465;0,0453517
1646,9108;0,0449521
1647,8750;0,0447521
1648,8392;0,0447823
1649,8035;0,0449237
1650,7677;0,0449674
1651,7319;0,0446467
1652,6962;0,0438293
1653,6604;0,0428495
1654,6246;0,0421934
1655,5889;0,0419022
1656,5531;0,0417868
1657,5173;0,0417128
1658,4816;0,0416009
1659,4458;0,0413807
1660,4100;0,0409926
1661,3743;0,0404384
1662,3385;0,0398194
1663,3027;0,0392771
1664,2670;0,0388821
1665,2312;0,0385989
1666,1954;0,0383242
1667,1597;0,0379325
1668,1239;0,0373365
1669,0881;0,0365719
1670,0524;0,0358133
1671,0166;0,0352262
1671,9808;0,0348211
1672,9451;0,0344843
1673,9093;0,0340899
1674,8735;0,0335837
1675,8378;0,033016
1676,8020;0,0324987
1677,7662;0,0321159
1678,7305;0,031879
1679,6947;0,0317366
1680,6589;0,0315862
1681,6232;0,0312795
1682,5874;0,0306816
1683,5516;0,029835
1684,5159;0,029016
1685,4801;0,028447
1686,4443;0,0281067
1687,4086;0,0278809
1688,3728;0,0276971
1689,3370;0,0275395
1690,3013;0,0274218
1691,2655;0,0273588
1692,2297;0,0273435
1693,1940;0,027342
1694,1582;0,0273045
1695,1224;0,0271894
1696,0867;0,0269881
1697,0509;0,0267297
1698,0151;0,0264602
1698,9794;0,0262172
1699,9436;0,0260217
1700,9078;0,025884
1701,8721;0,0258081
1702,8363;0,025793
1703,8005;0,0258321
1704,7648;0,025916
1705,7290;0,0260385
1706,6932;0,0262007
1707,6575;0,0264091
1708,6217;0,0266695
1709,5859;0,0269846
1710,5502;0,0273514
1711,5144;0,027757
1712,4786;0,0281734
1713,4429;0,0285578
1714,4071;0,0288624
1715,3713;0,029065
1716,3356;0,029212
1717,2998;0,029403
1718,2640;0,0296885
1719,2283;0,0300367
1720,1925;0,0304069
1721,1567;0,0307884
1722,1210;0,0311822
1723,0852;0,031581
1724,0494;0,0319657
1725,0137;0,0323156
1725,9779;0,032622
1726,9421;0,0328944
1727,9064;0,0331528
1728,8706;0,0334111
1729,8348;0,033658
1730,7991;0,0338448
1731,7633;0,0338973
1732,7275;0,0337695
1733,6918;0,0335123
1734,6560;0,0332453
1735,6202;0,0330384
1736,5845;0,0328709
1737,5487;0,0326771
1738,5129;0,0323907
1739,4772;0,0319741
1740,4414;0,0314421
1741,4056;0,030857
1742,3699;0,0302833
1743,3341;0,0297469
1744,2983;0,0292354
1745,2626;0,028721
1746,2268;0,028171
1747,1910;0,0275472
1748,1553;0,026818
1749,1195;0,0259978
1750,0837;0,0251708
1751,0480;0,0244436
1752,0122;0,0238642
1752,9764;0,0234028
1753,9407;0,0229924
1754,9049;0,0225738
1755,8691;0,022123
1756,8334;0,0216547
1757,7976;0,0211991
1758,7618;0,0207682
1759,7261;0,0203448
1760,6903;0,0199081
1761,6545;0,0194674
1762,6188;0,0190665
1763,5830;0,0187487
1764,5472;0,018524
1765,5115;0,0183674
1766,4757;0,0182394
1767,4399;0,018104
1768,4042;0,0179344
1769,3684;0,0177099
1770,3326;0,017418
1771,2969;0,017072
1772,2611;0,0167284
1773,2253;0,0164624
1774,1896;0,0163147
1775,1538;0,0162717
1776,1180;0,0162884
1777,0823;0,0163144
1778,0465;0,0163112
1779,0107;0,0162642
1779,9750;0,0161875
1780,9392;0,0161111
1781,9034;0,0160567
1782,8677;0,0160254
1783,8319;0,0160063
1784,7961;0,0159936
1785,7604;0,0159939
1786,7246;0,0160188
1787,6888;0,0160709
1788,6531;0,0161333
1789,6173;0,0161687
1790,5815;0,0161367
1791,5458;0,0160259
1792,5100;0,0158767
1793,4742;0,0157525
1794,4385;0,0156891
1795,4027;0,0156829
1796,3669;0,015708
1797,3312;0,0157318
1798,2954;0,015726
1799,2596;0,0156801
1800,2239;0,0156094
1801,1881;0,0155468
1802,1523;0,0155194
1803,1166;0,0155338
1804,0808;0,0155784
1805,0450;0,0156336
1806,0093;0,015679
1806,9735;0,0156976
1807,9377;0,0156786
1808,9020;0,0156238
1809,8662;0,0155499
1810,8304;0,0154841
1811,7947;0,0154492
1812,7589;0,0154514
1813,7231;0,0154794
1814,6874;0,0155143
1815,6516;0,0155401
1816,6158;0,0155534
1817,5801;0,0155643
1818,5443;0,0155885
1819,5085;0,0156325
1820,4728;0,0156867
1821,4370;0,0157297
1822,4012;0,0157421
1823,3655;0,015719
1824,3297;0,0156742
1825,2939;0,0156285
1826,2582;0,0155915
1827,2224;0,0155539
1828,1866;0,0155
1829,1509;0,0154282
1830,1151;0,0153613
1831,0793;0,0153304
1832,0436;0,0153504
1833,0078;0,0154117
1833,9720;0,0154906
1834,9363;0,0155624
1835,9005;0,0156116
1836,8647;0,0156389
1837,8290;0,0156598
1838,7932;0,0156917
1839,7574;0,0157409
1840,7217;0,0157964
1841,6859;0,0158332
1842,6501;0,0158253
1843,6144;0,015767
1844,5786;0,0156825
1845,5428;0,0156075
1846,5071;0,0155629
1847,4713;0,0155491
1848,4355;0,0155559
1849,3998;0,0155713
1850,3640;0,0155871
1851,3282;0,0156013
1852,2925;0,0156168
1853,2567;0,015636
1854,2209;0,0156567
1855,1852;0,0156711
1856,1494;0,0156708
1857,1136;0,015653
1858,0779;0,0156245
1859,0421;0,0155991
1860,0063;0,0155919
1860,9706;0,0156103
1861,9348;0,0156501
1862,8990;0,0156968
1863,8633;0,0157317
1864,8275;0,0157388
1865,7917;0,0157111
1866,7560;0,0156575
1867,7202;0,0156057
1868,6844;0,0155855
1869,6487;0,0156032
1870,6129;0,0156364
1871,5771;0,0156589
1872,5414;0,0156611
1873,5056;0,0156497
1874,4698;0,0156398
1875,4341;0,0156457
1876,3983;0,0156745
1877,3625;0,0157224
1878,3268;0,0157766
1879,2910;0,0158224
1880,2552;0,01585
1881,2195;0,0158584
1882,1837;0,0158553
1883,1479;0,015852
1884,1122;0,0158578
1885,0764;0,0158731
1886,0406;0,0158889
1887,0049;0,0158919
1887,9691;0,0158733
1888,9333;0,0158378
1889,8976;0,0158018
1890,8618;0,0157814
1891,8260;0,0157802
1892,7903;0,0157882
1893,7545;0,0157913
1894,7188;0,0157831
1895,6830;0,0157713
1896,6472;0,015773
1897,6115;0,015801
1898,5757;0,0158525
1899,5399;0,0159096
1900,5042;0,0159498
1901,4684;0,0159579
1902,4326;0,0159337
1903,3969;0,0158903
1904,3611;0,0158462
1905,3253;0,015817
1906,2896;0,0158119
1907,2538;0,0158336
1908,2180;0,0158788
1909,1823;0,0159367
1910,1465;0,0159881
1911,1107;0,0160122
1912,0750;0,0159959
1913,0392;0,0159415
1914,0034;0,0158682
1914,9677;0,0158074
1915,9319;0,0157946
1916,8961;0,0158542
1917,8604;0,0159812
1918,8246;0,0161357
1919,7888;0,0162592
1920,7531;0,016303
1921,7173;0,0162493
1922,6815;0,0161193
1923,6458;0,0159663
1924,6100;0,0158537
1925,5742;0,0158246
1926,5385;0,0158843
1927,5027;0,0160032
1928,4669;0,0161344
1929,4312;0,0162349
1930,3954;0,0162837
1931,3596;0,016288
1932,3239;0,0162744
1933,2881;0,0162696
1934,2523;0,0162835
1935,2166;0,0163061
1936,1808;0,0163188
1937,1450;0,0163125
1938,1093;0,0162989
1939,0735;0,016307
1940,0377;0,0163671
1941,0020;0,0164897
1941,9662;0,0166498
1942,9304;0,016793
1943,8947;0,0168651
1944,8589;0,0168453
1945,8231;0,0167544
1946,7874;0,0166348
1947,7516;0,0165223
1948,7158;0,0164286
1949,6801;0,0163428
1950,6443;0,0162504
1951,6085;0,0161568
1952,5728;0,0160969
1953,5370;0,0161179
1954,5012;0,0162452
1955,4655;0,0164533
1956,4297;0,016665
1957,3939;0,0167864
1958,3582;0,0167593
1959,3224;0,0165997
1960,2866;0,016395
1961,2509;0,0162583
1962,2151;0,0162689
1963,1793;0,0164378
1964,1436;0,0167151
1965,1078;0,01702
1966,0720;0,017271
1967,0363;0,0174045
1968,0005;0,0173871
1968,9647;0,0172234
1969,9290;0,01696
1970,8932;0,0166782
1971,8574;0,0164729
1972,8217;0,0164189
1973,7859;0,0165368
1974,7501;0,0167769
1975,7144;0,0170358
1976,6786;0,0172048
1977,6428;0,0172232
1978,6071;0,0171009
1979,5713;0,016901
1980,5355;0,0167016
1981,4998;0,0165645
1982,4640;0,0165213
1983,4282;0,0165701
1984,3925;0,0166804
1985,3567;0,0168074
1986,3209;0,016915
1987,2852;0,0169945
1988,2494;0,0170671
1989,2136;0,017163
1990,1779;0,0172935
1991,1421;0,017434
1992,1063;0,0175377
1993,0706;0,01757
1994,0348;0,017537
1994,9990;0,017481
1995,9633;0,0174506
1996,9275;0,0174692
1997,8917;0,0175236
1998,8560;0,0175784
1999,8202;0,0176041
2000,7844;0,0175988
2001,7487;0,0175869
2002,7129;0,0176008
2003,6771;0,017662
2004,6414;0,0177767
2005,6056;0,0179451
2006,5698;0,0181696
2007,5341;0,0184496
2008,4983;0,0187626
2009,4625;0,019052
2010,4268;0,0192366
2011,3910;0,0192424
2012,3552;0,0190367
2013,3195;0,0186479
2014,2837;0,0181623
2015,2479;0,0177004
2016,2122;0,0173768
2017,1764;0,0172586
2018,1406;0,0173393
2019,1049;0,0175447
2020,0691;0,0177701
2021,0333;0,0179271
2021,9976;0,0179785
2022,9618;0,0179461
2023,9260;0,0178898
2024,8903;0,0178677
2025,8545;0,0179024
2026,8187;0,0179776
2027,7830;0,0180657
2028,7472;0,0181631
2029,7114;0,0183022
2030,6757;0,0185268
2031,6399;0,0188478
2032,6041;0,0192145
2033,5684;0,0195282
2034,5326;0,0196923
2035,4968;0,0196651
2036,4611;0,019477
2037,4253;0,0192064
2038,3895;0,0189369
2039,3538;0,0187249
2040,3180;0,0185897
2041,2822;0,0185227
2042,2465;0,0185054
2043,2107;0,0185238
2044,1749;0,0185737
2045,1392;0,0186541
2046,1034;0,0187554
2047,0676;0,0188524
2048,0320;0,018911
2048,9961;0,0189078
2049,9604;0,0188483
2050,9246;0,0187676
2051,8889;0,0187132
2052,8530;0,0187199
2053,8174;0,0187919
2054,7815;0,0188991
2055,7458;0,0189935
2056,7100;0,0190356
2057,6743;0,0190155
2058,6384;0,018954
2059,6028;0,0188855
2060,5669;0,0188367
2061,5313;0,0188143
2062,4954;0,0188101
2063,4597;0,0188136
2064,4238;0,0188229
2065,3882;0,0188437
2066,3523;0,0188782
2067,3167;0,0189165
2068,2808;0,0189369
2069,2451;0,0189194
2070,2092;0,0188602
2071,1736;0,0187779
2072,1377;0,0187046
2073,1021;0,0186668
2074,0662;0,0186677
2075,0305;0,0186849
2075,9946;0,0186851
2076,9590;0,018647
2077,9231;0,0185765
2078,8875;0,0185051
2079,8516;0,0184718
2080,8159;0,0185008
2081,7800;0,0185886
2082,7444;0,0187068
2083,7085;0,0188161
2084,6729;0,0188832
2085,6370;0,0188914
2086,6013;0,0188428
2087,5654;0,0187543
2088,5298;0,0186518
2089,4939;0,0185634
2090,4583;0,0185142
2091,4224;0,0185203
2092,3867;0,0185847
2093,3508;0,018696
2094,3152;0,0188305
2095,2793;0,0189575
2096,2437;0,0190473
2097,2078;0,0190778
2098,1721;0,0190407
2099,1362;0,018944
2100,1006;0,018811
2101,0647;0,0186769
2102,0291;0,0185765
2102,9932;0,0185334
2103,9575;0,0185509
2104,9216;0,0186121
2105,8860;0,01869
2106,8501;0,0187621
2107,8145;0,01882
2108,7786;0,0188683
2109,7429;0,018914
2110,7070;0,0189554
2111,6714;0,0189791
2112,6355;0,018969
2113,5999;0,0189199
2114,5640;0,0188455
2115,5283;0,0187751
2116,4924;0,0187383
2117,4568;0,0187487
2118,4209;0,0187969
2119,3853;0,0188555
2120,3494;0,0188953
2121,3137;0,0189006
2122,2778;0,0188776
2123,2422;0,0188494
2124,2063;0,0188448
2125,1707;0,0188839
2126,1348;0,0189698
2127,0991;0,0190879
2128,0632;0,019213
2129,0276;0,0193203
2129,9917;0,0193969
2130,9561;0,019448
2131,9202;0,0194951
2132,8845;0,0195659
2133,8486;0,0196787
2134,8130;0,0198295
2135,7771;0,0199897
2136,7415;0,0201177
2137,7056;0,0201783
2138,6699;0,0201596
2139,6340;0,02008
2140,5984;0,0199833
2141,5625;0,0199256
2142,5269;0,0199555
2143,4910;0,0200962
2144,4553;0,0203332
2145,4194;0,020619
2146,3838;0,020892
2147,3479;0,0211036
2148,3123;0,0212353
2149,2764;0,0212958
2150,2407;0,0213016
2151,2048;0,021261
2152,1692;0,0211775
2153,1333;0,0210744
2154,0977;0,0210204
2155,0618;0,0211262
2156,0261;0,0214945
2156,9902;0,0221294
2157,9546;0,0228657
2158,9187;0,02341
2159,8831;0,0235138
2160,8472;0,0231397
2161,8115;0,0224724
2162,7756;0,0217946
2163,7400;0,0213444
2164,7041;0,0212289
2165,6685;0,0214049
2166,6326;0,0217186
2167,5969;0,0219813
2168,5610;0,0220481
2169,5254;0,0218678
2170,4895;0,0214898
2171,4539;0,021036
2172,4180;0,0206477
2173,3823;0,0204284
2174,3464;0,0204031
2175,3108;0,0205158
2176,2749;0,0206668
2177,2393;0,0207674
2178,2034;0,0207798
2179,1677;0,0207197
2180,1318;0,0206323
2181,0962;0,0205597
2182,0603;0,0205234
2183,0247;0,0205255
2183,9888;0,0205593
2184,9531;0,0206161
2185,9172;0,0206832
2186,8816;0,0207404
2187,8457;0,0207631
2188,8101;0,0207343
2189,7742;0,0206564
2190,7385;0,0205516
2191,7026;0,0204493
2192,6670;0,0203682
2193,6311;0,0203046
2194,5955;0,0202359
2195,5596;0,0201354
2196,5239;0,0199908
2197,4880;0,0198144
2198,4524;0,0196411
2199,4165;0,0195138
2200,3809;0,0194663
2201,3450;0,0195091
2202,3093;0,019627
2203,2734;0,019786
2204,2378;0,0199463
2205,2019;0,0200737
2206,1663;0,0201454
2207,1304;0,0201496
2208,0947;0,0200846
2209,0588;0,0199588
2210,0232;0,0197937
2210,9873;0,0196239
2211,9517;0,0194912
2212,9158;0,0194324
2213,8801;0,0194656
2214,8442;0,0195807
2215,8086;0,0197399
2216,7727;0,0198885
2217,7371;0,0199724
2218,7012;0,0199558
2219,6655;0,0198348
2220,6296;0,0196392
2221,5940;0,0194233
2222,5581;0,0192455
2223,5225;0,0191468
2224,4866;0,0191361
2225,4509;0,0191904
2226,4150;0,0192691
2227,3794;0,0193355
2228,3435;0,0193701
2229,3079;0,0193734
2230,2720;0,0193564
2231,2363;0,0193275
2232,2004;0,0192865
2233,1648;0,0192275
2234,1289;0,0191487
2235,0933;0,0190592
2236,0574;0,0189796
2237,0217;0,0189328
2237,9858;0,0189329
2238,9502;0,0189763
2239,9143;0,0190425
2240,8787;0,019102
2241,8428;0,0191278
2242,8071;0,0191057
2243,7712;0,0190379
2244,7356;0,0189406
2245,6997;0,0188385
2246,6641;0,0187584
2247,6282;0,0187223
2248,5925;0,0187418
2249,5566;0,0188123
2250,5210;0,0189106
2251,4851;0,0190002
2252,4495;0,0190453
2253,4136;0,0190266
2254,3779;0,0189519
2255,3420;0,0188513
2256,3064;0,0187592
2257,2705;0,0186943
2258,2349;0,0186523
2259,1990;0,0186142
2260,1633;0,0185653
2261,1274;0,0185081
2262,0918;0,0184614
2263,0559;0,018446
2264,0203;0,0184674
2264,9844;0,0185096
2265,9487;0,0185438
2266,9128;0,0185441
2267,8772;0,0185008
2268,8413;0,0184218
2269,8057;0,0183241
2270,7698;0,0182243
2271,7341;0,0181339
2272,6982;0,0180612
2273,6626;0,0180151
2274,6267;0,0180059
2275,5911;0,0180409
2276,5552;0,0181187
2277,5195;0,0182249
2278,4836;0,018336
2279,4480;0,0184269
2280,4121;0,0184803
2281,3765;0,0184907
2282,3406;0,0184628
2283,3049;0,0184055
2284,2690;0,0183278
2285,2334;0,0182379
2286,1975;0,0181452
2287,1619;0,0180618
2288,1260;0,0179988
2289,0903;0,0179603
2290,0544;0,01794
2291,0188;0,0179233
2291,9829;0,0178979
2292,9473;0,0178626
2293,9114;0,0178295
2294,8757;0,0178164
2295,8398;0,0178337
2296,8042;0,0178763
2297,7683;0,0179273
2298,7327;0,0179705
2299,6968;0,0180018
2300,6611;0,0180312
2301,6252;0,018073
2302,5896;0,0181329
2303,5537;0,0182018
2304,5181;0,0182627
2305,4822;0,0183035
2306,4465;0,0183285
2307,4106;0,0183572
2308,3750;0,0184128
2309,3391;0,0185071
2310,3035;0,018634
2311,2676;0,0187738
2312,2319;0,0189066
2313,1960;0,0190221
2314,1604;0,019122
2315,1245;0,0192141
2316,0889;0,0193053
2317,0530;0,0193966
2318,0173;0,0194827
2318,9814;0,0195527
2319,9458;0,0195913
2320,9099;0,0195799
2321,8743;0,0195006
2322,8384;0,0193461
2323,8027;0,0191311
2324,7668;0,0188937
2325,7312;0,0186844
2326,6953;0,0185463
2327,6597;0,018499
2328,6238;0,0185298
2329,5881;0,0185969
2330,5522;0,0186432
2331,5166;0,0186216
2332,4807;0,0185176
2333,4451;0,0183555
2334,4092;0,0181809
2335,3735;0,0180339
2336,3376;0,0179293
2337,3020;0,017851
2338,2661;0,0177642
2339,2305;0,0176352
2340,1946;0,0174566
2341,1589;0,0172649
2342,1230;0,0171409
2343,0874;0,0171611
2344,0515;0,0173035
2345,0159;0,0174314
2345,9800;0,0174314
2346,9443;0,0173331
2347,9084;0,0172674
2348,8728;0,0173535
2349,8369;0,0176226
2350,8013;0,0180028
2351,7654;0,0183564
2352,7297;0,0185592
2353,6938;0,0185775
2354,6582;0,0184728
2355,6223;0,0183257
2356,5867;0,0181799
2357,5508;0,0180559
2358,5151;0,0179739
2359,4792;0,0179419
2360,4436;0,0179381
2361,4077;0,0179304
2362,3721;0,0179133
2363,3362;0,0179157
2364,3005;0,0179695
2365,2646;0,018079
2366,2290;0,0182238
2367,1931;0,0183863
2368,1575;0,0185684
2369,1216;0,0187819
2370,0859;0,0190249
2371,0500;0,0192704
2372,0144;0,0194747
2372,9785;0,0195971
2373,9429;0,0196174
2374,9070;0,0195405
2375,8713;0,0193915
2376,8354;0,0192043
2377,7998;0,0190126
2378,7639;0,0188429
2379,7283;0,0187127
2380,6924;0,0186312
2381,6567;0,0185998
2382,6208;0,0186139
2383,5852;0,0186643
2384,5493;0,0187386
2385,5137;0,0188238
2386,4778;0,0189079
2387,4421;0,0189817
2388,4063;0,01904
2389,3706;0,0190817
2390,3347;0,0191098
2391,2991;0,0191305
2392,2632;0,0191505
2393,2275;0,0191744
2394,1917;0,019202
2395,1560;0,0192285
2396,1201;0,0192469
2397,0845;0,0192526
2398,0486;0,0192467
2399,0129;0,0192378
2399,9771;0,0192387
2400,9414;0,0192599
2401,9055;0,0193048
2402,8699;0,019367
2403,8340;0,0194323
2404,7983;0,0194853
2405,7625;0,0195155
2406,7268;0,0195225
2407,6909;0,0195156
2408,6553;0,0195089
2409,6194;0,0195143
2410,5837;0,0195355
2411,5479;0,0195663
2412,5122;0,0195956
2413,4763;0,0196143
2414,4407;0,0196221
2415,4048;0,0196285
2416,3691;0,0196468
2417,3333;0,0196856
2418,2976;0,019742
2419,2617;0,0198022
2420,2261;0,0198476
2421,1902;0,0198652
2422,1545;0,0198535
2423,1187;0,0198238
2424,0830;0,0197943
2425,0471;0,0197817
2426,0115;0,0197952
2426,9756;0,0198329
2427,9399;0,0198844
2428,9041;0,0199362
2429,8684;0,0199768
2430,8325;0,0200018
2431,7969;0,0200136
2432,7610;0,0200201
2433,7253;0,0200293
2434,6895;0,0200457
2435,6538;0,0200682
2436,6179;0,0200909
2437,5823;0,0201062
2438,5464;0,0201088
2439,5107;0,020099
2440,4749;0,0200838
2441,4392;0,0200748
2442,4033;0,0200831
2443,3677;0,0201142
2444,3318;0,0201638
2445,2961;0,0202195
2446,2603;0,0202664
2447,2246;0,0202945
2448,1887;0,0203035
2449,1531;0,0203021
2450,1172;0,0203016
2451,0815;0,0203101
2452,0457;0,0203291
2453,0100;0,0203541
2453,9741;0,0203787
2454,9385;0,0203976
2455,9026;0,0204083
2456,8669;0,0204099
2457,8311;0,0204037
2458,7954;0,0203926
2459,7595;0,0203817
2460,7239;0,020377
2461,6880;0,0203836
2462,6523;0,0204037
2463,6165;0,0204357
2464,5808;0,0204761
2465,5449;0,0205209
2466,5093;0,0205666
2467,4734;0,0206099
2468,4377;0,0206462
2469,4019;0,0206706
2470,3662;0,0206802
2471,3303;0,0206764
2472,2947;0,0206666
2473,2588;0,0206619
2474,2231;0,0206725
2475,1873;0,0207024
2476,1516;0,0207465
2477,1157;0,0207921
2478,0801;0,0208244
2479,0442;0,0208337
2480,0085;0,0208196
2480,9727;0,0207917
2481,9370;0,0207654
2482,9011;0,0207551
2483,8655;0,0207687
2484,8296;0,0208043
2485,7939;0,0208515
2486,7581;0,020896
2487,7224;0,0209253
2488,6865;0,0209342
2489,6509;0,0209275
2490,6150;0,0209171
2491,5793;0,0209168
2492,5435;0,0209341
2493,5078;0,0209667
2494,4719;0,0210033
2495,4363;0,0210313
2496,4004;0,0210445
2497,3647;0,0210463
2498,3289;0,021046
2499,2932;0,0210515
2500,2573;0,0210629
2501,2217;0,021073
2502,1858;0,021073
2503,1501;0,0210601
2504,1143;0,0210401
2505,0786;0,0210253
2506,0427;0,021028
2507,0071;0,0210549
2507,9712;0,021105
2508,9355;0,0211707
2509,8997;0,0212405
2510,8640;0,0213013
2511,8281;0,0213417
2512,7925;0,0213561
2513,7566;0,0213471
2514,7209;0,0213257
2515,6851;0,0213062
2516,6494;0,0212986
2517,6135;0,0213026
2518,5779;0,0213087
2519,5420;0,0213054
2520,5063;0,0212889
2521,4705;0,0212678
2522,4348;0,0212593
2523,3989;0,0212781
2524,3633;0,0213263
2525,3274;0,0213902
2526,2917;0,0214477
2527,2559;0,0214797
2528,2202;0,02148
2529,1843;0,021457
2530,1487;0,0214266
2531,1128;0,0214032
2532,0771;0,0213923
2533,0413;0,0213911
2534,0056;0,021393
2534,9697;0,0213935
2535,9341;0,021393
2536,8982;0,0213961
2537,8625;0,0214084
2538,8267;0,0214331
2539,7910;0,0214689
2540,7551;0,0215104
2541,7195;0,0215494
2542,6836;0,0215769
2543,6479;0,0215861
2544,6121;0,0215742
2545,5764;0,0215442
2546,5405;0,0215049
2547,5049;0,0214693
2548,4690;0,0214507
2549,4333;0,021458
2550,3975;0,0214912
2551,3618;0,0215408
2552,3259;0,0215909
2553,2903;0,0216263
2554,2544;0,0216393
2555,2188;0,0216319
2556,1829;0,0216133
2557,1472;0,0215933
2558,1113;0,0215771
2559,0757;0,0215658
2560,0398;0,0215597
2561,0042;0,0215626
2561,9683;0,0215812
2562,9326;0,0216199
2563,8967;0,0216746
2564,8611;0,0217319
2565,8252;0,0217743
2566,7896;0,0217907
2567,7537;0,0217824
2568,7180;0,0217626
2569,6821;0,0217476
2570,6465;0,021747
2571,6106;0,0217596
2572,5750;0,0217751
2573,5391;0,0217825
2574,5034;0,0217759
2575,4675;0,0217571
2576,4319;0,0217329
2577,3960;0,0217109
2578,3604;0,0216978
2579,3245;0,0216987
2580,2888;0,0217178
2581,2529;0,021757
2582,2173;0,0218136
2583,1814;0,0218781
2584,1458;0,0219367
2585,1099;0,0219756
2586,0742;0,0219875
2587,0383;0,0219746
2588,0027;0,0219465
2588,9668;0,0219149
2589,9312;0,0218879
2590,8953;0,0218676
2591,8596;0,0218521
2592,8237;0,0218393
2593,7881;0,0218305
2594,7522;0,0218297
2595,7166;0,0218418
2596,6807;0,0218691
2597,6450;0,0219103
2598,6091;0,0219605
2599,5735;0,0220129
2600,5376;0,0220608
2601,5020;0,0220983
2602,4661;0,0221213
2603,4304;0,0221294
2604,3945;0,0221259
2605,3589;0,0221179
2606,3230;0,0221141
2607,2874;0,0221225
2608,2515;0,0221469
2609,2158;0,0221863
2610,1799;0,022235
2611,1443;0,0222851
2612,1084;0,0223281
2613,0728;0,0223584
2614,0369;0,0223741
2615,0012;0,022378
2615,9653;0,0223762
2616,9297;0,022376
2617,8938;0,0223823
2618,8582;0,0223964
2619,8223;0,0224165
2620,7866;0,0224389
2621,7507;0,0224609
2622,7151;0,0224818
2623,6792;0,0225024
2624,6436;0,0225237
2625,6077;0,022546
2626,5720;0,0225688
2627,5361;0,0225911
2628,5005;0,0226122
2629,4646;0,0226319
2630,4290;0,0226503
2631,3931;0,0226688
2632,3574;0,0226889
2633,3215;0,0227126
2634,2859;0,0227407
2635,2500;0,0227725
2636,2144;0,0228051
2637,1785;0,0228355
2638,1428;0,022862
2639,1069;0,0228853
2640,0713;0,0229084
2641,0354;0,0229344
2641,9998;0,0229644
2642,9639;0,0229962
2643,9282;0,0230257
2644,8923;0,0230492
2645,8567;0,0230656
2646,8208;0,0230785
2647,7852;0,0230938
2648,7493;0,0231172
2649,7136;0,0231508
2650,6777;0,0231909
2651,6421;0,0232303
2652,6062;0,023262
2653,5706;0,0232833
2654,5347;0,023297
2655,4990;0,0233095
2656,4631;0,0233268
2657,4275;0,0233507
2658,3916;0,0233787
2659,3560;0,0234066
2660,3201;0,0234319
2661,2844;0,0234551
2662,2485;0,0234791
2663,2129;0,0235059
2664,1770;0,0235348
2665,1414;0,0235623
2666,1055;0,0235845
2667,0698;0,0235991
2668,0339;0,0236069
2668,9983;0,0236112
2669,9624;0,0236161
2670,9268;0,0236246
2671,8909;0,0236384
2672,8552;0,0236576
2673,8193;0,0236813
2674,7837;0,0237079
2675,7478;0,023736
2676,7122;0,0237652
2677,6763;0,0237961
2678,6406;0,0238302
2679,6047;0,0238688
2680,5691;0,0239114
2681,5332;0,0239552
2682,4976;0,023996
2683,4617;0,0240295
2684,4260;0,0240541
2685,3901;0,0240715
2686,3545;0,0240868
2687,3186;0,0241059
2688,2830;0,0241332
2689,2471;0,0241699
2690,2114;0,0242135
2691,1755;0,0242596
2692,1399;0,0243036
2693,1040;0,0243424
2694,0684;0,0243746
2695,0325;0,0244008
2695,9968;0,024422
2696,9609;0,0244402
2697,9253;0,0244577
2698,8894;0,0244772
2699,8538;0,0245012
2700,8179;0,0245306
2701,7822;0,0245648
2702,7463;0,0246011
2703,7107;0,0246369
2704,6748;0,0246706
2705,6392;0,0247029
2706,6033;0,0247362
2707,5676;0,024773
2708,5317;0,024814
2709,4961;0,0248568
2710,4602;0,0248974
2711,4246;0,0249314
2712,3887;0,0249571
2713,3530;0,0249769
2714,3171;0,0249966
2715,2815;0,0250228
2716,2456;0,0250591
2717,2100;0,0251043
2718,1741;0,025152
2719,1384;0,0251933
2720,1025;0,0252217
2721,0669;0,0252355
2722,0310;0,0252388
2722,9954;0,025239
2723,9595;0,0252433
2724,9238;0,0252556
2725,8879;0,0252767
2726,8523;0,025305
2727,8164;0,0253391
2728,7808;0,0253788
2729,7449;0,0254242
2730,7092;0,025474
2731,6733;0,0255241
2732,6377;0,0255681
2733,6018;0,0255995
2734,5662;0,025615
2735,5303;0,0256163
2736,4946;0,02561
2737,4587;0,0256046
2738,4231;0,0256073
2739,3872;0,0256211
2740,3516;0,0256446
2741,3157;0,0256738
2742,2800;0,0257044
2743,2441;0,025733
2744,2085;0,0257583
2745,1726;0,0257793
2746,1370;0,0257955
2747,1011;0,0258073
2748,0654;0,0258164
2749,0295;0,0258267
2749,9939;0,0258426
2750,9580;0,0258673
2751,9224;0,0259006
2752,8865;0,0259393
2753,8508;0,0259788
2754,8149;0,0260152
2755,7793;0,0260472
2756,7434;0,0260755
2757,7078;0,0261014
2758,6719;0,0261255
2759,6362;0,0261483
2760,6003;0,0261709
2761,5647;0,0261962
2762,5288;0,026228
2763,4932;0,0262695
2764,4573;0,0263205
2765,4216;0,0263776
2766,3857;0,0264346
2767,3501;0,0264859
2768,3142;0,0265283
2769,2786;0,0265618
2770,2427;0,0265888
2771,2070;0,0266127
2772,1711;0,0266371
2773,1355;0,0266654
2774,0996;0,0267006
2775,0640;0,026744
2776,0281;0,0267944
2776,9924;0,0268471
2777,9565;0,0268959
2778,9209;0,0269363
2779,8850;0,0269685
2780,8494;0,0269983
2781,8135;0,0270341
2782,7778;0,0270818
2783,7419;0,0271413
2784,7063;0,0272061
2785,6704;0,0272672
2786,6348;0,0273185
2787,5989;0,0273606
2788,5632;0,0274005
2789,5273;0,0274475
2790,4917;0,0275084
2791,4558;0,0275838
2792,4202;0,0276682
2793,3843;0,0277535
2794,3486;0,0278325
2795,3127;0,0279019
2796,2771;0,0279632
2797,2412;0,028021
2798,2056;0,0280808
2799,1697;0,028147
2800,1340;0,0282214
2801,0981;0,0283041
2802,0625;0,0283941
2803,0266;0,0284901
2803,9910;0,0285905
2804,9551;0,0286928
2805,9194;0,0287936
2806,8835;0,0288897
2807,8479;0,0289792
2808,8120;0,0290634
2809,7764;0,0291459
2810,7405;0,029232
2811,7048;0,0293261
2812,6689;0,0294304
2813,6333;0,0295449
2814,5974;0,0296679
2815,5618;0,029797
2816,5259;0,0299297
2817,4902;0,0300636
2818,4543;0,030197
2819,4187;0,0303294
2820,3828;0,0304621
2821,3472;0,0305984
2822,3113;0,0307422
2823,2756;0,0308967
2824,2397;0,0310635
2825,2041;0,0312413
2826,1682;0,0314277
2827,1326;0,0316195
2828,0967;0,0318144
2829,0610;0,0320122
2830,0251;0,0322147
2830,9895;0,0324263
2831,9536;0,0326519
2832,9180;0,0328949
2833,8821;0,0331551
2834,8464;0,0334283
2835,8105;0,0337085
2836,7749;0,0339922
2837,7390;0,034282
2838,7034;0,034588
2839,6675;0,0349256
2840,6318;0,0353109
2841,5959;0,0357553
2842,5603;0,0362626
2843,5244;0,0368263
2844,4888;0,0374291
2845,4529;0,0380422
2846,4172;0,0386265
2847,3813;0,0391378
2848,3457;0,0395355
2849,3098;0,0397937
2850,2742;0,0399086
2851,2383;0,0399004
2852,2026;0,0398063
2853,1667;0,0396692
2854,1311;0,0395253
2855,0952;0,0393976
2856,0596;0,0392942
2857,0237;0,0392138
2857,9880;0,0391521
2858,9521;0,0391078
2859,9165;0,0390845
2860,8806;0,0390893
2861,8450;0,0391288
2862,8091;0,0392049
2863,7734;0,0393133
2864,7375;0,0394442
2865,7019;0,0395858
2866,6660;0,0397274
2867,6304;0,0398625
2868,5945;0,0399883
2869,5588;0,0401052
2870,5229;0,0402146
2871,4873;0,0403179
2872,4514;0,0404159
2873,4158;0,0405083
2874,3799;0,0405943
2875,3442;0,0406729
2876,3083;0,0407436
2877,2727;0,0408073
2878,2368;0,040867
2879,2012;0,0409282
2880,1653;0,0409971
2881,1296;0,0410792
2882,0938;0,0411766
2883,0581;0,0412866
2884,0222;0,0414032
2884,9866;0,0415193
2885,9507;0,0416302
2886,9150;0,0417357
2887,8792;0,0418391
2888,8435;0,0419439
2889,8076;0,0420511
2890,7720;0,0421575
2891,7361;0,0422579
2892,7004;0,0423489
2893,6646;0,042431
2894,6289;0,0425095
2895,5930;0,0425916
2896,5574;0,0426825
2897,5215;0,042783
2898,4858;0,0428896
2899,4500;0,0429966
2900,4143;0,0430996
2901,3784;0,0431971
2902,3428;0,043291
2903,3069;0,0433852
2904,2712;0,0434841
2905,2354;0,0435915
2906,1997;0,0437123
2907,1638;0,0438538
2908,1282;0,0440267
2909,0923;0,0442427
2910,0566;0,04451
2911,0208;0,0448267
2911,9851;0,045178
2912,9492;0,0455372
2913,9136;0,0458721
2914,8777;0,0461518
2915,8420;0,0463536
2916,8062;0,0464641
2917,7705;0,0464787
2918,7346;0,0463996
2919,6990;0,0462353
2920,6631;0,0460007
2921,6274;0,0457161
2922,5916;0,0454033
2923,5559;0,0450807
2924,5200;0,0447587
2925,4844;0,0444389
2926,4485;0,044118
2927,4128;0,0437928
2928,3770;0,0434651
2929,3413;0,0431418
2930,3054;0,0428316
2931,2698;0,0425401
2932,2339;0,0422672
2933,1982;0,0420065
2934,1624;0,0417491
2935,1267;0,0414873
2936,0908;0,0412179
2937,0552;0,0409427
2938,0193;0,040666
2938,9836;0,0403923
2939,9478;0,0401234
2940,9121;0,0398581
2941,8762;0,0395937
2942,8406;0,0393278
2943,8047;0,0390602
2944,7690;0,038793
2945,7332;0,0385303
2946,6975;0,0382768
2947,6616;0,0380371
2948,6260;0,0378146
2949,5901;0,0376117
2950,5544;0,0374286
2951,5186;0,0372626
2952,4829;0,0371078
2953,4470;0,0369557
2954,4114;0,0367973
2955,3755;0,0366255
2956,3398;0,0364375
2957,3040;0,0362354
2958,2683;0,0360247
2959,2324;0,0358119
2960,1968;0,0356025
2961,1609;0,0353997
2962,1252;0,0352049
2963,0894;0,0350186
2964,0537;0,0348402
2965,0178;0,0346689
2965,9822;0,034503
2966,9463;0,0343401
2967,9106;0,034177
2968,8748;0,03401
2969,8391;0,0338354
2970,8032;0,0336499
2971,7676;0,0334527
2972,7317;0,0332473
2973,6960;0,0330422
2974,6602;0,032849
2975,6245;0,032679
2976,5886;0,032538
2977,5530;0,0324242
2978,5171;0,0323291
2979,4814;0,0322412
2980,4456;0,0321512
2981,4099;0,0320551
2982,3740;0,0319551
2983,3384;0,0318577
2984,3025;0,0317704
2985,2668;0,0316985
2986,2310;0,0316432
2987,1953;0,0316011
2988,1594;0,0315662
2989,1238;0,031533
2990,0879;0,0315
2991,0522;0,0314705
2992,0164;0,0314503
2992,9807;0,0314435
2993,9448;0,0314496
2994,9092;0,0314637
2995,8733;0,0314797
2996,8376;0,0314944
2997,8018;0,031509
2998,7661;0,0315275
2999,7302;0,0315536
3000,6946;0,031588
3001,6587;0,0316284
3002,6230;0,0316709
3003,5872;0,0317124
3004,5515;0,0317508
3005,5156;0,0317841
3006,4800;0,0318105
3007,4441;0,0318285
3008,4084;0,0318392
3009,3726;0,0318462
3010,3369;0,0318559
3011,3010;0,0318749
3012,2654;0,0319075
3013,2295;0,0319549
3014,1938;0,0320157
3015,1580;0,0320872
3016,1223;0,0321661
3017,0864;0,032249
3018,0508;0,0323315
3019,0149;0,0324087
3019,9792;0,0324771
3020,9434;0,0325361
3021,9077;0,0325898
3022,8718;0,0326455
3023,8362;0,0327105
3024,8003;0,0327891
3025,7646;0,0328798
3026,7288;0,0329767
3027,6931;0,0330716
3028,6572;0,0331588
3029,6216;0,0332369
3030,5857;0,0333096
3031,5500;0,0333835
3032,5142;0,0334656
3033,4785;0,0335602
3034,4426;0,0336675
3035,4070;0,0337837
3036,3711;0,0339021
3037,3354;0,034015
3038,2996;0,0341165
3039,2639;0,0342048
3040,2280;0,0342834
3041,1924;0,0343603
3042,1565;0,0344453
3043,1208;0,0345455
3044,0850;0,0346627
3045,0493;0,0347923
3046,0134;0,0349256
3046,9778;0,035054
3047,9419;0,0351728
3048,9063;0,0352828
3049,8704;0,0353896
3050,8347;0,0354998
3051,7988;0,0356175
3052,7632;0,0357418
3053,7273;0,0358678
3054,6917;0,0359897
3055,6558;0,0361049
3056,6201;0,0362166
3057,5842;0,0363322
3058,5486;0,0364587
3059,5127;0,0365978
3060,4771;0,036743
3061,4412;0,0368829
3062,4055;0,0370065
3063,3696;0,0371102
3064,3340;0,0372
3065,2981;0,0372887
3066,2625;0,0373891
3067,2266;0,0375074
3068,1909;0,0376414
3069,1550;0,0377831
3070,1194;0,0379237
3071,0835;0,0380578
3072,0479;0,038184
3073,0120;0,0383033
3073,9763;0,0384178
3074,9404;0,0385307
3075,9048;0,0386463
3076,8689;0,0387692
3077,8333;0,038903
3078,7974;0,0390468
3079,7617;0,0391952
3080,7258;0,0393402
3081,6902;0,0394754
3082,6543;0,0395993
3083,6187;0,0397151
3084,5828;0,0398285
3085,5471;0,0399444
3086,5112;0,0400652
3087,4756;0,0401915
3088,4397;0,040323
3089,4041;0,0404587
3090,3682;0,0405968
3091,3325;0,0407338
3092,2966;0,0408659
3093,2610;0,040991
3094,2251;0,0411102
3095,1895;0,0412272
3096,1536;0,0413463
3097,1179;0,0414698
3098,0820;0,041598
3099,0464;0,0417311
3100,0105;0,0418709
3100,9749;0,0420197
3101,9390;0,0421776
3102,9033;0,0423403
3103,8674;0,0425005
3104,8318;0,0426522
3105,7959;0,0427955
3106,7603;0,0429368
3107,7244;0,0430845
3108,6887;0,0432422
3109,6528;0,0434052
3110,6172;0,0435631
3111,5813;0,0437072
3112,5457;0,0438367
3113,5098;0,0439597
3114,4741;0,0440883
3115,4382;0,0442306
3116,4026;0,0443861
3117,3667;0,044547
3118,3311;0,0447044
3119,2952;0,0448545
3120,2595;0,0450004
3121,2236;0,0451494
3122,1880;0,0453079
3123,1521;0,045477
3124,1165;0,0456529
3125,0806;0,045829
3126,0449;0,0460004
3127,0090;0,0461653
3127,9734;0,0463258
3128,9375;0,0464855
3129,9019;0,0466483
3130,8660;0,0468163
3131,8303;0,0469902
3132,7944;0,0471687
3133,7588;0,0473495
3134,7229;0,0475295
3135,6873;0,0477061
3136,6514;0,0478773
3137,6157;0,0480425
3138,5798;0,0482029
3139,5442;0,0483605
3140,5083;0,0485187
3141,4727;0,048681
3142,4368;0,0488505
3143,4011;0,0490292
3144,3652;0,049217
3145,3296;0,0494111
3146,2937;0,0496068
3147,2581;0,0497987
3148,2222;0,0499828
3149,1865;0,0501579
3150,1506;0,0503255
3151,1150;0,0504894
3152,0791;0,0506534
3153,0435;0,0508203
3154,0076;0,0509908
3154,9719;0,0511639
3155,9360;0,0513381
3156,9004;0,051512
3157,8645;0,0516862
3158,8289;0,0518623
3159,7930;0,0520426
3160,7573;0,0522281
3161,7214;0,0524178
3162,6858;0,0526086
3163,6499;0,0527971
3164,6143;0,0529815
3165,5784;0,0531623
3166,5427;0,0533426
3167,5068;0,0535267
3168,4712;0,0537181
3169,4353;0,0539329
3170,3997;0,0541408
3171,3638;0,0543517
3172,3281;0,0545587
3173,2922;0,0547553
3174,2566;0,054937
3175,2207;0,0551042
3176,1851;0,0552616
3177,1492;0,055416
3178,1135;0,0555736
3179,0776;0,0557375
3180,0420;0,0559081
3181,0061;0,0560852
3181,9705;0,0562693
3182,9346;0,0564615
3183,8989;0,0566609
3184,8630;0,0568633
3185,8274;0,0570624
3186,7915;0,057253
3187,7559;0,0574356
3188,7200;0,057616
3189,6843;0,0578026
3190,6484;0,0579999
3191,6128;0,0582051
3192,5769;0,0584081
3193,5413;0,0585973
3194,5054;0,0587665
3195,4697;0,0589186
3196,4338;0,0590649
3197,3982;0,0592186
3198,3623;0,0593881
3199,3267;0,0595726
3200,2908;0,0597638
3201,2551;0,059951
3202,2192;0,060127
3203,1836;0,0602904
3204,1477;0,0604452
3205,1121;0,060597
3206,0762;0,0607501
3207,0405;0,0609065
3208,0046;0,0610667
3208,9690;0,0612309
3209,9331;0,0613998
3210,8975;0,0615743
3211,8616;0,0617548
3212,8259;0,0619406
3213,7900;0,0621288
3214,7544;0,0623149
3215,7185;0,0624925
3216,6829;0,0626555
3217,6470;0,0628014
3218,6113;0,0629339
3219,5754;0,0630638
3220,5398;0,0632052
3221,5039;0,0633685
3222,4683;0,0635543
3223,4324;0,0637528
3224,3967;0,0639484
3225,3608;0,0641294
3226,3252;0,0642932
3227,2893;0,0644469
3228,2537;0,0646009
3229,2178;0,0647608
3230,1821;0,0649243
3231,1462;0,0650844
3232,1106;0,0652362
3233,0747;0,0653822
3234,0391;0,0655314
3235,0032;0,0656934
3235,9675;0,0658721
3236,9316;0,0660635
3237,8960;0,066258
3238,8601;0,0664466
3239,8245;0,0666239
3240,7886;0,066789
3241,7529;0,0669434
3242,7170;0,0670889
3243,6814;0,0672285
3244,6455;0,0673673
3245,6099;0,0675128
3246,5740;0,0676723
3247,5383;0,0678491
3248,5024;0,0680408
3249,4668;0,0682399
3250,4309;0,0684382
3251,3953;0,0686299
3252,3594;0,068813
3253,3237;0,0689881
3254,2878;0,0691553
3255,2522;0,0693147
3256,2163;0,0694674
3257,1807;0,0696184
3258,1448;0,0697758
3259,1091;0,0699482
3260,0732;0,0701396
3261,0376;0,0703462
3262,0017;0,0705578
3262,9661;0,0707628
3263,9302;0,070954
3264,8945;0,0711307
3265,8586;0,0712967
3266,8230;0,0714556
3267,7871;0,0716062
3268,7515;0,0717419
3269,7156;0,0718542
3270,6799;0,0719379
3271,6440;0,0719955
3272,6084;0,0720374
3273,5725;0,0720783
3274,5369;0,0721307
3275,5010;0,0721992
3276,4653;0,0722794
3277,4294;0,0723607
3278,3938;0,0724325
3279,3579;0,0724896
3280,3223;0,0725339
3281,2864;0,0725727
3282,2507;0,0726144
3283,2148;0,0726638
3284,1792;0,0727215
3285,1433;0,0727846
3286,1077;0,0728491
3287,0718;0,0729116
3288,0361;0,0729693
3289,0002;0,07302
3289,9646;0,0730618
3290,9287;0,0730941
3291,8931;0,0731189
3292,8572;0,0731401
3293,8215;0,073162
3294,7856;0,0731873
3295,7500;0,0732151
3296,7141;0,073242
3297,6785;0,0732638
3298,6426;0,0732787
3299,6069;0,0732886
3300,5710;0,0732983
3301,5354;0,0733124
3302,4995;0,0733325
3303,4639;0,0733549
3304,4280;0,073373
3305,3923;0,0733811
3306,3564;0,0733787
3307,3208;0,0733722
3308,2849;0,0733719
3309,2493;0,0733877
3310,2134;0,0734236
3311,1777;0,0734772
3312,1418;0,0735417
3313,1062;0,0736105
3314,0703;0,0736806
3315,0347;0,0737536
3315,9988;0,0738342
3316,9631;0,073927
3317,9272;0,0740335
3318,8916;0,0741505
3319,8557;0,0742708
3320,8201;0,0743853
3321,7842;0,0744872
3322,7485;0,0745751
3323,7126;0,0746532
3324,6770;0,07473
3325,6411;0,0748135
3326,6055;0,0749076
3327,5696;0,0750102
3328,5339;0,0751139
3329,4980;0,075209
3330,4624;0,0752861
3331,4265;0,0753387
3332,3909;0,0753638
3333,3550;0,0753627
3334,3193;0,0753413
3335,2834;0,0753077
3336,2478;0,0752686
3337,2119;0,0752256
3338,1763;0,075174
3339,1404;0,0751053
3340,1047;0,0750143
3341,0688;0,0749034
3342,0332;0,0747835
3342,9973;0,0746673
3343,9617;0,0745615
3344,9258;0,0744613
3345,8901;0,0743536
3346,8542;0,074225
3347,8186;0,0740709
3348,7827;0,0738976
3349,7471;0,0737176
3350,7112;0,0735406
3351,6755;0,073369
3352,6396;0,0731992
3353,6040;0,0730284
3354,5681;0,0728591
3355,5325;0,0726979
3356,4966;0,0725502
3357,4609;0,0724138
3358,4250;0,07228
3359,3894;0,0721399
3360,3535;0,0719913
3361,3179;0,0718419
3362,2820;0,071704
3363,2463;0,0715857
3364,2104;0,0714847
3365,1748;0,0713883
3366,1389;0,07128
3367,1033;0,0711473
3368,0674;0,0709868
3369,0317;0,0708044
3369,9958;0,0706116
3370,9602;0,0704215
3371,9243;0,070245
3372,8887;0,0700886
3373,8528;0,0699529
3374,8171;0,0698326
3375,7813;0,069718
3376,7456;0,0695993
3377,7097;0,0694702
3378,6741;0,0693302
3379,6382;0,0691833
3380,6025;0,0690353
3381,5667;0,0688907
3382,5310;0,0687522
3383,4951;0,0686215
3384,4595;0,0685004
3385,4236;0,0683903
3386,3879;0,0682898
3387,3521;0,0681927
3388,3164;0,0680888
3389,2805;0,0679676
3390,2449;0,0678234
3391,2090;0,0676588
3392,1733;0,0674849
3393,1375;0,0673158
3394,1018;0,0671625
3395,0659;0,0670277
3396,0303;0,0669061
3396,9944;0,0667874
3397,9587;0,066661
3398,9229;0,0665196
3399,8872;0,0663611
3400,8513;0,066188
3401,8157;0,0660067
3402,7798;0,0658254
3403,7441;0,0656512
3404,7083;0,0654885
3405,6726;0,065337
3406,6367;0,0651922
3407,6011;0,0650469
3408,5652;0,0648938
3409,5295;0,0647278
3410,4937;0,0645473
3411,4580;0,0643549
3412,4221;0,0641555
3413,3865;0,0639541
3414,3506;0,0637524
3415,3149;0,0635477
3416,2791;0,0633337
3417,2434;0,0631045
3418,2075;0,0628596
3419,1719;0,0626061
3420,1360;0,0623567
3421,1003;0,0621243
3422,0645;0,0619159
3423,0288;0,0617301
3423,9929;0,06156
3424,9573;0,0613964
3425,9214;0,0612309
3426,8857;0,0610565
3427,8499;0,0608672
3428,8142;0,0606599
3429,7783;0,0604351
3430,7427;0,0601984
3431,7068;0,0599588
3432,6711;0,0597256
3433,6353;0,0595046
3434,5996;0,0592962
3435,5637;0,0590957
3436,5281;0,0588962
3437,4922;0,0586919
3438,4565;0,0584811
3439,4207;0,0582665
3440,3850;0,0580519
3441,3491;0,0578382
3442,3135;0,0576201
3443,2776;0,0573879
3444,2419;0,0571338
3445,2061;0,0568595
3446,1704;0,0565799
3447,1345;0,0563161
3448,0989;0,0560827
3449,0630;0,0558776
3450,0273;0,0556829
3450,9915;0,055477
3451,9558;0,0552478
3452,9199;0,0549998
3453,8843;0,0547498
3454,8484;0,0545158
3455,8127;0,0543044
3456,7769;0,0541061
3457,7412;0,0539025
3458,7053;0,0536771
3459,6697;0,0534252
3460,6338;0,0531552
3461,5981;0,0528834
3462,5623;0,0526246
3463,5266;0,0523864
3464,4907;0,0521671
3465,4551;0,051959
3466,4192;0,0517527
3467,3835;0,0515403
3468,3477;0,0513163
3469,3120;0,0510784
3470,2761;0,0508258
3471,2405;0,0505608
3472,2046;0,0502886
3473,1689;0,0500191
3474,1331;0,0497643
3475,0974;0,0495331
3476,0615;0,0493262
3477,0259;0,0491335
3477,9900;0,0489376
3478,9543;0,0487227
3479,9185;0,0484831
3480,8828;0,0482262
3481,8469;0,0479673
3482,8113;0,0477184
3483,7754;0,0474803
3484,7397;0,0472444
3485,7039;0,0470023
3486,6682;0,046755
3487,6323;0,0465144
3488,5967;0,0462957
3489,5608;0,0461041
3490,5251;0,0459278
3491,4893;0,0457426
3492,4536;0,0455252
3493,4177;0,045268
3494,3821;0,0449861
3495,3462;0,0447116
3496,3105;0,0444745
3497,2747;0,0442836
3498,2390;0,0441189
3499,2031;0,0439425
3500,1675;0,0437197
3501,1316;0,0434398
3502,0959;0,0431257
3503,0601;0,042822
3504,0244;0,0425649
3504,9885;0,0423592
3505,9529;0,0421804
3506,9170;0,041994
3507,8813;0,041778
3508,8455;0,0415338
3509,8098;0,0412827
3510,7739;0,0410487
3511,7383;0,040842
3512,7024;0,0406554
3513,6667;0,0404748
3514,6309;0,0402903
3515,5952;0,0401021
3516,5593;0,0399165
3517,5237;0,0397376
3518,4878;0,0395612
3519,4521;0,0393759
3520,4163;0,0391697
3521,3806;0,0389371
3522,3447;0,0386823
3523,3091;0,0384154
3524,2732;0,0381452
3525,2375;0,037876
3526,2017;0,0376103
3527,1660;0,0373552
3528,1301;0,0371239
3529,0945;0,0369284
3530,0586;0,0367698
3531,0229;0,0366328
3531,9871;0,0364917
3532,9514;0,0363216
3533,9155;0,0361104
3534,8799;0,0358664
3535,8440;0,0356165
3536,8083;0,0353933
3537,7725;0,0352184
3538,7368;0,0350909
3539,7009;0,0349893
3540,6653;0,0348791
3541,6294;0,0347238
3542,5938;0,0344973
3543,5579;0,034199
3544,5222;0,0338623
3545,4863;0,0335431
3546,4507;0,0332857
3547,4148;0,0330945
3548,3792;0,032936
3549,3433;0,0327636
3550,3076;0,0325451
3551,2717;0,03228
3552,2361;0,0320011
3553,2002;0,0317543
3554,1646;0,0315674
3555,1287;0,0314337
3556,0930;0,0313212
3557,0571;0,0311961
3558,0215;0,0310444
3558,9856;0,0308804
3559,9500;0,0307356
3560,9141;0,0306321
3561,8784;0,0305572
3562,8425;0,0304569
3563,8069;0,0302516
3564,7710;0,0298783
3565,7354;0,0293543
3566,6995;0,028807
3567,6638;0,0283919
3568,6279;0,0281671
3569,5923;0,0280785
3570,5564;0,0280368
3571,5208;0,0279733
3572,4849;0,0278535
3573,4492;0,0276752
3574,4133;0,0274604
3575,3777;0,0272385
3576,3418;0,027028
3577,3062;0,0268318
3578,2703;0,026648
3579,2346;0,0264841
3580,1987;0,0263579
3581,1631;0,0262821
3582,1272;0,0262449
3583,0916;0,0261996
3584,0557;0,0260713
3585,0200;0,0257883
3585,9841;0,0253412
3586,9485;0,0248287
3587,9126;0,0244049
3588,8770;0,0241543
3589,8411;0,024047
3590,8054;0,0239967
3591,7695;0,023922
3592,7339;0,0237748
3593,6980;0,0235526
3594,6624;0,0232924
3595,6265;0,0230372
3596,5908;0,0228009
3597,5549;0,0225679
3598,5193;0,0223254
3599,4834;0,0220913
3600,4478;0,0219113
3601,4119;0,0218244
3602,3762;0,0218279
3603,3403;0,0218761
3604,3047;0,0219062
3605,2688;0,0218695
3606,2332;0,0217572
3607,1973;0,021607
3608,1616;0,0214749
3609,1257;0,0213852
3610,0901;0,0213114
3611,0542;0,0212068
3612,0186;0,0210487
3612,9827;0,0208533
3613,9470;0,0206555
3614,9111;0,0204715
3615,8755;0,0202765
3616,8396;0,0200169
3617,8040;0,0196566
3618,7681;0,0192293
3619,7324;0,0188414
3620,6965;0,0186012
3621,6609;0,0185496
3622,6250;0,0186583
3623,5894;0,0188612
3624,5535;0,0190651
3625,5178;0,0191467
3626,4819;0,0189752
3627,4463;0,018507
3628,4104;0,0178932
3629,3748;0,0173945
3630,3389;0,0171366
3631,3032;0,0170612
3632,2673;0,0170614
3633,2317;0,017065
3634,1958;0,0170435
3635,1602;0,0169992
3636,1243;0,0169485
3637,0886;0,0169061
3638,0527;0,0168772
3639,0171;0,016863
3639,9812;0,0168729
3640,9456;0,0169275
3641,9097;0,0170501
3642,8740;0,0172484
3643,8381;0,0174964
3644,8025;0,0177186
3645,7666;0,0177821
3646,7310;0,0175283
3647,6951;0,0169106
3648,6594;0,0161675
3649,6235;0,0156747
3650,5879;0,0155493
3651,5520;0,015641
3652,5164;0,0157722
3653,4805;0,0158272
3654,4448;0,0157448
3655,4089;0,0155265
3656,3733;0,0152454
3657,3374;0,0150046
3658,3018;0,0148632
3659,2659;0,0148122
3660,2302;0,0148126
3661,1943;0,0148407
3662,1587;0,0149052
3663,1228;0,015032
3664,0872;0,0152306
3665,0513;0,0154669
3666,0156;0,0156617
3666,9797;0,0157198
3667,9441;0,0155936
3668,9082;0,0153555
3669,8726;0,0151691
3670,8367;0,0151351
3671,8010;0,0151952
3672,7651;0,0151864
3673,7295;0,0149523
3674,6936;0,0144637
3675,6580;0,0138905
3676,6221;0,0134749
3677,5864;0,0133098
3678,5505;0,0133257
3679,5149;0,0134207
3680,4790;0,0135348
3681,4434;0,0136565
3682,4075;0,0138034
3683,3718;0,0139949
3684,3359;0,0142226
3685,3003;0,0144302
3686,2644;0,0145122
3687,2288;0,014354
3688,1929;0,0139284
3689,1572;0,0133785
3690,1213;0,0129303
3691,0857;0,012702
3692,0498;0,0126651
3693,0142;0,0127387
3693,9783;0,0128571
3694,9426;0,0129819
3695,9067;0,0130939
3696,8711;0,0131798
3697,8352;0,0132212
3698,7996;0,0131945
3699,7637;0,0130871
3700,7280;0,0129236
3701,6921;0,0127727
3702,6565;0,0127143
3703,6206;0,0127893
3704,5850;0,0129827
3705,5491;0,0132392
3706,5134;0,0134807
3707,4775;0,0136161
3708,4419;0,0135651
3709,4060;0,0133158
3710,3704;0,0129833
3711,3345;0,0127556
3712,2988;0,0127303
3713,2629;0,0128588
3714,2273;0,0130422
3715,1914;0,0132081
3716,1558;0,0133171
3717,1199;0,0133499
3718,0842;0,013304
3719,0483;0,0131969
3720,0127;0,0130601
3720,9768;0,0129186
3721,9412;0,0127752
3722,9053;0,0126182
3723,8696;0,0124499
3724,8337;0,0123066
3725,7981;0,012247
3726,7622;0,0123159
3727,7266;0,0125193
3728,6907;0,012824
3729,6550;0,0131678
3730,6191;0,0134648
3731,5835;0,0136135
3732,5476;0,0135262
3733,5120;0,0131962
3734,4761;0,0127607
3735,4404;0,012444
3736,4045;0,0123885
3737,3689;0,0125869
3738,3330;0,0129638
3739,2974;0,0134448
3740,2615;0,0139548
3741,2258;0,0143951
3742,1899;0,0146518
3743,1543;0,014669
3744,1184;0,0145363
3745,0828;0,0144337
3746,0469;0,0144576
3747,0112;0,0145578
3747,9753;0,0146033
3748,9397;0,0144681
3749,9038;0,0141371
3750,8682;0,0137718
3751,8323;0,0135704
3752,7966;0,0135704
3753,7607;0,013678
3754,7251;0,0137885
3755,6892;0,013829
3756,6536;0,0137668
3757,6177;0,0136285
3758,5820;0,0134978
3759,5461;0,0134599
3760,5105;0,0135385
3761,4746;0,0136941
3762,4390;0,0138665
3763,4031;0,0140075
3764,3674;0,0140904
3765,3315;0,0141076
3766,2959;0,0140626
3767,2600;0,0139631
3768,2244;0,013823
3769,1885;0,0136729
3770,1528;0,0135606
3771,1169;0,0135316
3772,0813;0,0136024
3773,0454;0,0137526
3774,0098;0,0139346
3774,9739;0,0140889
3775,9382;0,0141599
3776,9023;0,0141201
3777,8667;0,0139936
3778,8308;0,0138487
3779,7952;0,0137486
3780,7593;0,0137072
3781,7236;0,0136955
3782,6877;0,0136774
3783,6521;0,0136373
3784,6162;0,0135854
3785,5806;0,0135459
3786,5447;0,0135398
3787,5090;0,0135752
3788,4731;0,01365
3789,4375;0,013758
3790,4016;0,0138901
3791,3660;0,0140317
3792,3301;0,014164
3793,2944;0,0142728
3794,2585;0,0143607
3795,2229;0,0144473
3796,1870;0,0145496
3797,1514;0,0146542
3798,1155;0,0147088
3799,0798;0,0146523
3800,0439;0,0144734
3801,0083;0,0142472
3801,9724;0,014084
3802,9368;0,0140287
3803,9009;0,0140318
3804,8652;0,0140055
3805,8293;0,0138952
3806,7937;0,0137287
3807,7578;0,0136067
3808,7222;0,0136236
3809,6863;0,0138015
3810,6506;0,0140943
3811,6147;0,0144209
3812,5791;0,0146899
3813,5432;0,0148297
3814,5076;0,014832
3815,4717;0,0147634
3816,4360;0,0147007
3817,4001;0,0146536
3818,3645;0,0145658
3819,3286;0,0143855
3820,2930;0,0141328
3821,2571;0,0138989
3822,2214;0,0137636
3823,1855;0,0137369
3824,1499;0,0137839
3825,1140;0,0138684
3826,0784;0,0139693
3827,0425;0,014077
3828,0068;0,0141869
3828,9709;0,0142956
3829,9353;0,0144025
3830,8994;0,0145145
3831,8638;0,0146434
3832,8279;0,0147927
3833,7922;0,0149408
3834,7563;0,0150344
3835,7207;0,0150071
3836,6848;0,0148235
3837,6492;0,0145208
3838,6133;0,0141979
3839,5776;0,0139451
3840,5417;0,0137894
3841,5061;0,0137093
3842,4702;0,0136803
3843,4346;0,0137025
3844,3987;0,0137982
3845,3630;0,0139949
3846,3271;0,0143078
3847,2915;0,0147306
3848,2556;0,0152265
3849,2200;0,0157096
3850,1841;0,0160228
3851,1484;0,0159575
3852,1125;0,0154123
3853,0769;0,0146246
3854,0410;0,0140242
3855,0054;0,0137805
3855,9695;0,0137984
3856,9338;0,0139615
3857,8979;0,0141966
3858,8623;0,0144421
3859,8264;0,014629
3860,7908;0,0146985
3861,7549;0,0146414
3862,7192;0,0145241
3863,6833;0,0144515
3864,6477;0,0144866
3865,6118;0,0146098
3866,5762;0,014746
3867,5403;0,0148119
3868,5046;0,0147531
3869,4688;0,0145707
3870,4331;0,0143256
3871,3972;0,014106
3872,3616;0,0139801
3873,3257;0,0139718
3874,2900;0,0140669
3875,2542;0,0142285
3876,2185;0,0144073
3877,1826;0,0145516
3878,1470;0,0146241
3879,1111;0,0146218
3880,0754;0,0145798
3881,0396;0,0145422
3882,0039;0,0145239
3882,9680;0,014506
3883,9324;0,0144692
3884,8965;0,0144238
3885,8608;0,014403
3886,8250;0,0144248
3887,7893;0,0144657
3888,7534;0,0144696
3889,7178;0,0143865
3890,6819;0,0142226
3891,6462;0,0140624
3892,6104;0,0140148
3893,5747;0,014129
3894,5388;0,0143743
3895,5032;0,0146792
3896,4673;0,0149663
3897,4316;0,0151709
3898,3958;0,0152554
3899,3601;0,0152152
3900,3242;0,0150653
3901,2886;0,0148237
3902,2527;0,0145192
3903,2170;0,0142102
3904,1812;0,0139712
3905,1455;0,0138493
3906,1096;0,0138407
3907,0740;0,0139072
3908,0381;0,014006
3909,0024;0,0141075
3909,9666;0,0142023
3910,9309;0,014296
3911,8950;0,0143971
3912,8594;0,014502
3913,8235;0,0145888
3914,7878;0,0146276
3915,7520;0,0146032
3916,7163;0,0145342
3917,6804;0,014466
3918,6448;0,0144372
3919,6089;0,0144513
3920,5732;0,0144799
3921,5374;0,0144872
3922,5017;0,0144555
3923,4658;0,0143995
3924,4302;0,0143585
3925,3943;0,0143661
3926,3586;0,0144235
3927,3228;0,0144982
3928,2871;0,0145441
3929,2512;0,0145261
3930,2156;0,0144405
3931,1797;0,0143195
3932,1440;0,014212
3933,1082;0,0141526
3934,0725;0,0141485
3935,0366;0,0141893
3936,0010;0,0142613
3936,9651;0,0143505
3937,9294;0,0144386
3938,8936;0,0145027
3939,8579;0,0145227
3940,8220;0,0144959
3941,7864;0,0144441
3942,7505;0,0144033
3943,7148;0,0143985
3944,6790;0,014426
3945,6433;0,0144577
3946,6074;0,0144614
3947,5718;0,0144233
3948,5359;0,014359
3949,5002;0,0143034
3950,4644;0,0142858
3951,4287;0,0143107
3952,3928;0,0143596
3953,3572;0,0144073
3954,3213;0,0144378
3955,2856;0,0144494
3956,2498;0,0144512
3957,2141;0,0144527
3958,1782;0,0144566
3959,1426;0,014459
3960,1067;0,0144549
3961,0710;0,0144437
3962,0352;0,0144305
3962,9995;0,0144219
3963,9636;0,0144218
3964,9280;0,0144303
3965,8921;0,014445
3966,8564;0,014463
3967,8206;0,0144814
3968,7849;0,0144963
3969,7490;0,014502
3970,7134;0,0144932
3971,6775;0,0144686
3972,6418;0,0144346
3973,6060;0,014405
3974,5703;0,0143956
3975,5344;0,0144152
3976,4988;0,0144601
3977,4629;0,0145144
3978,4272;0,014557
3979,3914;0,0145721
3980,3557;0,0145564
3981,3198;0,0145213
3982,2842;0,0144873
3983,2483;0,0144733
3984,2126;0,0144868
3985,1768;0,014521
3986,1411;0,0145582
3987,1052;0,0145799
3988,0696;0,0145757
3989,0337;0,0145482
3989,9980;0,0145105
3990,9622;0,0144784
3991,9265;0,0144623
3992,8906;0,0144633
3993,8550;0,0144755
3994,8191;0,0144913
3995,7834;0,0145054
3996,7476;0,0145164
3997,7119;0,0145246
3998,6760;0,0145307
3999,6404;0,0145353
4000,6045;0,0144078

##### Extended Information
[Comments]
Sample name
Comment
Username
Division
Organization;UNIVERSIDAD INDUSTRIAL DE SANTANDER

[Detailed Information]
Creation date;18/03/2025 1:06 p.m.

Data array type;Linear data array
Horizontal axis;Wavenumber [cm-1]
Vertical axis;Abs
Start;399,193 cm-1
End;4000,6 cm-1
Data interval;0,964233 cm-1
Data points;3736    

[Measurement Information]
Model name;FT/IR-4X1typeA
Serial No.;A035162111

Accessory;ATR PRO 4X
Accessory S/N;A021162126
Incident angle;45 deg

Measurement date;18/03/2025 1:05 p.m.

Light source;Standard
Detector;TGS
Accumulation;40
Resolution;4 cm-1
Zero filling;On
Apodization;Cosine
Gain;Auto (8)
Aperture;Auto (7 mm)
Scan speed;Auto (2 mm/sec)
Filter;Auto (12800 Hz)

