TITLE;
DATA TYPE;INFRARED SPECTRUM
ORIGIN;JASCO
OWNER;
DATE;25/03/18
TIME;12:04:48
SPECTROMETER/DATA SYSTEM;
LOCALE;9226
RESOLUTION;
DELTAX;0,964233
XUNITS;1/CM
YUNITS;ABSORBANCE
FIRSTX;  399,1927
LASTX; 4000,6047
NPOINTS;    3736
FIRSTY;     0,18188
MAXY;     0,21904
MINY;     0,00633
XYDATA
399,1927;0,181885
400,1569;0,179641
401,1211;0,178224
402,0854;0,177746
403,0496;0,177912
404,0138;0,17834
404,9781;0,178739
405,9423;0,178967
406,9065;0,179013
407,8708;0,17892
408,8350;0,178717
409,7992;0,178418
410,7635;0,178075
411,7277;0,17782
412,6919;0,177826
413,6562;0,178236
414,6204;0,179127
415,5846;0,180537
416,5489;0,182446
417,5131;0,184646
418,4773;0,186564
419,4416;0,18748
420,4058;0,187202
421,3700;0,186246
422,3343;0,185299
423,2985;0,184829
424,2627;0,185028
425,2270;0,18583
426,1912;0,186955
427,1554;0,188056
428,1197;0,188897
429,0839;0,189451
430,0481;0,189849
431,0124;0,190236
431,9766;0,190645
432,9408;0,190953
433,9051;0,190963
434,8693;0,190546
435,8335;0,189758
436,7978;0,188824
437,7620;0,188011
438,7262;0,187494
439,6905;0,187292
440,6547;0,18731
441,6189;0,187407
442,5832;0,187467
443,5474;0,187435
444,5116;0,187331
445,4759;0,187211
446,4401;0,187122
447,4043;0,187072
448,3686;0,187042
449,3328;0,187004
450,2970;0,186943
451,2613;0,186864
452,2255;0,186774
453,1897;0,186661
454,1540;0,186482
455,1182;0,186178
456,0824;0,185716
457,0467;0,185139
458,0109;0,184584
458,9751;0,184214
459,9394;0,1841
460,9036;0,184183
461,8678;0,184321
462,8321;0,184366
463,7963;0,184214
464,7605;0,183822
465,7248;0,183212
466,6890;0,182453
467,6532;0,181626
468,6175;0,18081
469,5817;0,180104
470,5459;0,179648
471,5102;0,179611
472,4744;0,1801
473,4386;0,181052
474,4029;0,182212
475,3671;0,183258
476,3313;0,183936
477,2956;0,184146
478,2598;0,183948
479,2240;0,18352
480,1883;0,183079
481,1525;0,182799
482,1167;0,182765
483,0810;0,182967
484,0452;0,183342
485,0094;0,183812
485,9737;0,184322
486,9379;0,184846
487,9021;0,185373
488,8664;0,185884
489,8306;0,186338
490,7948;0,186667
491,7591;0,186805
492,7233;0,186722
493,6875;0,186458
494,6518;0,186126
495,6160;0,18587
496,5802;0,185808
497,5445;0,185993
498,5087;0,186389
499,4729;0,186878
500,4372;0,187303
501,4014;0,187526
502,3656;0,187501
503,3299;0,187307
504,2941;0,187116
505,2583;0,187108
506,2226;0,187399
507,1868;0,187989
508,1510;0,188773
509,1153;0,18958
510,0795;0,190256
511,0437;0,190722
512,0080;0,190996
512,9722;0,191164
513,9365;0,191335
514,9007;0,191599
515,8649;0,191992
516,8292;0,19248
517,7934;0,192959
518,7576;0,193298
519,7219;0,193397
520,6861;0,193235
521,6503;0,192868
522,6146;0,192406
523,5788;0,191972
524,5430;0,191672
525,5073;0,191555
526,4715;0,191576
527,4357;0,191618
528,4000;0,191551
529,3642;0,1913
530,3284;0,190865
531,2927;0,190304
532,2569;0,189693
533,2211;0,189098
534,1854;0,188567
535,1496;0,188141
536,1138;0,187862
537,0781;0,187775
538,0423;0,187887
539,0065;0,188149
539,9708;0,188458
540,9350;0,188709
541,8992;0,188851
542,8635;0,188917
543,8277;0,188999
544,7919;0,189192
545,7562;0,189533
546,7204;0,189983
547,6846;0,190461
548,6489;0,190894
549,6131;0,191259
550,5773;0,191582
551,5416;0,19192
552,5058;0,192334
553,4700;0,192869
554,4343;0,193523
555,3985;0,194227
556,3627;0,194831
557,3270;0,19513
558,2912;0,194939
559,2554;0,194167
560,2197;0,192863
561,1839;0,1912
562,1481;0,189406
563,1124;0,187687
564,0766;0,186169
565,0408;0,184894
566,0051;0,183845
566,9693;0,18298
567,9335;0,182254
568,8978;0,181632
569,8620;0,181086
570,8262;0,180608
571,7905;0,180199
572,7547;0,179863
573,7189;0,179597
574,6832;0,179374
575,6474;0,17915
576,6116;0,178881
577,5759;0,178547
578,5401;0,17816
579,5043;0,177762
580,4686;0,1774
581,4328;0,177111
582,3970;0,176911
583,3613;0,176798
584,3255;0,176753
585,2897;0,176757
586,2540;0,176785
587,2182;0,176813
588,1824;0,176822
589,1467;0,176795
590,1109;0,176729
591,0751;0,176628
592,0394;0,176499
593,0036;0,176337
593,9678;0,176125
594,9321;0,175839
595,8963;0,175465
596,8605;0,175011
597,8248;0,174514
598,7890;0,17402
599,7532;0,173562
600,7175;0,173146
601,6817;0,172743
602,6459;0,172315
603,6102;0,171835
604,5744;0,171307
605,5386;0,170754
606,5029;0,170201
607,4671;0,169657
608,4313;0,169112
609,3956;0,168551
610,3598;0,167976
611,3240;0,167408
612,2883;0,166883
613,2525;0,166416
614,2167;0,165976
615,1810;0,165478
616,1452;0,164805
617,1094;0,163856
618,0737;0,16261
619,0379;0,161141
620,0021;0,159586
620,9664;0,158082
621,9306;0,156724
622,8948;0,155549
623,8591;0,154556
624,8233;0,153708
625,7875;0,15299
626,7518;0,152367
627,7160;0,151806
628,6802;0,151263
629,6445;0,150694
630,6087;0,150058
631,5729;0,149333
632,5372;0,148541
633,5014;0,147739
634,4656;0,147009
635,4299;0,146416
636,3941;0,145981
637,3583;0,145667
638,3226;0,145398
639,2868;0,145098
640,2510;0,144725
641,2153;0,144283
642,1795;0,14381
643,1437;0,14335
644,1080;0,142934
645,0722;0,142572
646,0364;0,142254
647,0007;0,141966
647,9649;0,141703
648,9291;0,141471
649,8934;0,14129
650,8576;0,141183
651,8218;0,141174
652,7861;0,141275
653,7503;0,141479
654,7145;0,141761
655,6788;0,142082
656,6430;0,142402
657,6072;0,142685
658,5715;0,142896
659,5357;0,142989
660,4999;0,142918
661,4642;0,142673
662,4284;0,142297
663,3926;0,141868
664,3569;0,141477
665,3211;0,141217
666,2853;0,141149
667,2496;0,141149
668,2138;0,140769
669,1780;0,139646
670,1423;0,138055
671,1065;0,136438
672,0707;0,134899
673,0350;0,133335
673,9992;0,131656
674,9634;0,129862
675,9277;0,128034
676,8919;0,126277
677,8561;0,124655
678,8204;0,123179
679,7846;0,121836
680,7488;0,120627
681,7131;0,119575
682,6773;0,11869
683,6415;0,117957
684,6058;0,117332
685,5700;0,116765
686,5342;0,116214
687,4985;0,115658
688,4627;0,115098
689,4269;0,114549
690,3912;0,114032
691,3554;0,11356
692,3196;0,113131
693,2839;0,11273
694,2481;0,112334
695,2123;0,111931
696,1766;0,111522
697,1408;0,111113
698,1050;0,110702
699,0693;0,110279
700,0335;0,109823
700,9977;0,10932
701,9620;0,108769
702,9262;0,108188
703,8904;0,107595
704,8547;0,107007
705,8189;0,106427
706,7831;0,105847
707,7474;0,105261
708,7116;0,104669
709,6758;0,10407
710,6401;0,103455
711,6043;0,102804
712,5685;0,102098
713,5328;0,101342
714,4970;0,100574
715,4612;0,0996679
716,4255;0,0990711
717,3897;0,0985654
718,3539;0,0980654
719,3182;0,0974455
720,2824;0,0966091
721,2466;0,0955516
722,2109;0,094366
723,1751;0,0931864
724,1393;0,0921165
725,1036;0,0911919
726,0678;0,0903855
727,0320;0,0896395
727,9963;0,0889008
728,9605;0,0881423
729,9247;0,0873654
730,8890;0,086589
731,8532;0,0858375
732,8174;0,085133
733,7817;0,0844903
734,7459;0,0839148
735,7101;0,0834011
736,6744;0,0829356
737,6386;0,082502
738,6028;0,0820865
739,5671;0,0816811
740,5313;0,0812808
741,4955;0,0808806
742,4598;0,0804742
743,4240;0,0800558
744,3882;0,0796248
745,3525;0,0791869
746,3167;0,0787523
747,2809;0,0783294
748,2452;0,0779212
749,2094;0,0775237
750,1736;0,0771292
751,1379;0,0767301
752,1021;0,0763226
753,0663;0,0759069
754,0306;0,0754871
754,9948;0,0750696
755,9590;0,0746604
756,9233;0,0742627
757,8875;0,0738737
758,8517;0,0734856
759,8160;0,0730911
760,7802;0,0726907
761,7444;0,0722973
762,7087;0,0719318
763,6729;0,0716106
764,6371;0,0713338
765,6014;0,0710813
766,5656;0,0708235
767,5298;0,0705372
768,4941;0,0702191
769,4583;0,0698849
770,4225;0,0695574
771,3868;0,0692516
772,3510;0,0689683
773,3152;0,0686988
774,2795;0,0684354
775,2437;0,0681785
776,2079;0,0679347
777,1722;0,0677087
778,1364;0,0674962
779,1006;0,0672829
780,0649;0,0670506
781,0291;0,0667836
781,9933;0,066473
782,9576;0,0661163
783,9218;0,0657163
784,8860;0,065282
785,8503;0,0648298
786,8145;0,0643839
787,7787;0,063972
788,7430;0,0636169
789,7072;0,0633279
790,6714;0,0630967
791,6357;0,0629024
792,5999;0,0627204
793,5641;0,0625341
794,5284;0,06234
795,4926;0,0621455
796,4568;0,0619603
797,4211;0,0617887
798,3853;0,0616262
799,3495;0,0614639
800,3138;0,0612959
801,2780;0,0611246
802,2422;0,0609587
803,2065;0,0608058
804,1707;0,060666
805,1349;0,0605313
806,0992;0,0603933
807,0634;0,0602506
808,0276;0,060112
808,9919;0,0599891
809,9561;0,0598854
810,9203;0,0597911
811,8846;0,0596877
812,8488;0,0595616
813,8130;0,059416
814,7773;0,0592711
815,7415;0,0591535
816,7057;0,05908
817,6700;0,0590491
818,6342;0,059043
819,5984;0,0590391
820,5627;0,0590207
821,5269;0,0589808
822,4911;0,0589194
823,4554;0,0588375
824,4196;0,0587349
825,3839;0,0586109
826,3481;0,0584673
827,3123;0,0583102
828,2766;0,0581489
829,2408;0,0579941
830,2050;0,0578545
831,1693;0,0577329
832,1335;0,0576235
833,0977;0,0575099
834,0620;0,0573692
835,0262;0,0571806
835,9904;0,056936
836,9547;0,0566458
837,9189;0,0563363
838,8831;0,0560386
839,8474;0,0557773
840,8116;0,0555628
841,7758;0,0553934
842,7401;0,0552599
843,7043;0,0551505
844,6685;0,0550511
845,6328;0,0549446
846,5970;0,054813
847,5612;0,0546435
848,5255;0,0544363
849,4897;0,0542071
850,4539;0,0539814
851,4182;0,0537834
852,3824;0,0536265
853,3466;0,053511
854,3109;0,0534289
855,2751;0,0533707
856,2393;0,0533292
857,2036;0,0532992
858,1678;0,0532765
859,1320;0,0532589
860,0963;0,0532494
861,0605;0,0532581
862,0247;0,0532985
862,9890;0,0533805
863,9532;0,0535042
864,9174;0,0536611
865,8817;0,0538414
866,8459;0,0540424
867,8101;0,0542712
868,7744;0,0545385
869,7386;0,0548481
870,7028;0,055189
871,6671;0,0555367
872,6313;0,0558631
873,5955;0,0561487
874,5598;0,0563906
875,5240;0,056602
876,4882;0,0568053
877,4525;0,0570237
878,4167;0,0572761
879,3809;0,057576
880,3452;0,0579329
881,3094;0,0583541
882,2736;0,0588449
883,2379;0,0594074
884,2021;0,0600405
885,1663;0,0607411
886,1306;0,0615052
887,0948;0,06233
888,0590;0,0632108
889,0233;0,0641374
889,9875;0,0650888
890,9517;0,0660316
891,9160;0,0669236
892,8802;0,0677211
893,8444;0,068388
894,8087;0,0689018
895,7729;0,069254
896,7371;0,0694461
897,7014;0,0694823
898,6656;0,0693651
899,6298;0,0690949
900,5941;0,068676
901,5583;0,0681248
902,5225;0,0674762
903,4868;0,066782
904,4510;0,0661008
905,4152;0,0654818
906,3795;0,0649516
907,3437;0,0645091
908,3079;0,0641341
909,2722;0,0638028
910,2364;0,0635025
911,2007;0,0632386
912,1649;0,0630299
913,1292;0,0628979
914,0934;0,0628567
915,0576;0,0629081
916,0219;0,0630428
916,9861;0,063245
917,9503;0,0634955
918,9146;0,0637756
919,8788;0,0640695
920,8430;0,0643678
921,8073;0,0646683
922,7715;0,0649755
923,7357;0,065294
924,7000;0,0656231
925,6642;0,0659531
926,6284;0,0662687
927,5927;0,0665568
928,5569;0,0668145
929,5211;0,0670527
930,4854;0,0672921
931,4496;0,0675542
932,4138;0,067853
933,3781;0,0681916
934,3423;0,0685646
935,3065;0,0689658
936,2708;0,0693963
937,2350;0,0698689
938,1992;0,0704057
939,1635;0,0710308
940,1277;0,0717597
941,0919;0,0725924
942,0562;0,0735138
943,0204;0,0745019
943,9846;0,0755406
944,9489;0,076629
945,9131;0,0777815
946,8773;0,0790172
947,8416;0,0803462
948,8058;0,08176
949,7700;0,0832339
950,7343;0,0847391
951,6985;0,0862576
952,6627;0,08779
953,6270;0,0893529
954,5912;0,0909672
955,5554;0,0926458
956,5197;0,0943877
957,4839;0,0961808
958,4481;0,0980085
959,4124;0,0998567
960,3766;0,101716
961,3408;0,103582
962,3051;0,10545
963,2693;0,107319
964,2335;0,109187
965,1978;0,111055
966,1620;0,112925
967,1262;0,114807
968,0905;0,116715
969,0547;0,118671
970,0189;0,120709
970,9832;0,122864
971,9474;0,125171
972,9116;0,127657
973,8759;0,130337
974,8401;0,133217
975,8043;0,136295
976,7686;0,139559
977,7328;0,142981
978,6970;0,146503
979,6613;0,150037
980,6255;0,153471
981,5897;0,15669
982,5540;0,159605
983,5182;0,162174
984,4824;0,164401
985,4467;0,166327
986,4109;0,168005
987,3751;0,169493
988,3394;0,170836
989,3036;0,17207
990,2678;0,173215
991,2321;0,174278
992,1963;0,175253
993,1605;0,17613
994,1248;0,176905
995,0890;0,177591
996,0532;0,178208
997,0175;0,178779
997,9817;0,179317
998,9459;0,179826
999,9102;0,180317
1000,8744;0,18082
1001,8386;0,181387
1002,8029;0,182077
1003,7671;0,18294
1004,7313;0,183997
1005,6956;0,185241
1006,6598;0,186648
1007,6240;0,188201
1008,5883;0,189896
1009,5525;0,191736
1010,5167;0,193718
1011,4810;0,195816
1012,4452;0,197981
1013,4094;0,200144
1014,3737;0,202235
1015,3379;0,204202
1016,3021;0,206016
1017,2664;0,207669
1018,2306;0,209169
1019,1948;0,210531
1020,1591;0,211767
1021,1233;0,212888
1022,0875;0,213907
1023,0518;0,21484
1024,0160;0,215701
1024,9802;0,216501
1025,9445;0,217241
1026,9087;0,217904
1027,8729;0,21846
1028,8372;0,218859
1029,8014;0,219037
1030,7656;0,218918
1031,7299;0,218425
1032,6941;0,217499
1033,6583;0,216116
1034,6226;0,214309
1035,5868;0,212171
1036,5510;0,209849
1037,5153;0,207522
1038,4795;0,205366
1039,4437;0,203526
1040,4080;0,202092
1041,3722;0,201093
1042,3364;0,200494
1043,3007;0,200215
1044,2649;0,200149
1045,2291;0,200186
1046,1934;0,200229
1047,1576;0,200208
1048,1218;0,200072
1049,0861;0,199782
1050,0503;0,199301
1051,0145;0,19859
1051,9788;0,197624
1052,9430;0,1964
1053,9072;0,194942
1054,8715;0,193287
1055,8357;0,191453
1056,7999;0,18942
1057,7642;0,187125
1058,7284;0,184494
1059,6926;0,18149
1060,6569;0,178149
1061,6211;0,174586
1062,5853;0,170967
1063,5496;0,167451
1064,5138;0,16415
1065,4780;0,161107
1066,4423;0,158312
1067,4065;0,155731
1068,3707;0,153329
1069,3350;0,151083
1070,2992;0,148974
1071,2634;0,146968
1072,2277;0,14502
1073,1919;0,143067
1074,1561;0,141055
1075,1204;0,13895
1076,0846;0,136756
1077,0488;0,134506
1078,0131;0,132262
1078,9773;0,130094
1079,9415;0,128068
1080,9058;0,126234
1081,8700;0,124623
1082,8342;0,123245
1083,7985;0,122091
1084,7627;0,121136
1085,7269;0,120349
1086,6912;0,119698
1087,6554;0,119163
1088,6196;0,118735
1089,5839;0,118417
1090,5481;0,11821
1091,5123;0,11811
1092,4766;0,118102
1093,4408;0,118163
1094,4050;0,118271
1095,3693;0,118413
1096,3335;0,118584
1097,2977;0,118782
1098,2620;0,119002
1099,2262;0,119228
1100,1904;0,119435
1101,1547;0,119593
1102,1189;0,119674
1103,0831;0,119656
1104,0474;0,119532
1105,0116;0,119306
1105,9758;0,118994
1106,9401;0,118614
1107,9043;0,118176
1108,8685;0,117664
1109,8328;0,117032
1110,7970;0,116213
1111,7612;0,115145
1112,7255;0,113802
1113,6897;0,112217
1114,6539;0,110477
1115,6182;0,108703
1116,5824;0,107008
1117,5466;0,105464
1118,5109;0,104084
1119,4751;0,10283
1120,4393;0,10163
1121,4036;0,100403
1122,3678;0,0990759
1123,3320;0,0975983
1124,2963;0,0959427
1125,2605;0,0941071
1126,2247;0,0921126
1127,1890;0,0899991
1128,1532;0,0878166
1129,1174;0,0856149
1130,0817;0,0834345
1131,0459;0,0813032
1132,0101;0,07924
1132,9744;0,0772627
1133,9386;0,0753957
1134,9028;0,073673
1135,8671;0,0721355
1136,8313;0,0708246
1137,7955;0,0697743
1138,7598;0,0690052
1139,7240;0,068522
1140,6882;0,0683126
1141,6525;0,0683498
1142,6167;0,0685946
1143,5809;0,0690019
1144,5452;0,0695273
1145,5094;0,0701329
1146,4736;0,0707927
1147,4379;0,0714937
1148,4021;0,072233
1149,3663;0,0730117
1150,3306;0,0738269
1151,2948;0,0746648
1152,2590;0,0754987
1153,2233;0,076291
1154,1875;0,0769993
1155,1517;0,0775822
1156,1160;0,0780005
1157,0802;0,0782135
1158,0444;0,0781737
1159,0087;0,0778236
1159,9729;0,0771004
1160,9371;0,0759485
1161,9014;0,0743358
1162,8656;0,0722684
1163,8298;0,0697963
1164,7941;0,0670085
1165,7583;0,0640201
1166,7225;0,0609558
1167,6868;0,0579331
1168,6510;0,0550495
1169,6152;0,0523743
1170,5795;0,0499471
1171,5437;0,0477806
1172,5079;0,045869
1173,4722;0,0441965
1174,4364;0,0427443
1175,4006;0,0414938
1176,3649;0,0404255
1177,3291;0,0395182
1178,2933;0,0387479
1179,2576;0,0380903
1180,2218;0,0375245
1181,1860;0,0370365
1182,1503;0,0366212
1183,1145;0,03628
1184,0787;0,0360175
1185,0430;0,0358373
1186,0072;0,0357406
1186,9714;0,0357268
1187,9357;0,035796
1188,8999;0,0359511
1189,8641;0,0361972
1190,8284;0,0365381
1191,7926;0,0369722
1192,7568;0,0374887
1193,7211;0,0380689
1194,6853;0,0386901
1195,6495;0,0393315
1196,6138;0,0399783
1197,5780;0,0406218
1198,5422;0,0412576
1199,5065;0,0418281
1200,4707;0,0424432
1201,4349;0,0430368
1202,3992;0,0436008
1203,3634;0,0441259
1204,3276;0,0446009
1205,2919;0,0450148
1206,2561;0,0453617
1207,2203;0,0456468
1208,1846;0,0458922
1209,1488;0,046136
1210,1130;0,0464251
1211,0773;0,0468025
1212,0415;0,0472941
1213,0057;0,0479023
1213,9700;0,0486083
1214,9342;0,0493816
1215,8984;0,0501917
1216,8627;0,0510152
1217,8269;0,0518384
1218,7911;0,0526546
1219,7554;0,0534599
1220,7196;0,0542503
1221,6838;0,05502
1222,6481;0,0557628
1223,6123;0,0564722
1224,5765;0,0571424
1225,5408;0,0577688
1226,5050;0,0583484
1227,4692;0,0588802
1228,4335;0,0593658
1229,3977;0,0598087
1230,3619;0,0602122
1231,3262;0,0605767
1232,2904;0,060898
1233,2546;0,0611673
1234,2189;0,0613755
1235,1831;0,0615178
1236,1473;0,0615983
1237,1116;0,0616294
1238,0758;0,0616274
1239,0400;0,0616054
1240,0043;0,0615677
1240,9685;0,0615094
1241,9327;0,06142
1242,8970;0,0612898
1243,8612;0,0611136
1244,8254;0,0608919
1245,7897;0,0606288
1246,7539;0,0603298
1247,7181;0,0599998
1248,6824;0,0596442
1249,6466;0,0592693
1250,6108;0,0588828
1251,5751;0,0584938
1252,5393;0,0581121
1253,5035;0,0577461
1254,4678;0,0574
1255,4320;0,0570723
1256,3962;0,0567543
1257,3605;0,0564324
1258,3247;0,0560924
1259,2889;0,0557245
1260,2532;0,0553256
1261,2174;0,054899
1262,1816;0,0544502
1263,1459;0,0539832
1264,1101;0,0534986
1265,0743;0,0529947
1266,0386;0,0524699
1267,0028;0,0519247
1267,9670;0,0513623
1268,9313;0,050788
1269,8955;0,0502072
1270,8597;0,0496235
1271,8240;0,0490375
1272,7882;0,0484485
1273,7524;0,0478578
1274,7167;0,0472714
1275,6809;0,0467002
1276,6451;0,0461563
1277,6094;0,0456456
1278,5736;0,0451633
1279,5378;0,044694
1280,5021;0,0442196
1281,4663;0,043729
1282,4305;0,0432244
1283,3948;0,0427211
1284,3590;0,0422413
1285,3232;0,0418074
1286,2875;0,041437
1287,2517;0,0411406
1288,2159;0,0409208
1289,1802;0,0407724
1290,1444;0,0406853
1291,1086;0,0406486
1292,0729;0,0406576
1293,0371;0,0407168
1294,0013;0,0408384
1294,9656;0,0410353
1295,9298;0,0413132
1296,8940;0,0416671
1297,8583;0,0420847
1298,8225;0,0425535
1299,7867;0,0430663
1300,7510;0,0436215
1301,7152;0,0442204
1302,6794;0,0448627
1303,6437;0,0455459
1304,6079;0,0462673
1305,5721;0,0470248
1306,5364;0,0478156
1307,5006;0,0486341
1308,4648;0,0494695
1309,4291;0,0503068
1310,3933;0,0511277
1311,3575;0,0519117
1312,3218;0,052636
1313,2860;0,0532762
1314,2502;0,053807
1315,2145;0,054203
1316,1787;0,0544416
1317,1429;0,054508
1318,1072;0,0544046
1319,0714;0,0541574
1320,0356;0,0538145
1320,9999;0,0534313
1321,9641;0,0530539
1322,9283;0,0527095
1323,8926;0,0524094
1324,8568;0,0521565
1325,8210;0,0519516
1326,7853;0,0517948
1327,7495;0,0516828
1328,7137;0,0516055
1329,6780;0,0515448
1330,6422;0,0514773
1331,6064;0,0513807
1332,5707;0,0512383
1333,5349;0,0510415
1334,4991;0,0507845
1335,4634;0,0504573
1336,4276;0,0500425
1337,3918;0,0495222
1338,3561;0,0488973
1339,3203;0,0482062
1340,2845;0,0475189
1341,2488;0,0469012
1342,2130;0,0463833
1343,1772;0,0459594
1344,1415;0,0456099
1345,1057;0,0453216
1346,0699;0,0450954
1347,0342;0,0449419
1347,9984;0,044874
1348,9626;0,0448976
1349,9269;0,0450087
1350,8911;0,0451935
1351,8553;0,0454336
1352,8196;0,0457121
1353,7838;0,0460205
1354,7480;0,0463607
1355,7123;0,0467405
1356,6765;0,0471648
1357,6407;0,0476274
1358,6050;0,048111
1359,5692;0,0485908
1360,5334;0,0490395
1361,4977;0,0494352
1362,4619;0,0497737
1363,4261;0,0500744
1364,3904;0,0503653
1365,3546;0,0506599
1366,3188;0,05095
1367,2831;0,0512148
1368,2473;0,0514315
1369,2115;0,0515803
1370,1758;0,0516432
1371,1400;0,0515993
1372,1042;0,0514243
1373,0685;0,0511013
1374,0327;0,0506414
1374,9969;0,0500911
1375,9612;0,0495044
1376,9254;0,0489003
1377,8896;0,0482527
1378,8539;0,047523
1379,8181;0,0467037
1380,7823;0,0458369
1381,7466;0,0449899
1382,7108;0,0442061
1383,6750;0,0434736
1384,6393;0,0427381
1385,6035;0,0419505
1386,5677;0,0411236
1387,5320;0,040352
1388,4962;0,0397501
1389,4604;0,0393631
1390,4247;0,0391484
1391,3889;0,0390262
1392,3531;0,0389313
1393,3174;0,0388334
1394,2816;0,0387339
1395,2458;0,0386513
1396,2101;0,0386048
1397,1743;0,0386057
1398,1385;0,0386609
1399,1028;0,0387759
1400,0670;0,0389519
1401,0313;0,0391792
1401,9955;0,0394376
1402,9597;0,0397067
1403,9240;0,0399766
1404,8882;0,0402543
1405,8524;0,040558
1406,8167;0,0409028
1407,7809;0,041289
1408,7451;0,0417072
1409,7094;0,0421526
1410,6736;0,0426334
1411,6378;0,0431637
1412,6021;0,0437477
1413,5663;0,0443695
1414,5305;0,044998
1415,4948;0,0456
1416,4590;0,0461458
1417,4232;0,0466088
1418,3875;0,046975
1419,3517;0,0472624
1420,3159;0,0475068
1421,2802;0,0477137
1422,2444;0,0478482
1423,2086;0,0478695
1424,1729;0,0477637
1425,1371;0,0475464
1426,1013;0,0472358
1427,0656;0,0468263
1428,0298;0,0462921
1428,9940;0,045627
1429,9583;0,0448848
1430,9225;0,0441626
1431,8867;0,0435267
1432,8510;0,0429568
1433,8152;0,0423585
1434,7794;0,0416271
1435,7437;0,0407406
1436,7079;0,0398336
1437,6721;0,0391288
1438,6364;0,0387455
1439,6006;0,0386295
1440,5648;0,0386574
1441,5291;0,0387388
1442,4933;0,0388431
1443,4575;0,038977
1444,4218;0,0391516
1445,3860;0,0393603
1446,3502;0,0395801
1447,3145;0,03979
1448,2787;0,0399919
1449,2429;0,0402096
1450,2072;0,0404654
1451,1714;0,040755
1452,1356;0,0410468
1453,0999;0,0412942
1454,0641;0,0414413
1455,0283;0,0414084
1455,9926;0,0410947
1456,9568;0,0405092
1457,9210;0,0399332
1458,8853;0,0396666
1459,8495;0,0396999
1460,8137;0,0398331
1461,7780;0,0398675
1462,7422;0,0396544
1463,7064;0,039112
1464,6707;0,0382837
1465,6349;0,0373616
1466,5991;0,0365524
1467,5634;0,0359135
1468,5276;0,0353511
1469,4918;0,034709
1470,4561;0,0338271
1471,4203;0,0325838
1472,3845;0,0309916
1473,3488;0,0292933
1474,3130;0,0278261
1475,2772;0,0267419
1476,2415;0,0259745
1477,2057;0,0253972
1478,1699;0,0249194
1479,1342;0,0244943
1480,0984;0,0241036
1481,0626;0,0237487
1482,0269;0,023448
1482,9911;0,0232271
1483,9553;0,0231004
1484,9196;0,0230574
1485,8838;0,0230618
1486,8480;0,0230618
1487,8123;0,023011
1488,7765;0,0229134
1489,7407;0,0228567
1490,7050;0,0229499
1491,6692;0,023222
1492,6334;0,0236221
1493,5977;0,0240855
1494,5619;0,0245728
1495,5261;0,0250703
1496,4904;0,0255769
1497,4546;0,026099
1498,4188;0,0266544
1499,3831;0,0272561
1500,3473;0,0278843
1501,3115;0,0284911
1502,2758;0,0290268
1503,2400;0,0294568
1504,2042;0,0297522
1505,1685;0,0298474
1506,1327;0,029601
1507,0969;0,0289607
1508,0612;0,0282368
1509,0254;0,027773
1509,9896;0,0275709
1510,9539;0,0274733
1511,9181;0,0273568
1512,8823;0,0271581
1513,8466;0,0268539
1514,8108;0,0264489
1515,7750;0,0259726
1516,7393;0,0254664
1517,7035;0,0249549
1518,6677;0,0244269
1519,6320;0,0238532
1520,5962;0,023236
1521,5604;0,0226414
1522,5247;0,0221593
1523,4889;0,0218265
1524,4531;0,0216103
1525,4174;0,0214638
1526,3816;0,0213747
1527,3458;0,0213638
1528,3101;0,0214453
1529,2743;0,0215996
1530,2385;0,021781
1531,2028;0,0219453
1532,1670;0,0220768
1533,1312;0,0222059
1534,0955;0,0223899
1535,0597;0,0226601
1536,0239;0,0229929
1536,9882;0,0233346
1537,9524;0,0236292
1538,9166;0,0238047
1539,8809;0,0237518
1540,8451;0,0234396
1541,8093;0,0230811
1542,7736;0,0228999
1543,7378;0,022895
1544,7020;0,0229728
1545,6663;0,0230768
1546,6305;0,0231919
1547,5947;0,0233112
1548,5590;0,0234176
1549,5232;0,0234922
1550,4874;0,0235366
1551,4517;0,0235839
1552,4159;0,023681
1553,3801;0,0238489
1554,3444;0,0240583
1555,3086;0,0242294
1556,2728;0,0242296
1557,2371;0,0238752
1558,2013;0,0231027
1559,1655;0,0223243
1560,1298;0,0220909
1561,0940;0,0224061
1562,0582;0,0229683
1563,0225;0,0235523
1563,9867;0,0240589
1564,9509;0,024459
1565,9152;0,0247528
1566,8794;0,0249538
1567,8436;0,0250953
1568,8079;0,0252405
1569,7721;0,0254642
1570,7363;0,0258014
1571,7006;0,026223
1572,6648;0,0266666
1573,6290;0,0270785
1574,5933;0,027432
1575,5575;0,0277347
1576,5217;0,0280357
1577,4860;0,0284065
1578,4502;0,0288805
1579,4144;0,0294304
1580,3787;0,0300088
1581,3429;0,0305857
1582,3071;0,0311562
1583,2714;0,031731
1584,2356;0,0323256
1585,1998;0,0329503
1586,1641;0,0336043
1587,1283;0,0342746
1588,0925;0,0349387
1589,0568;0,0355688
1590,0210;0,0361352
1590,9852;0,0366087
1591,9495;0,0369615
1592,9137;0,0371721
1593,8779;0,0372344
1594,8422;0,0371672
1595,8064;0,0370108
1596,7706;0,0368108
1597,7349;0,0365994
1598,6991;0,0363888
1599,6633;0,0361772
1600,6276;0,0359615
1601,5918;0,0357472
1602,5560;0,0355508
1603,5203;0,0353919
1604,4845;0,0352789
1605,4487;0,0352007
1606,4130;0,0351313
1607,3772;0,0350491
1608,3414;0,0349589
1609,3057;0,0348994
1610,2699;0,0349175
1611,2341;0,0350284
1612,1984;0,0352006
1613,1626;0,0353731
1614,1268;0,0354825
1615,0911;0,0354941
1616,0553;0,0354414
1617,0195;0,0354344
1617,9838;0,0355718
1618,9480;0,0358487
1619,9122;0,0361834
1620,8765;0,0364935
1621,8407;0,0367348
1622,8049;0,0369072
1623,7692;0,037043
1624,7334;0,0371783
1625,6976;0,0373264
1626,6619;0,0374806
1627,6261;0,0376416
1628,5903;0,0378303
1629,5546;0,0380691
1630,5188;0,0383549
1631,4830;0,0386506
1632,4473;0,0388953
1633,4115;0,0390141
1634,3757;0,0389324
1635,3400;0,0386452
1636,3042;0,0383114
1637,2684;0,0381496
1638,2327;0,0382199
1639,1969;0,038437
1640,1611;0,0387029
1641,1254;0,0389594
1642,0896;0,0391754
1643,0538;0,0393202
1644,0181;0,0393452
1644,9823;0,0391956
1645,9465;0,0388807
1646,9108;0,0385482
1647,8750;0,0383825
1648,8392;0,0384111
1649,8035;0,0384968
1650,7677;0,0384271
1651,7319;0,0379532
1652,6962;0,0369352
1653,6604;0,0357295
1654,6246;0,0349956
1655,5889;0,0348657
1656,5531;0,0350293
1657,5173;0,035203
1658,4816;0,035237
1659,4458;0,0350602
1660,4100;0,0346457
1661,3743;0,0340311
1662,3385;0,0333504
1663,3027;0,0327786
1664,2670;0,0324039
1665,2312;0,0321801
1666,1954;0,0319815
1667,1597;0,031668
1668,1239;0,0311421
1669,0881;0,0304209
1670,0524;0,0296638
1671,0166;0,0290456
1671,9808;0,028592
1672,9451;0,0281875
1673,9093;0,0277053
1674,8735;0,0271187
1675,8378;0,0265347
1676,8020;0,0261102
1677,7662;0,025917
1678,7305;0,0258996
1679,6947;0,02593
1680,6589;0,0258584
1681,6232;0,0255212
1682,5874;0,0247781
1683,5516;0,0236791
1684,5159;0,0225932
1685,4801;0,0218889
1686,4443;0,0215789
1687,4086;0,0214641
1688,3728;0,021379
1689,3370;0,0212615
1690,3013;0,0211228
1691,2655;0,0209964
1692,2297;0,0209018
1693,1940;0,0208322
1694,1582;0,0207599
1695,1224;0,0206463
1696,0867;0,0204487
1697,0509;0,0201305
1698,0151;0,0196865
1698,9794;0,0191816
1699,9436;0,0187548
1700,9078;0,0185378
1701,8721;0,0185603
1702,8363;0,0187458
1703,8005;0,0189798
1704,7648;0,0191756
1705,7290;0,0193093
1706,6932;0,0194231
1707,6575;0,0195896
1708,6217;0,0198591
1709,5859;0,0202354
1710,5502;0,0206901
1711,5144;0,0211861
1712,4786;0,0216859
1713,4429;0,022146
1714,4071;0,0225059
1715,3713;0,0226935
1716,3356;0,0226816
1717,2998;0,0225767
1718,2640;0,0225765
1719,2283;0,0227849
1720,1925;0,023158
1721,1567;0,0235961
1722,1210;0,0240188
1723,0852;0,0243851
1724,0494;0,0246908
1725,0137;0,0249609
1725,9779;0,0252334
1726,9421;0,025539
1727,9064;0,0258833
1728,8706;0,0262386
1729,8348;0,0265432
1730,7991;0,0267036
1731,7633;0,0266141
1732,7275;0,0262288
1733,6918;0,0256699
1734,6560;0,0251899
1735,6202;0,0249415
1736,5845;0,024871
1737,5487;0,024826
1738,5129;0,0246759
1739,4772;0,024365
1740,4414;0,0239255
1741,4056;0,02345
1742,3699;0,0230263
1743,3341;0,0226826
1744,2983;0,0223911
1745,2626;0,0221006
1746,2268;0,0217532
1747,1910;0,0212809
1748,1553;0,0206162
1749,1195;0,0197489
1750,0837;0,0187884
1751,0480;0,0179184
1752,0122;0,0172586
1752,9764;0,0167977
1753,9407;0,0164444
1754,9049;0,0161069
1755,8691;0,0157393
1756,8334;0,0153467
1757,7976;0,0149539
1758,7618;0,0145651
1759,7261;0,0141524
1760,6903;0,0136887
1761,6545;0,0131928
1762,6188;0,0127346
1763,5830;0,0123869
1764,5472;0,0121725
1765,5115;0,0120591
1766,4757;0,0119896
1767,4399;0,0119115
1768,4042;0,0117866
1769,3684;0,0115844
1770,3326;0,0112799
1771,2969;0,0108753
1772,2611;0,0104362
1773,2253;0,010078
1774,1896;0,00988397
1775,1538;0,00984925
1776,1180;0,00990349
1777,0823;0,00996461
1778,0465;0,00997499
1779,0107;0,00991652
1779,9750;0,00980828
1780,9392;0,00968664
1781,9034;0,00957895
1782,8677;0,00949455
1783,8319;0,00943857
1784,7961;0,00942686
1785,7604;0,00948036
1786,7246;0,00960335
1787,6888;0,0097677
1788,6531;0,00991533
1789,6173;0,00997429
1790,5815;0,00988715
1791,5458;0,0096573
1792,5100;0,00938049
1793,4742;0,00919104
1794,4385;0,00915468
1795,4027;0,00923791
1796,3669;0,00936132
1797,3312;0,00945268
1798,2954;0,00946969
1799,2596;0,00940647
1800,2239;0,0092918
1801,1881;0,00917408
1802,1523;0,00909503
1803,1166;0,00907128
1804,0808;0,00909561
1805,0450;0,00914858
1806,0093;0,00920768
1806,9735;0,00925118
1807,9377;0,00926068
1808,9020;0,00922639
1809,8662;0,00915411
1810,8304;0,00906699
1811,7947;0,00899488
1812,7589;0,00895645
1813,7231;0,0089497
1814,6874;0,00895734
1815,6516;0,0089609
1816,6158;0,00895412
1817,5801;0,00894837
1818,5443;0,00896501
1819,5085;0,00901782
1820,4728;0,00909972
1821,4370;0,00918474
1822,4012;0,00924283
1823,3655;0,00925786
1824,3297;0,0092373
1825,2939;0,00920386
1826,2582;0,00917224
1827,2224;0,00913266
1828,1866;0,00905921
1829,1509;0,00894001
1830,1151;0,00880376
1831,0793;0,00870876
1832,0436;0,00869609
1833,0078;0,00875727
1833,9720;0,00884547
1834,9363;0,00890945
1835,9005;0,00892454
1836,8647;0,00890767
1837,8290;0,00890464
1838,7932;0,00895351
1839,7574;0,0090544
1840,7217;0,00916874
1841,6859;0,00923946
1842,6501;0,00921891
1843,6144;0,00910031
1844,5786;0,00893389
1845,5428;0,00879382
1846,5071;0,0087184
1847,4713;0,00869289
1848,4355;0,00868167
1849,3998;0,0086626
1850,3640;0,00863787
1851,3282;0,00862379
1852,2925;0,00863251
1853,2567;0,00866069
1854,2209;0,00869315
1855,1852;0,00871613
1856,1494;0,00872731
1857,1136;0,00873496
1858,0779;0,00874842
1859,0421;0,00877047
1860,0063;0,00879903
1860,9706;0,00883543
1861,9348;0,00888898
1862,8990;0,00897064
1863,8633;0,00908016
1864,8275;0,00919611
1865,7917;0,00927577
1866,7560;0,00926924
1867,7202;0,00915116
1868,6844;0,00895413
1869,6487;0,00875994
1870,6129;0,00863967
1871,5771;0,0086078
1872,5414;0,00863155
1873,5056;0,00866589
1874,4698;0,00867988
1875,4341;0,00866679
1876,3983;0,00864101
1877,3625;0,00862489
1878,3268;0,00863348
1879,2910;0,00866672
1880,2552;0,00871298
1881,2195;0,00875893
1882,1837;0,00879801
1883,1479;0,00883241
1884,1122;0,00886822
1885,0764;0,00890803
1886,0406;0,00894682
1887,0049;0,0089739
1887,9691;0,00897957
1888,9333;0,00896232
1889,8976;0,00893031
1890,8618;0,00889405
1891,8260;0,00885719
1892,7903;0,00881544
1893,7545;0,0087652
1894,7188;0,00871351
1895,6830;0,0086791
1896,6472;0,00868086
1897,6115;0,0087214
1898,5757;0,00878072
1899,5399;0,0088267
1900,5042;0,0088347
1901,4684;0,00880305
1902,4326;0,00875415
1903,3969;0,00871979
1904,3611;0,00872022
1905,3253;0,00875221
1906,2896;0,0087936
1907,2538;0,00881937
1908,2180;0,00881794
1909,1823;0,00879778
1910,1465;0,00877972
1911,1107;0,00878007
1912,0750;0,0087976
1913,0392;0,00881398
1914,0034;0,0088052
1914,9677;0,0087564
1915,9319;0,00867406
1916,8961;0,00858928
1917,8604;0,00854519
1918,8246;0,00857056
1919,7888;0,00865919
1920,7531;0,00877169
1921,7173;0,00885617
1922,6815;0,00887324
1923,6458;0,0088141
1924,6100;0,00870323
1925,5742;0,00858319
1926,5385;0,00849236
1927,5027;0,00845153
1928,4669;0,00846275
1929,4312;0,00851375
1930,3954;0,00858291
1931,3596;0,00864537
1932,3239;0,00868104
1933,2881;0,00868257
1934,2523;0,00865824
1935,2166;0,00862666
1936,1808;0,00860527
1937,1450;0,00860005
1938,1093;0,00860424
1939,0735;0,0086065
1940,0377;0,00860122
1941,0020;0,00859216
1941,9662;0,008586
1942,9304;0,00858124
1943,8947;0,00856478
1944,8589;0,00852249
1945,8231;0,00845479
1946,7874;0,00838285
1947,7516;0,00833956
1948,7158;0,00834998
1949,6801;0,00841241
1950,6443;0,00849279
1951,6085;0,00853824
1952,5728;0,00850318
1953,5370;0,00837324
1954,5012;0,00817499
1955,4655;0,00796769
1956,4297;0,00782117
1957,3939;0,00778917
1958,3582;0,00788777
1959,3224;0,00808726
1960,2866;0,00832296
1961,2509;0,00852396
1962,2151;0,00864563
1963,1793;0,00868508
1964,1436;0,00866988
1965,1078;0,0086294
1966,0720;0,00856877
1967,0363;0,00846436
1968,0005;0,00828667
1968,9647;0,00803437
1969,9290;0,0077518
1970,8932;0,0075167
1971,8574;0,00740811
1972,8217;0,00747213
1973,7859;0,00769884
1974,7501;0,00801893
1975,7144;0,00832563
1976,6786;0,00851811
1977,6428;0,00854836
1978,6071;0,00844307
1979,5713;0,00828424
1980,5355;0,00816263
1981,4998;0,00813603
1982,4640;0,00821311
1983,4282;0,00836317
1984,3925;0,00854029
1985,3567;0,00870755
1986,3209;0,00884815
1987,2852;0,00895863
1988,2494;0,00903343
1989,2136;0,00905793
1990,1779;0,00902035
1991,1421;0,00893468
1992,1063;0,00885127
1993,0706;0,00883575
1994,0348;0,00892652
1994,9990;0,00910444
1995,9633;0,00929939
1996,9275;0,00942914
1997,8917;0,00944726
1998,8560;0,0093719
1999,8202;0,00927437
2000,7844;0,00922993
2001,7487;0,00926296
2002,7129;0,00932636
2003,6771;0,00933115
2004,6414;0,00920979
2005,6056;0,00897482
2006,5698;0,00873035
2007,5341;0,0086176
2008,4983;0,00872579
2009,4625;0,00903342
2010,4268;0,009423
2011,3910;0,00975354
2012,3552;0,00993631
2013,3195;0,0099673
2014,2837;0,00990533
2015,2479;0,00981846
2016,2122;0,00973806
2017,1764;0,00965305
2018,1406;0,00954465
2019,1049;0,0094256
2020,0691;0,00934376
2021,0333;0,0093451
2021,9976;0,00942915
2022,9618;0,00953645
2023,9260;0,00958288
2024,8903;0,00951892
2025,8545;0,0093687
2026,8187;0,00921635
2027,7830;0,00914857
2028,7472;0,00919788
2029,7114;0,0093287
2030,6757;0,00947304
2031,6399;0,00958338
2032,6041;0,0096592
2033,5684;0,00972964
2034,5326;0,00981431
2035,4968;0,00990249
2036,4611;0,00996949
2037,4253;0,0100109
2038,3895;0,0100588
2039,3538;0,0101624
2040,3180;0,0103452
2041,2822;0,0105736
2042,2465;0,0107636
2043,2107;0,0108276
2044,1749;0,0107301
2045,1392;0,0105134
2046,1034;0,0102772
2047,0676;0,0101252
2048,0320;0,0101087
2048,9961;0,0102064
2049,9604;0,0103524
2050,9246;0,0104836
2051,8889;0,0105701
2052,8530;0,0106162
2053,8174;0,0106416
2054,7815;0,010662
2055,7458;0,0106809
2056,7100;0,010693
2057,6743;0,0106949
2058,6384;0,01069
2059,6028;0,0106867
2060,5669;0,0106914
2061,5313;0,0107037
2062,4954;0,0107176
2063,4597;0,0107261
2064,4238;0,010726
2065,3882;0,0107194
2066,3523;0,0107134
2067,3167;0,0107183
2068,2808;0,0107454
2069,2451;0,0108017
2070,2092;0,0108832
2071,1736;0,0109686
2072,1377;0,0110208
2073,1021;0,0110003
2074,0662;0,0108851
2075,0305;0,0106885
2075,9946;0,0104604
2076,9590;0,0102706
2077,9231;0,01018
2078,8875;0,0102144
2079,8516;0,0103551
2080,8159;0,0105513
2081,7800;0,0107449
2082,7444;0,0108954
2083,7085;0,0109905
2084,6729;0,0110394
2085,6370;0,0110569
2086,6013;0,0110497
2087,5654;0,011015
2088,5298;0,0109496
2089,4939;0,0108625
2090,4583;0,0107779
2091,4224;0,0107279
2092,3867;0,0107383
2093,3508;0,0108179
2094,3152;0,0109565
2095,2793;0,0111315
2096,2437;0,0113152
2097,2078;0,0114797
2098,1721;0,0115981
2099,1362;0,011647
2100,1006;0,0116134
2101,0647;0,0115029
2102,0291;0,0113426
2102,9932;0,0111732
2103,9575;0,0110344
2104,9216;0,0109526
2105,8860;0,0109363
2106,8501;0,010981
2107,8145;0,011075
2108,7786;0,0112005
2109,7429;0,0113317
2110,7070;0,0114365
2111,6714;0,0114854
2112,6355;0,0114651
2113,5999;0,0113864
2114,5640;0,0112794
2115,5283;0,0111784
2116,4924;0,0111068
2117,4568;0,0110719
2118,4209;0,0110718
2119,3853;0,0111047
2120,3494;0,0111711
2121,3137;0,0112661
2122,2778;0,0113703
2123,2422;0,0114493
2124,2063;0,0114703
2125,1707;0,0114233
2126,1348;0,011332
2127,0991;0,0112437
2128,0632;0,0112005
2129,0276;0,0112133
2129,9917;0,0112564
2130,9561;0,0112897
2131,9202;0,0112929
2132,8845;0,011287
2133,8486;0,0113239
2134,8130;0,0114455
2135,7771;0,0116401
2136,7415;0,0118327
2137,7056;0,0119227
2138,6699;0,0118462
2139,6340;0,0116214
2140,5984;0,0113482
2141,5625;0,0111628
2142,5269;0,0111717
2143,4910;0,0114013
2144,4553;0,0117851
2145,4194;0,0121955
2146,3838;0,0125005
2147,3479;0,0126163
2148,3123;0,0125345
2149,2764;0,0123147
2150,2407;0,012054
2151,2048;0,0118492
2152,1692;0,0117676
2153,1333;0,011831
2154,0977;0,0120148
2155,0618;0,0122575
2156,0261;0,0124789
2156,9902;0,0126068
2157,9546;0,012609
2158,9187;0,0125141
2159,8831;0,012394
2160,8472;0,0123135
2161,8115;0,0122903
2162,7756;0,0122934
2163,7400;0,0122727
2164,7041;0,0121926
2165,6685;0,0120529
2166,6326;0,0118885
2167,5969;0,0117499
2168,5610;0,0116778
2169,5254;0,0116873
2170,4895;0,0117658
2171,4539;0,0118842
2172,4180;0,012011
2173,3823;0,0121232
2174,3464;0,0122097
2175,3108;0,0122674
2176,2749;0,0122938
2177,2393;0,0122829
2178,2034;0,0122282
2179,1677;0,0121324
2180,1318;0,0120173
2181,0962;0,0119237
2182,0603;0,0118946
2183,0247;0,0119484
2183,9888;0,01206
2184,9531;0,0121676
2185,9172;0,0122056
2186,8816;0,0121428
2187,8457;0,0120001
2188,8101;0,0118347
2189,7742;0,0117015
2190,7385;0,0116183
2191,7026;0,0115623
2192,6670;0,0114994
2193,6311;0,0114226
2194,5955;0,0113685
2195,5596;0,0113943
2196,5239;0,0115318
2197,4880;0,011753
2198,4524;0,0119755
2199,4165;0,0121078
2200,3809;0,0121038
2201,3450;0,0119879
2202,3093;0,0118355
2203,2734;0,0117236
2204,2378;0,011686
2205,2019;0,0117024
2206,1663;0,0117234
2207,1304;0,0117089
2208,0947;0,0116543
2209,0588;0,0115889
2210,0232;0,0115524
2210,9873;0,0115691
2211,9517;0,011635
2212,9158;0,0117232
2213,8801;0,0117995
2214,8442;0,0118373
2215,8086;0,0118251
2216,7727;0,0117661
2217,7371;0,0116762
2218,7012;0,0115825
2219,6655;0,0115186
2220,6296;0,0115153
2221,5940;0,0115838
2222,5581;0,0117032
2223,5225;0,0118214
2224,4866;0,0118762
2225,4509;0,0118277
2226,4150;0,011682
2227,3794;0,0114914
2228,3435;0,0113277
2229,3079;0,011245
2230,2720;0,0112551
2231,2363;0,0113308
2232,2004;0,0114287
2233,1648;0,0115162
2234,1289;0,0115819
2235,0933;0,01163
2236,0574;0,011668
2237,0217;0,0116993
2237,9858;0,0117259
2238,9502;0,0117539
2239,9143;0,0117938
2240,8787;0,0118533
2241,8428;0,0119288
2242,8071;0,0120034
2243,7712;0,0120523
2244,7356;0,0120535
2245,6997;0,0119966
2246,6641;0,0118865
2247,6282;0,0117439
2248,5925;0,0116014
2249,5566;0,0114964
2250,5210;0,011459
2251,4851;0,0114992
2252,4495;0,0115987
2253,4136;0,0117156
2254,3779;0,0118014
2255,3420;0,0118232
2256,3064;0,0117781
2257,2705;0,0116909
2258,2349;0,0115986
2259,1990;0,0115322
2260,1633;0,0115061
2261,1274;0,0115183
2262,0918;0,0115572
2263,0559;0,0116101
2264,0203;0,011667
2264,9844;0,0117205
2265,9487;0,0117633
2266,9128;0,0117869
2267,8772;0,0117817
2268,8413;0,01174
2269,8057;0,0116623
2270,7698;0,0115618
2271,7341;0,0114655
2272,6982;0,0114067
2273,6626;0,0114106
2274,6267;0,0114799
2275,5911;0,0115898
2276,5552;0,0116973
2277,5195;0,0117619
2278,4836;0,011766
2279,4480;0,0117228
2280,4121;0,0116674
2281,3765;0,0116375
2282,3406;0,0116548
2283,3049;0,0117191
2284,2690;0,0118138
2285,2334;0,0119174
2286,1975;0,0120144
2287,1619;0,0120992
2288,1260;0,0121755
2289,0903;0,0122512
2290,0544;0,0123336
2291,0188;0,0124257
2291,9829;0,0125241
2292,9473;0,0126206
2293,9114;0,0127058
2294,8757;0,0127736
2295,8398;0,0128246
2296,8042;0,0128639
2297,7683;0,0128963
2298,7327;0,0129207
2299,6968;0,0129291
2300,6611;0,0129116
2301,6252;0,0128656
2302,5896;0,0128026
2303,5537;0,0127473
2304,5181;0,0127277
2305,4822;0,0127597
2306,4465;0,0128341
2307,4106;0,0129145
2308,3750;0,0129495
2309,3391;0,0128969
2310,3035;0,0127456
2311,2676;0,0125246
2312,2319;0,0122898
2313,1960;0,0120964
2314,1604;0,0119712
2315,1245;0,0119043
2316,0889;0,0118614
2317,0530;0,0118083
2318,0173;0,0117324
2318,9814;0,0116508
2319,9458;0,0116028
2320,9099;0,0116304
2321,8743;0,0117566
2322,8384;0,0119695
2323,8027;0,0122203
2324,7668;0,0124362
2325,7312;0,012545
2326,6953;0,0125026
2327,6597;0,012315
2328,6238;0,0120434
2329,5881;0,0117884
2330,5522;0,0116528
2331,5166;0,011694
2332,4807;0,0118943
2333,4451;0,0121702
2334,4092;0,0124176
2335,3735;0,012565
2336,3376;0,0126059
2337,3020;0,012596
2338,2661;0,012614
2339,2305;0,0127014
2340,1946;0,0128152
2341,1589;0,0128279
2342,1230;0,0125982
2343,0874;0,012118
2344,0515;0,0116361
2345,0159;0,011535
2345,9800;0,0119931
2346,9443;0,0128331
2347,9084;0,0136913
2348,8728;0,0142556
2349,8369;0,014393
2350,8013;0,0141641
2351,7654;0,0137628
2352,7297;0,0134051
2353,6938;0,0132188
2354,6582;0,0132188
2355,6223;0,0133711
2356,5867;0,0136359
2357,5508;0,0139441
2358,5151;0,0141793
2359,4792;0,0142219
2360,4436;0,0140166
2361,4077;0,0135909
2362,3721;0,0130166
2363,3362;0,0123725
2364,3005;0,0117333
2365,2646;0,0111664
2366,2290;0,0107151
2367,1931;0,0103834
2368,1575;0,0101393
2369,1216;0,00993833
2370,0859;0,00974802
2371,0500;0,00956126
2372,0144;0,00939551
2372,9785;0,00928352
2373,9429;0,00926045
2374,9070;0,00935101
2375,8713;0,00956049
2376,8354;0,00987293
2377,7998;0,0102566
2378,7639;0,0106728
2379,7283;0,011083
2380,6924;0,0114532
2381,6567;0,0117556
2382,6208;0,0119714
2383,5852;0,0120943
2384,5493;0,0121334
2385,5137;0,0121128
2386,4778;0,012065
2387,4421;0,012022
2388,4063;0,0120054
2389,3706;0,0120214
2390,3347;0,0120623
2391,2991;0,0121126
2392,2632;0,0121579
2393,2275;0,0121896
2394,1917;0,0122071
2395,1560;0,0122147
2396,1201;0,012219
2397,0845;0,0122264
2398,0486;0,0122421
2399,0129;0,0122674
2399,9771;0,0122994
2400,9414;0,0123315
2401,9055;0,0123546
2402,8699;0,012362
2403,8340;0,0123532
2404,7983;0,0123351
2405,7625;0,0123196
2406,7268;0,0123175
2407,6909;0,0123341
2408,6553;0,0123677
2409,6194;0,0124116
2410,5837;0,0124585
2411,5479;0,0125025
2412,5122;0,0125393
2413,4763;0,0125644
2414,4407;0,0125733
2415,4048;0,0125637
2416,3691;0,0125389
2417,3333;0,0125087
2418,2976;0,0124871
2419,2617;0,0124867
2420,2261;0,012513
2421,1902;0,0125626
2422,1545;0,0126248
2423,1187;0,0126857
2424,0830;0,0127325
2425,0471;0,0127566
2426,0115;0,0127562
2426,9756;0,012738
2427,9399;0,012716
2428,9041;0,0127076
2429,8684;0,0127263
2430,8325;0,0127739
2431,7969;0,0128391
2432,7610;0,0129023
2433,7253;0,012946
2434,6895;0,0129647
2435,6538;0,0129665
2436,6179;0,0129672
2437,5823;0,0129796
2438,5464;0,0130056
2439,5107;0,0130369
2440,4749;0,0130613
2441,4392;0,0130725
2442,4033;0,0130728
2443,3677;0,0130714
2444,3318;0,0130768
2445,2961;0,0130912
2446,2603;0,0131099
2447,2246;0,0131253
2448,1887;0,0131327
2449,1531;0,0131334
2450,1172;0,0131335
2451,0815;0,01314
2452,0457;0,0131566
2453,0100;0,0131829
2453,9741;0,0132159
2454,9385;0,0132527
2455,9026;0,0132913
2456,8669;0,0133306
2457,8311;0,013368
2458,7954;0,0133986
2459,7595;0,0134165
2460,7239;0,0134173
2461,6880;0,0134017
2462,6523;0,0133771
2463,6165;0,0133555
2464,5808;0,0133487
2465,5449;0,013363
2466,5093;0,0133955
2467,4734;0,0134358
2468,4377;0,0134705
2469,4019;0,0134902
2470,3662;0,0134937
2471,3303;0,0134879
2472,2947;0,0134834
2473,2588;0,0134881
2474,2231;0,0135035
2475,1873;0,0135254
2476,1516;0,0135479
2477,1157;0,013568
2478,0801;0,0135869
2479,0442;0,0136079
2480,0085;0,0136327
2480,9727;0,013659
2481,9370;0,0136831
2482,9011;0,013703
2483,8655;0,0137214
2484,8296;0,0137437
2485,7939;0,0137728
2486,7581;0,013805
2487,7224;0,0138305
2488,6865;0,013839
2489,6509;0,0138273
2490,6150;0,0138037
2491,5793;0,0137839
2492,5435;0,0137832
2493,5078;0,0138079
2494,4719;0,0138527
2495,4363;0,0139047
2496,4004;0,0139501
2497,3647;0,0139803
2498,3289;0,0139939
2499,2932;0,0139941
2500,2573;0,0139873
2501,2217;0,0139801
2502,1858;0,0139782
2503,1501;0,0139848
2504,1143;0,0139989
2505,0786;0,0140157
2506,0427;0,0140301
2507,0071;0,0140409
2507,9712;0,0140528
2508,9355;0,0140738
2509,8997;0,0141084
2510,8640;0,0141527
2511,8281;0,0141943
2512,7925;0,0142199
2513,7566;0,0142235
2514,7209;0,0142106
2515,6851;0,0141941
2516,6494;0,014185
2517,6135;0,0141857
2518,5779;0,0141899
2519,5420;0,0141896
2520,5063;0,0141826
2521,4705;0,0141741
2522,4348;0,014172
2523,3989;0,0141797
2524,3633;0,0141928
2525,3274;0,0142028
2526,2917;0,0142041
2527,2559;0,0141991
2528,2202;0,0141958
2529,1843;0,0142015
2530,1487;0,0142161
2531,1128;0,0142323
2532,0771;0,0142413
2533,0413;0,0142409
2534,0056;0,0142377
2534,9697;0,0142434
2535,9341;0,0142664
2536,8982;0,0143052
2537,8625;0,0143491
2538,8267;0,0143842
2539,7910;0,0144023
2540,7551;0,0144047
2541,7195;0,0144
2542,6836;0,0143981
2543,6479;0,0144034
2544,6121;0,0144128
2545,5764;0,0144196
2546,5405;0,0144186
2547,5049;0,0144104
2548,4690;0,0144014
2549,4333;0,0143994
2550,3975;0,0144089
2551,3618;0,0144281
2552,3259;0,0144515
2553,2903;0,0144733
2554,2544;0,0144902
2555,2188;0,0145024
2556,1829;0,0145109
2557,1472;0,0145166
2558,1113;0,01452
2559,0757;0,014523
2560,0398;0,0145292
2561,0042;0,0145418
2561,9683;0,0145601
2562,9326;0,0145786
2563,8967;0,0145894
2564,8611;0,0145876
2565,8252;0,0145751
2566,7896;0,0145601
2567,7537;0,014551
2568,7180;0,0145511
2569,6821;0,0145567
2570,6465;0,0145612
2571,6106;0,014561
2572,5750;0,0145587
2573,5391;0,0145606
2574,5034;0,0145709
2575,4675;0,0145882
2576,4319;0,0146064
2577,3960;0,0146194
2578,3604;0,0146251
2579,3245;0,0146258
2580,2888;0,0146255
2581,2529;0,0146261
2582,2173;0,0146276
2583,1814;0,0146303
2584,1458;0,0146368
2585,1099;0,0146518
2586,0742;0,0146785
2587,0383;0,0147144
2588,0027;0,0147511
2588,9668;0,0147783
2589,9312;0,0147899
2590,8953;0,0147875
2591,8596;0,01478
2592,8237;0,0147784
2593,7881;0,0147901
2594,7522;0,014816
2595,7166;0,0148513
2596,6807;0,0148891
2597,6450;0,0149246
2598,6091;0,0149556
2599,5735;0,0149822
2600,5376;0,0150048
2601,5020;0,0150229
2602,4661;0,0150364
2603,4304;0,0150464
2604,3945;0,0150551
2605,3589;0,0150653
2606,3230;0,0150782
2607,2874;0,0150929
2608,2515;0,0151073
2609,2158;0,0151201
2610,1799;0,0151319
2611,1443;0,015145
2612,1084;0,0151618
2613,0728;0,0151831
2614,0369;0,0152081
2615,0012;0,0152345
2615,9653;0,0152601
2616,9297;0,0152836
2617,8938;0,0153041
2618,8582;0,0153213
2619,8223;0,0153357
2620,7866;0,015348
2621,7507;0,0153597
2622,7151;0,0153713
2623,6792;0,0153825
2624,6436;0,0153925
2625,6077;0,0154016
2626,5720;0,015413
2627,5361;0,0154313
2628,5005;0,0154606
2629,4646;0,0155013
2630,4290;0,0155482
2631,3931;0,0155924
2632,3574;0,0156249
2633,3215;0,0156407
2634,2859;0,0156404
2635,2500;0,0156302
2636,2144;0,0156188
2637,1785;0,015614
2638,1428;0,0156209
2639,1069;0,0156402
2640,0713;0,0156685
2641,0354;0,0157004
2641,9998;0,0157301
2642,9639;0,0157544
2643,9282;0,0157737
2644,8923;0,0157911
2645,8567;0,0158104
2646,8208;0,0158338
2647,7852;0,0158609
2648,7493;0,0158893
2649,7136;0,0159164
2650,6777;0,0159407
2651,6421;0,0159622
2652,6062;0,0159818
2653,5706;0,016
2654,5347;0,0160173
2655,4990;0,0160339
2656,4631;0,0160507
2657,4275;0,0160693
2658,3916;0,0160909
2659,3560;0,0161156
2660,3201;0,0161412
2661,2844;0,0161641
2662,2485;0,0161813
2663,2129;0,0161928
2664,1770;0,0162016
2665,1414;0,0162128
2666,1055;0,0162307
2667,0698;0,0162557
2668,0339;0,0162845
2668,9983;0,0163118
2669,9624;0,0163335
2670,9268;0,0163493
2671,8909;0,0163621
2672,8552;0,0163757
2673,8193;0,0163922
2674,7837;0,0164112
2675,7478;0,016431
2676,7122;0,0164503
2677,6763;0,0164695
2678,6406;0,0164903
2679,6047;0,0165135
2680,5691;0,0165386
2681,5332;0,0165637
2682,4976;0,0165869
2683,4617;0,0166082
2684,4260;0,0166293
2685,3901;0,0166532
2686,3545;0,0166819
2687,3186;0,0167153
2688,2830;0,0167508
2689,2471;0,0167843
2690,2114;0,0168125
2691,1755;0,0168343
2692,1399;0,0168513
2693,1040;0,0168668
2694,0684;0,0168842
2695,0325;0,0169052
2695,9968;0,0169297
2696,9609;0,0169563
2697,9253;0,0169833
2698,8894;0,0170095
2699,8538;0,0170351
2700,8179;0,0170611
2701,7822;0,0170893
2702,7463;0,0171211
2703,7107;0,0171573
2704,6748;0,0171963
2705,6392;0,0172344
2706,6033;0,0172674
2707,5676;0,0172927
2708,5317;0,0173115
2709,4961;0,0173292
2710,4602;0,0173524
2711,4246;0,0173853
2712,3887;0,0174265
2713,3530;0,0174699
2714,3171;0,0175075
2715,2815;0,0175339
2716,2456;0,0175493
2717,2100;0,0175588
2718,1741;0,0175692
2719,1384;0,0175855
2720,1025;0,0176084
2721,0669;0,0176345
2722,0310;0,0176595
2722,9954;0,0176805
2723,9595;0,0176982
2724,9238;0,0177165
2725,8879;0,0177403
2726,8523;0,0177726
2727,8164;0,0178128
2728,7808;0,0178573
2729,7449;0,0179005
2730,7092;0,0179383
2731,6733;0,0179686
2732,6377;0,0179911
2733,6018;0,018006
2734,5662;0,0180135
2735,5303;0,018014
2736,4946;0,0180105
2737,4587;0,0180086
2738,4231;0,0180155
2739,3872;0,0180365
2740,3516;0,0180716
2741,3157;0,0181141
2742,2800;0,0181535
2743,2441;0,01818
2744,2085;0,0181892
2745,1726;0,0181837
2746,1370;0,0181717
2747,1011;0,0181626
2748,0654;0,0181641
2749,0295;0,0181795
2749,9939;0,0182082
2750,9580;0,0182475
2751,9224;0,0182937
2752,8865;0,0183429
2753,8508;0,0183915
2754,8149;0,0184355
2755,7793;0,0184715
2756,7434;0,0184973
2757,7078;0,0185131
2758,6719;0,0185226
2759,6362;0,0185321
2760,6003;0,0185482
2761,5647;0,0185748
2762,5288;0,0186116
2763,4932;0,0186538
2764,4573;0,0186949
2765,4216;0,0187303
2766,3857;0,0187594
2767,3501;0,018786
2768,3142;0,0188155
2769,2786;0,0188516
2770,2427;0,0188943
2771,2070;0,0189399
2772,1711;0,018983
2773,1355;0,0190196
2774,0996;0,0190489
2775,0640;0,0190733
2776,0281;0,0190968
2776,9924;0,0191229
2777,9565;0,019153
2778,9209;0,0191868
2779,8850;0,0192237
2780,8494;0,0192647
2781,8135;0,0193123
2782,7778;0,0193687
2783,7419;0,0194323
2784,7063;0,0194967
2785,6704;0,0195527
2786,6348;0,0195929
2787,5989;0,0196171
2788,5632;0,0196339
2789,5273;0,0196571
2790,4917;0,019699
2791,4558;0,0197638
2792,4202;0,0198466
2793,3843;0,0199362
2794,3486;0,0200214
2795,3127;0,0200964
2796,2771;0,0201619
2797,2412;0,0202222
2798,2056;0,020282
2799,1697;0,020343
2800,1340;0,0204045
2801,0981;0,0204652
2802,0625;0,0205261
2803,0266;0,0205898
2803,9910;0,0206595
2804,9551;0,0207363
2805,9194;0,0208182
2806,8835;0,0209007
2807,8479;0,0209798
2808,8120;0,0210544
2809,7764;0,0211268
2810,7405;0,0212023
2811,7048;0,021286
2812,6689;0,0213817
2813,6333;0,0214902
2814,5974;0,021609
2815,5618;0,0217335
2816,5259;0,0218574
2817,4902;0,0219748
2818,4543;0,022083
2819,4187;0,022184
2820,3828;0,0222839
2821,3472;0,0223902
2822,3113;0,0225076
2823,2756;0,0226364
2824,2397;0,0227729
2825,2041;0,0229133
2826,1682;0,0230573
2827,1326;0,0232087
2828,0967;0,0233731
2829,0610;0,023554
2830,0251;0,0237503
2830,9895;0,0239569
2831,9536;0,0241671
2832,9180;0,0243753
2833,8821;0,0245788
2834,8464;0,0247794
2835,8105;0,0249835
2836,7749;0,0252018
2837,7390;0,0254476
2838,7034;0,0257325
2839,6675;0,0260634
2840,6318;0,0264406
2841,5959;0,0268595
2842,5603;0,0273145
2843,5244;0,0278003
2844,4888;0,028309
2845,4529;0,0288238
2846,4172;0,0293151
2847,3813;0,0297424
2848,3457;0,0300644
2849,3098;0,0302528
2850,2742;0,0303023
2851,2383;0,0302328
2852,2026;0,0300813
2853,1667;0,0298899
2854,1311;0,0296947
2855,0952;0,0295205
2856,0596;0,0293814
2857,0237;0,0292837
2857,9880;0,0292298
2858,9521;0,0292192
2859,9165;0,0292494
2860,8806;0,0293152
2861,8450;0,0294096
2862,8091;0,0295257
2863,7734;0,0296581
2864,7375;0,0298036
2865,7019;0,02996
2866,6660;0,0301235
2867,6304;0,0302869
2868,5945;0,0304401
2869,5588;0,0305738
2870,5229;0,0306834
2871,4873;0,0307718
2872,4514;0,0308484
2873,4158;0,0309244
2874,3799;0,031008
2875,3442;0,0311012
2876,3083;0,0311998
2877,2727;0,0312974
2878,2368;0,0313893
2879,2012;0,0314752
2880,1653;0,0315592
2881,1296;0,0316474
2882,0938;0,0317443
2883,0581;0,0318499
2884,0222;0,0319592
2884,9866;0,0320643
2885,9507;0,032159
2886,9150;0,0322423
2887,8792;0,0323192
2888,8435;0,0323972
2889,8076;0,0324815
2890,7720;0,0325712
2891,7361;0,0326603
2892,7004;0,0327426
2893,6646;0,0328162
2894,6289;0,0328855
2895,5930;0,0329578
2896,5574;0,0330384
2897,5215;0,0331263
2898,4858;0,0332142
2899,4500;0,0332925
2900,4143;0,0333546
2901,3784;0,0334001
2902,3428;0,0334355
2903,3069;0,0334716
2904,2712;0,033519
2905,2354;0,0335862
2906,1997;0,0336778
2907,1638;0,0337964
2908,1282;0,0339447
2909,0923;0,0341272
2910,0566;0,0343485
2911,0208;0,0346096
2911,9851;0,0349021
2912,9492;0,0352058
2913,9136;0,0354894
2914,8777;0,0357167
2915,8420;0,0358556
2916,8062;0,0358854
2917,7705;0,0358015
2918,7346;0,035614
2919,6990;0,035344
2920,6631;0,0350162
2921,6274;0,0346534
2922,5916;0,0342725
2923,5559;0,0338835
2924,5200;0,0334932
2925,4844;0,0331083
2926,4485;0,0327391
2927,4128;0,0323984
2928,3770;0,0320973
2929,3413;0,03184
2930,3054;0,0316208
2931,2698;0,0314259
2932,2339;0,0312395
2933,1982;0,0310498
2934,1624;0,0308532
2935,1267;0,0306529
2936,0908;0,0304558
2937,0552;0,0302667
2938,0193;0,0300865
2938,9836;0,0299112
2939,9478;0,0297345
2940,9121;0,02955
2941,8762;0,0293529
2942,8406;0,0291412
2943,8047;0,0289158
2944,7690;0,028681
2945,7332;0,0284433
2946,6975;0,0282109
2947,6616;0,0279907
2948,6260;0,0277869
2949,5901;0,0276001
2950,5544;0,0274279
2951,5186;0,0272677
2952,4829;0,0271182
2953,4470;0,0269794
2954,4114;0,0268505
2955,3755;0,0267274
2956,3398;0,0266032
2957,3040;0,0264706
2958,2683;0,0263263
2959,2324;0,0261734
2960,1968;0,02602
2961,1609;0,0258749
2962,1252;0,0257427
2963,0894;0,0256221
2964,0537;0,025508
2965,0178;0,0253958
2965,9822;0,0252833
2966,9463;0,0251707
2967,9106;0,0250573
2968,8748;0,0249395
2969,8391;0,024812
2970,8032;0,024671
2971,7676;0,0245182
2972,7317;0,0243619
2973,6960;0,0242142
2974,6602;0,0240856
2975,6245;0,0239801
2976,5886;0,0238934
2977,5530;0,0238161
2978,5171;0,0237381
2979,4814;0,0236542
2980,4456;0,0235657
2981,4099;0,023479
2982,3740;0,023401
2983,3384;0,0233359
2984,3025;0,0232834
2985,2668;0,0232398
2986,2310;0,0232007
2987,1953;0,023163
2988,1594;0,0231257
2989,1238;0,0230893
2990,0879;0,0230548
2991,0522;0,0230231
2992,0164;0,0229956
2992,9807;0,0229746
2993,9448;0,0229628
2994,9092;0,0229626
2995,8733;0,0229748
2996,8376;0,0229978
2997,8018;0,0230281
2998,7661;0,0230616
2999,7302;0,0230949
3000,6946;0,0231263
3001,6587;0,0231556
3002,6230;0,0231841
3003,5872;0,0232138
3004,5515;0,0232463
3005,5156;0,023282
3006,4800;0,0233199
3007,4441;0,0233571
3008,4084;0,0233902
3009,3726;0,0234168
3010,3369;0,0234373
3011,3010;0,0234555
3012,2654;0,0234777
3013,2295;0,0235095
3014,1938;0,0235535
3015,1580;0,0236082
3016,1223;0,0236697
3017,0864;0,0237344
3018,0508;0,0238016
3019,0149;0,0238733
3019,9792;0,0239519
3020,9434;0,0240376
3021,9077;0,0241262
3022,8718;0,0242115
3023,8362;0,0242881
3024,8003;0,0243553
3025,7646;0,0244173
3026,7288;0,0244804
3027,6931;0,0245488
3028,6572;0,0246218
3029,6216;0,0246939
3030,5857;0,0247589
3031,5500;0,0248145
3032,5142;0,0248654
3033,4785;0,0249212
3034,4426;0,0249908
3035,4070;0,0250774
3036,3711;0,0251761
3037,3354;0,0252767
3038,2996;0,0253689
3039,2639;0,0254483
3040,2280;0,0255189
3041,1924;0,0255904
3042,1565;0,0256738
3043,1208;0,0257747
3044,0850;0,025891
3045,0493;0,0260142
3046,0134;0,0261339
3046,9778;0,0262435
3047,9419;0,0263424
3048,9063;0,0264357
3049,8704;0,0265291
3050,8347;0,0266255
3051,7988;0,0267243
3052,7632;0,0268235
3053,7273;0,0269236
3054,6917;0,0270285
3055,6558;0,0271434
3056,6201;0,0272701
3057,5842;0,0274043
3058,5486;0,0275377
3059,5127;0,027662
3060,4771;0,0277742
3061,4412;0,0278762
3062,4055;0,0279722
3063,3696;0,0280637
3064,3340;0,028149
3065,2981;0,0282256
3066,2625;0,0282949
3067,2266;0,0283638
3068,1909;0,0284427
3069,1550;0,02854
3070,1194;0,0286583
3071,0835;0,028794
3072,0479;0,0289392
3073,0120;0,0290849
3073,9763;0,0292229
3074,9404;0,0293462
3075,9048;0,0294508
3076,8689;0,0295364
3077,8333;0,0296085
3078,7974;0,0296772
3079,7617;0,0297541
3080,7258;0,0298476
3081,6902;0,0299595
3082,6543;0,030085
3083,6187;0,0302162
3084,5828;0,0303456
3085,5471;0,0304688
3086,5112;0,030585
3087,4756;0,0306962
3088,4397;0,0308055
3089,4041;0,0309159
3090,3682;0,0310289
3091,3325;0,0311446
3092,2966;0,0312619
3093,2610;0,0313801
3094,2251;0,031499
3095,1895;0,0316189
3096,1536;0,031739
3097,1179;0,0318569
3098,0820;0,031969
3099,0464;0,0320729
3100,0105;0,0321698
3100,9749;0,0322653
3101,9390;0,0323669
3102,9033;0,0324808
3103,8674;0,0326084
3104,8318;0,0327461
3105,7959;0,0328874
3106,7603;0,0330264
3107,7244;0,0331603
3108,6887;0,0332896
3109,6528;0,0334176
3110,6172;0,0335471
3111,5813;0,0336795
3112,5457;0,0338142
3113,5098;0,0339497
3114,4741;0,0340845
3115,4382;0,034218
3116,4026;0,0343499
3117,3667;0,034479
3118,3311;0,0346029
3119,2952;0,0347192
3120,2595;0,0348274
3121,2236;0,0349309
3122,1880;0,0350369
3123,1521;0,0351545
3124,1165;0,0352907
3125,0806;0,0354471
3126,0449;0,0356186
3127,0090;0,0357951
3127,9734;0,0359648
3128,9375;0,0361194
3129,9019;0,036257
3130,8660;0,0363828
3131,8303;0,0365066
3132,7944;0,0366379
3133,7588;0,0367816
3134,7229;0,0369358
3135,6873;0,0370938
3136,6514;0,0372478
3137,6157;0,0373935
3138,5798;0,037531
3139,5442;0,037664
3140,5083;0,0377975
3141,4727;0,0379363
3142,4368;0,0380841
3143,4011;0,0382435
3144,3652;0,0384146
3145,3296;0,0385934
3146,2937;0,0387714
3147,2581;0,0389379
3148,2222;0,0390856
3149,1865;0,0392153
3150,1506;0,0393368
3151,1150;0,0394646
3152,0791;0,0396096
3153,0435;0,0397734
3154,0076;0,0399475
3154,9719;0,0401192
3155,9360;0,0402794
3156,9004;0,0404268
3157,8645;0,0405677
3158,8289;0,0407108
3159,7930;0,0408626
3160,7573;0,0410248
3161,7214;0,0411958
3162,6858;0,0413729
3163,6499;0,041553
3164,6143;0,0417326
3165,5784;0,0419071
3166,5427;0,042072
3167,5068;0,0422256
3168,4712;0,0423715
3169,4353;0,0424675
3170,3997;0,0426253
3171,3638;0,0428013
3172,3281;0,0429947
3173,2922;0,0431967
3174,2566;0,0433941
3175,2207;0,0435747
3176,1851;0,0437324
3177,1492;0,0438707
3178,1135;0,0440007
3179,0776;0,0441363
3180,0420;0,0442863
3181,0061;0,0444506
3181,9705;0,0446197
3182,9346;0,0447814
3183,8989;0,0449279
3184,8630;0,0450617
3185,8274;0,0451935
3186,7915;0,0453367
3187,7559;0,0454983
3188,7200;0,0456759
3189,6843;0,0458594
3190,6484;0,0460379
3191,6128;0,0462052
3192,5769;0,0463623
3193,5413;0,0465141
3194,5054;0,0466656
3195,4697;0,0468184
3196,4338;0,0469704
3197,3982;0,0471184
3198,3623;0,0472608
3199,3267;0,0473995
3200,2908;0,0475389
3201,2551;0,0476838
3202,2192;0,0478371
3203,1836;0,0479976
3204,1477;0,048161
3205,1121;0,0483211
3206,0762;0,0484733
3207,0405;0,0486156
3208,0046;0,0487499
3208,9690;0,0488799
3209,9331;0,0490101
3210,8975;0,0491441
3211,8616;0,0492851
3212,8259;0,0494351
3213,7900;0,0495941
3214,7544;0,0497591
3215,7185;0,0499233
3216,6829;0,0500785
3217,6470;0,0502188
3218,6113;0,0503438
3219,5754;0,0504592
3220,5398;0,0505747
3221,5039;0,0506992
3222,4683;0,0508373
3223,4324;0,0509894
3224,3967;0,0511539
3225,3608;0,0513287
3226,3252;0,0515114
3227,2893;0,0516964
3228,2537;0,0518731
3229,2178;0,0520277
3230,1821;0,0521497
3231,1462;0,0522388
3232,1106;0,0523091
3233,0747;0,0523846
3234,0391;0,052489
3235,0032;0,0526339
3235,9675;0,0528134
3236,9316;0,0530076
3237,8960;0,0531932
3238,8601;0,0533552
3239,8245;0,0534921
3240,7886;0,0536132
3241,7529;0,0537314
3242,7170;0,053856
3243,6814;0,0539904
3244,6455;0,0541337
3245,6099;0,0542844
3246,5740;0,054442
3247,5383;0,0546055
3248,5024;0,0547722
3249,4668;0,0549375
3250,4309;0,0550968
3251,3953;0,0552489
3252,3594;0,0553966
3253,3237;0,0555454
3254,2878;0,0556998
3255,2522;0,0558608
3256,2163;0,0560263
3257,1807;0,0561924
3258,1448;0,0563561
3259,1091;0,0565163
3260,0732;0,0566734
3261,0376;0,0568286
3262,0017;0,0569828
3262,9661;0,0571363
3263,9302;0,0572881
3264,8945;0,0574364
3265,8586;0,0575781
3266,8230;0,0577112
3267,7871;0,0578356
3268,7515;0,0579538
3269,7156;0,0580685
3270,6799;0,0581801
3271,6440;0,0582848
3272,6084;0,0583756
3273,5725;0,0584474
3274,5369;0,058501
3275,5010;0,0585448
3276,4653;0,0585911
3277,4294;0,0586496
3278,3938;0,0587229
3279,3579;0,0588052
3280,3223;0,0588864
3281,2864;0,0589569
3282,2507;0,0590117
3283,2148;0,0590517
3284,1792;0,0590813
3285,1433;0,0591061
3286,1077;0,0591307
3287,0718;0,0591567
3288,0361;0,0591836
3289,0002;0,0592085
3289,9646;0,059228
3290,9287;0,0592399
3291,8931;0,0592451
3292,8572;0,0592469
3293,8215;0,0592506
3294,7856;0,0592601
3295,7500;0,0592764
3296,7141;0,0592977
3297,6785;0,05932
3298,6426;0,0593402
3299,6069;0,0593566
3300,5710;0,0593691
3301,5354;0,0593777
3302,4995;0,0593806
3303,4639;0,0593738
3304,4280;0,0593534
3305,3923;0,0593185
3306,3564;0,0592743
3307,3208;0,0592322
3308,2849;0,0592065
3309,2493;0,0592075
3310,2134;0,0592363
3311,1777;0,0592844
3312,1418;0,0593377
3313,1062;0,059385
3314,0703;0,0594232
3315,0347;0,0594579
3315,9988;0,0594988
3316,9631;0,059553
3317,9272;0,0596206
3318,8916;0,0596952
3319,8557;0,0597686
3320,8201;0,0598357
3321,7842;0,0598969
3322,7485;0,0599568
3323,7126;0,0600214
3324,6770;0,0600946
3325,6411;0,0601773
3326,6055;0,0602676
3327,5696;0,0603618
3328,5339;0,060455
3329,4980;0,0605422
3330,4624;0,0606181
3331,4265;0,0606778
3332,3909;0,0607171
3333,3550;0,0607334
3334,3193;0,0607266
3335,2834;0,0606994
3336,2478;0,0606569
3337,2119;0,0606047
3338,1763;0,0605462
3339,1404;0,0604811
3340,1047;0,0604069
3341,0688;0,0603205
3342,0332;0,0602221
3342,9973;0,0601147
3343,9617;0,0600026
3344,9258;0,0598881
3345,8901;0,0597702
3346,8542;0,0596462
3347,8186;0,0595143
3348,7827;0,0593762
3349,7471;0,0592353
3350,7112;0,0590943
3351,6755;0,0589533
3352,6396;0,0588105
3353,6040;0,0586651
3354,5681;0,0585194
3355,5325;0,0583787
3356,4966;0,0582477
3357,4609;0,0581276
3358,4250;0,0580152
3359,3894;0,0579059
3360,3535;0,0577955
3361,3179;0,0576818
3362,2820;0,0575637
3363,2463;0,0574404
3364,2104;0,0573114
3365,1748;0,0571778
3366,1389;0,0570428
3367,1033;0,0569096
3368,0674;0,0567791
3369,0317;0,0566483
3369,9958;0,0565127
3370,9602;0,0563703
3371,9243;0,0562245
3372,8887;0,0560831
3373,8528;0,0559536
3374,8171;0,0558382
3375,7813;0,0557326
3376,7456;0,0556286
3377,7097;0,0555192
3378,6741;0,0554016
3379,6382;0,0552768
3380,6025;0,0551463
3381,5667;0,0550104
3382,5310;0,0548687
3383,4951;0,054723
3384,4595;0,0545794
3385,4236;0,0544468
3386,3879;0,0543317
3387,3521;0,0542335
3388,3164;0,054144
3389,2805;0,0540508
3390,2449;0,0539435
3391,2090;0,0538192
3392,1733;0,053683
3393,1375;0,0535445
3394,1018;0,0534124
3395,0659;0,0532905
3396,0303;0,0531771
3396,9944;0,0530677
3397,9587;0,0529573
3398,9229;0,0528416
3399,8872;0,0527176
3400,8513;0,0525828
3401,8157;0,0524367
3402,7798;0,0522818
3403,7441;0,0521238
3404,7083;0,0519695
3405,6726;0,0518239
3406,6367;0,0516872
3407,6011;0,0515536
3408,5652;0,051414
3409,5295;0,0512597
3410,4937;0,0510874
3411,4580;0,0509014
3412,4221;0,0507123
3413,3865;0,0505319
3414,3506;0,0503669
3415,3149;0,0502151
3416,2791;0,0500665
3417,2434;0,0499077
3418,2075;0,0497286
3419,1719;0,0495271
3420,1360;0,0493092
3421,1003;0,0490859
3422,0645;0,0488672
3423,0288;0,048659
3423,9929;0,0484629
3424,9573;0,0482772
3425,9214;0,0480998
3426,8857;0,0479275
3427,8499;0,0477568
3428,8142;0,0475839
3429,7783;0,0474051
3430,7427;0,0472181
3431,7068;0,0470226
3432,6711;0,0468208
3433,6353;0,0466174
3434,5996;0,0464181
3435,5637;0,046228
3436,5281;0,0460484
3437,4922;0,045877
3438,4565;0,0457086
3439,4207;0,0455386
3440,3850;0,0453641
3441,3491;0,0451824
3442,3135;0,0449888
3443,2776;0,0447756
3444,2419;0,0445369
3445,2061;0,0442745
3446,1704;0,0440031
3447,1345;0,0437456
3448,0989;0,0435207
3449,0630;0,043332
3450,0273;0,043166
3450,9915;0,0430016
3451,9558;0,0428225
3452,9199;0,0426246
3453,8843;0,0424151
3454,8484;0,0422047
3455,8127;0,0420012
3456,7769;0,0418049
3457,7412;0,041612
3458,7053;0,0414177
3459,6697;0,0412194
3460,6338;0,041017
3461,5981;0,0408114
3462,5623;0,0406039
3463,5266;0,0403956
3464,4907;0,0401865
3465,4551;0,0399755
3466,4192;0,0397612
3467,3835;0,0395429
3468,3477;0,0393217
3469,3120;0,0390989
3470,2761;0,038875
3471,2405;0,0386489
3472,2046;0,0384212
3473,1689;0,0381975
3474,1331;0,0379895
3475,0974;0,0378093
3476,0615;0,0376599
3477,0259;0,0375287
3477,9900;0,0373905
3478,9543;0,0372195
3479,9185;0,0370041
3480,8828;0,0367555
3481,8469;0,0365021
3482,8113;0,0362725
3483,7754;0,0360775
3484,7397;0,0359062
3485,7039;0,0357359
3486,6682;0,0355476
3487,6323;0,0353374
3488,5967;0,0351175
3489,5608;0,0349065
3490,5251;0,0347161
3491,4893;0,0345433
3492,4536;0,0343742
3493,4177;0,0341941
3494,3821;0,0339993
3495,3462;0,0338022
3496,3105;0,0336232
3497,2747;0,033475
3498,2390;0,0333489
3499,2031;0,0332164
3500,1675;0,0330439
3501,1316;0,0328148
3502,0959;0,0325459
3503,0601;0,0322818
3504,0244;0,0320662
3504,9885;0,0319112
3505,9529;0,0317907
3506,9170;0,0316604
3507,8813;0,0314863
3508,8455;0,0312635
3509,8098;0,0310168
3510,7739;0,030781
3511,7383;0,0305772
3512,7024;0,0304039
3513,6667;0,0302467
3514,6309;0,0300945
3515,5952;0,0299488
3516,5593;0,0298186
3517,5237;0,0297088
3518,4878;0,0296111
3519,4521;0,0295065
3520,4163;0,0293756
3521,3806;0,0292097
3522,3447;0,0290137
3523,3091;0,0287991
3524,2732;0,0285729
3525,2375;0,028332
3526,2017;0,02807
3527,1660;0,0277908
3528,1301;0,0275168
3529,0945;0,0272813
3530,0586;0,0271085
3531,0229;0,026996
3531,9871;0,0269142
3532,9514;0,0268205
3533,9155;0,0266798
3534,8799;0,0264817
3535,8440;0,0262476
3536,8083;0,0260221
3537,7725;0,0258507
3538,7368;0,025756
3539,7009;0,025727
3540,6653;0,0257227
3541,6294;0,0256858
3542,5938;0,0255621
3543,5579;0,0253245
3544,5222;0,0249947
3545,4863;0,0246431
3546,4507;0,0243505
3547,4148;0,024156
3548,3792;0,0240369
3549,3433;0,0239311
3550,3076;0,0237791
3551,2717;0,0235589
3552,2361;0,0232984
3553,2002;0,0230574
3554,1646;0,0228846
3555,1287;0,0227854
3556,0930;0,0227251
3557,0571;0,0226587
3558,0215;0,0225651
3558,9856;0,0224635
3559,9500;0,0224009
3560,9141;0,0224142
3561,8784;0,0224933
3562,8425;0,0225674
3563,8069;0,022521
3564,7710;0,0222377
3565,7354;0,0216805
3566,6995;0,020973
3567,6638;0,0203566
3568,6279;0,0200067
3569,5923;0,0199193
3570,5564;0,0199727
3571,5208;0,020035
3572,4849;0,0200244
3573,4492;0,0199229
3574,4133;0,0197624
3575,3777;0,0195924
3576,3418;0,0194453
3577,3062;0,0193247
3578,2703;0,0192223
3579,2346;0,0191431
3580,1987;0,0191122
3581,1631;0,0191524
3582,1272;0,0192537
3583,0916;0,0193572
3584,0557;0,0193648
3585,0200;0,0191766
3585,9841;0,018762
3586,9485;0,0182332
3587,9126;0,0178102
3588,8770;0,0176519
3589,8411;0,0177418
3590,8054;0,0179404
3591,7695;0,0180928
3592,7339;0,0180991
3593,6980;0,0179455
3594,6624;0,017701
3595,6265;0,017463
3596,5908;0,017283
3597,5549;0,0171406
3598,5193;0,0169857
3599,4834;0,0168006
3600,4478;0,016625
3601,4119;0,0165231
3602,3762;0,0165223
3603,3403;0,016583
3604,3047;0,0166187
3605,2688;0,0165407
3606,2332;0,0163032
3607,1973;0,0159322
3608,1616;0,0155152
3609,1257;0,0151476
3610,0901;0,0148791
3611,0542;0,014712
3612,0186;0,014633
3612,9827;0,0146316
3613,9470;0,0146882
3614,9111;0,0147523
3615,8755;0,0147419
3616,8396;0,0145754
3617,8040;0,014232
3618,7681;0,0138085
3619,7324;0,0134993
3620,6965;0,0134715
3621,6609;0,0137495
3622,6250;0,0142248
3623,5894;0,0147349
3624,5535;0,0151137
3625,5178;0,0152017
3626,4819;0,0148646
3627,4463;0,0140874
3628,4104;0,0131079
3629,3748;0,0123295
3630,3389;0,0119693
3631,3032;0,011927
3632,2673;0,0119835
3633,2317;0,0119835
3634,1958;0,011881
3635,1602;0,0117109
3636,1243;0,0115355
3637,0886;0,0113946
3638,0527;0,01129
3639,0171;0,0112091
3639,9812;0,0111584
3640,9456;0,011174
3641,9097;0,0112973
3642,8740;0,0115371
3643,8381;0,011844
3644,8025;0,0121044
3645,7666;0,0121402
3646,7310;0,0117359
3647,6951;0,0107824
3648,6594;0,00954928
3649,6235;0,00863298
3650,5879;0,00836708
3651,5520;0,00858587
3652,5164;0,00894684
3653,4805;0,00918498
3654,4448;0,00917245
3655,4089;0,00892674
3656,3733;0,00859421
3657,3374;0,00835709
3658,3018;0,0083028
3659,2659;0,00838748
3660,2302;0,00851481
3661,1943;0,00862876
3662,1587;0,00874689
3663,1228;0,008926
3664,0872;0,00919448
3665,0513;0,00950793
3666,0156;0,00975756
3666,9797;0,00982143
3667,9441;0,00964512
3668,9082;0,00932232
3669,8726;0,00906677
3670,8367;0,00902406
3671,8010;0,0091291
3672,7651;0,00916706
3673,7295;0,00892817
3674,6936;0,00836493
3675,6580;0,00769049
3676,6221;0,00723974
3677,5864;0,00716505
3678,5505;0,00736962
3679,5149;0,00768602
3680,4790;0,00801376
3681,4434;0,00833802
3682,4075;0,00868603
3683,3718;0,00907141
3684,3359;0,00945855
3685,3003;0,00975866
3686,2644;0,00985147
3687,2288;0,00963632
3688,1929;0,00912825
3689,1572;0,00853481
3690,1213;0,00814502
3691,0857;0,00809042
3692,0498;0,00829476
3693,0142;0,00861391
3693,9783;0,00894468
3694,9426;0,00924294
3695,9067;0,00949794
3696,8711;0,00970081
3697,8352;0,0098263
3698,7996;0,00983756
3699,7637;0,00971531
3700,7280;0,00949736
3701,6921;0,00929152
3702,6565;0,00922711
3703,6206;0,00937442
3704,5850;0,00970835
3705,5491;0,0101326
3706,5134;0,010515
3707,4775;0,0107029
3708,4419;0,0105373
3709,4060;0,00992156
3710,3704;0,00896068
3711,3345;0,00800874
3712,2988;0,00743657
3713,2629;0,00735946
3714,2273;0,00765536
3715,1914;0,00813693
3716,1558;0,00865676
3717,1199;0,00912948
3718,0842;0,00952263
3719,0483;0,00983982
3720,0127;0,010098
3720,9768;0,0103025
3721,9412;0,010437
3722,9053;0,0104803
3723,8696;0,0104413
3724,8337;0,0103792
3725,7981;0,0103792
3726,7622;0,0104995
3727,7266;0,010738
3728,6907;0,0110416
3729,6550;0,0113347
3730,6191;0,0115351
3731,5835;0,0115522
3732,5476;0,0112884
3733,5120;0,010686
3734,4761;0,00983549
3735,4404;0,0090189
3736,4045;0,00853965
3737,3689;0,00850464
3738,3330;0,00881212
3739,2974;0,00926876
3740,2615;0,00967277
3741,2258;0,0098441
3742,1899;0,0096633
3743,1543;0,00916854
3744,1184;0,00863032
3745,0828;0,00838636
3746,0469;0,00852479
3747,0112;0,00883005
3747,9753;0,00897379
3748,9397;0,00869409
3749,9038;0,00796285
3750,8682;0,00710999
3751,8323;0,00660783
3752,7966;0,00663286
3753,7607;0,0070073
3754,7251;0,00745512
3755,6892;0,00776805
3756,6536;0,00784439
3757,6177;0,00770034
3758,5820;0,00746231
3759,5461;0,00729386
3760,5105;0,0072876
3761,4746;0,00742639
3762,4390;0,00763076
3763,4031;0,00781975
3764,3674;0,00794076
3765,3315;0,00797122
3766,2959;0,00790662
3767,2600;0,00774965
3768,2244;0,00751478
3769,1885;0,00724713
3770,1528;0,0070294
3771,1169;0,00695036
3772,0813;0,00705184
3773,0454;0,0073024
3774,0098;0,00761437
3774,9739;0,00787969
3775,9382;0,00800483
3776,9023;0,00794586
3777,8667;0,00774003
3778,8308;0,00750007
3779,7952;0,00734557
3780,7593;0,00732312
3781,7236;0,00739283
3782,6877;0,00747647
3783,6521;0,00751049
3784,6162;0,00747382
3785,5806;0,00738925
3786,5447;0,00730556
3787,5090;0,00727231
3788,4731;0,00731996
3789,4375;0,00745076
3790,4016;0,00763951
3791,3660;0,00784347
3792,3301;0,00802065
3793,2944;0,00815149
3794,2585;0,0082519
3795,2229;0,00836141
3796,1870;0,00850377
3797,1514;0,00864745
3798,1155;0,00870435
3799,0798;0,00858184
3800,0439;0,00826908
3801,0083;0,00788889
3801,9724;0,00762061
3802,9368;0,00753723
3803,9009;0,00754788
3804,8652;0,00749486
3805,8293;0,00729105
3806,7937;0,00700659
3807,7578;0,00683735
3808,7222;0,00694714
3809,6863;0,00733761
3810,6506;0,00787251
3811,6147;0,00837784
3812,5791;0,00871501
3813,5432;0,00882495
3814,5076;0,00875942
3815,4717;0,0086567
3816,4360;0,00862615
3817,4001;0,00864123
3818,3645;0,00856544
3819,3286;0,00828264
3820,2930;0,0078246
3821,2571;0,00738233
3822,2214;0,00715165
3823,1855;0,00717651
3824,1499;0,00736266
3825,1140;0,00758669
3826,0784;0,0077699
3827,0425;0,00789404
3828,0068;0,00798355
3828,9709;0,00807577
3829,9353;0,00819738
3830,8994;0,00835676
3831,8638;0,00854637
3832,8279;0,00874287
3833,7922;0,00890229
3834,7563;0,00896088
3835,7207;0,00885539
3836,6848;0,00856639
3837,6492;0,00815878
3838,6133;0,00776411
3839,5776;0,0074912
3840,5417;0,0073549
3841,5061;0,00729965
3842,4702;0,00727513
3843,4346;0,00728711
3844,3987;0,00739399
3845,3630;0,00766197
3846,3271;0,00811655
3847,2915;0,00872221
3848,2556;0,00938691
3849,2200;0,00996452
3850,1841;0,0102422
3851,1484;0,00995581
3852,1125;0,00896737
3853,0769;0,00761265
3854,0410;0,00660963
3855,0054;0,00633438
3855,9695;0,00662184
3856,9338;0,00716524
3857,8979;0,00774758
3858,8623;0,00824373
3859,8264;0,00857807
3860,7908;0,00871056
3861,7549;0,00865544
3862,7192;0,00850093
3863,6833;0,00837737
3864,6477;0,00837337
3865,6118;0,00848156
3866,5762;0,00862051
3867,5403;0,00869037
3868,5046;0,00861877
3869,4688;0,00839113
3870,4331;0,00806235
3871,3972;0,00773601
3872,3616;0,00751556
3873,3257;0,00746083
3874,2900;0,00757386
3875,2542;0,0078085
3876,2185;0,00809004
3877,1826;0,00833845
3878,1470;0,00849432
3879,1111;0,00854222
3880,0754;0,00851324
3881,0396;0,00845171
3882,0039;0,00837159
3882,9680;0,00825421
3883,9324;0,00809497
3884,8965;0,007944
3885,8608;0,00788374
3886,8250;0,00795422
3887,7893;0,00810403
3888,7534;0,00821529
3889,7178;0,00817949
3890,6819;0,00798276
3891,6462;0,00774524
3892,6104;0,00764729
3893,5747;0,00778683
3894,5388;0,00812283
3895,5032;0,00853613
3896,4673;0,00890657
3897,4316;0,00915228
3898,3958;0,0092399
3899,3601;0,00917503
3900,3242;0,00897542
3901,2886;0,00865191
3902,2527;0,00822776
3903,2170;0,00777492
3904,1812;0,00740489
3905,1455;0,00720321
3906,1096;0,00717778
3907,0740;0,00727202
3908,0381;0,00741439
3909,0024;0,00755743
3909,9666;0,00769065
3910,9309;0,00783004
3911,8950;0,00799296
3912,8594;0,00817302
3913,8235;0,00833138
3914,7878;0,00841233
3915,7520;0,00837872
3916,7163;0,00824813
3917,6804;0,00809592
3918,6448;0,00800768
3919,6089;0,00801847
3920,5732;0,00809431
3921,5374;0,00816293
3922,5017;0,00816347
3923,4658;0,0080877
3924,4302;0,00798888
3925,3943;0,00794468
3926,3586;0,00799904
3927,3228;0,00813186
3928,2871;0,00827338
3929,2512;0,00834319
3930,2156;0,00829215
3931,1797;0,00813109
3932,1440;0,00792595
3933,1082;0,00775647
3934,0725;0,00767267
3935,0366;0,00768319
3936,0010;0,00776974
3936,9651;0,00790247
3937,9294;0,00804615
3938,8936;0,00816287
3939,8579;0,00822074
3940,8220;0,00820996
3941,7864;0,00815474
3942,7505;0,00810392
3943,7148;0,00809916
3944,6790;0,00814497
3945,6433;0,00820532
3946,6074;0,00822727
3947,5718;0,00817445
3948,5359;0,00805147
3949,5002;0,00790296
3950,4644;0,00778495
3951,4287;0,00773107
3952,3928;0,00774049
3953,3572;0,00779032
3954,3213;0,00785508
3955,2856;0,00791815
3956,2498;0,00797167
3957,2141;0,00801017
3958,1782;0,00802628
3959,1426;0,00801302
3960,1067;0,00797073
3961,0710;0,00791164
3962,0352;0,00785665
3962,9995;0,0078252
3963,9636;0,00782531
3964,9280;0,00785079
3965,8921;0,00788653
3966,8564;0,00791749
3967,8206;0,00793571
3968,7849;0,00794201
3969,7490;0,00794233
3970,7134;0,00794192
3971,6775;0,00794163
3972,6418;0,00793865
3973,6060;0,00793046
3974,5703;0,00791824
3975,5344;0,00790695
3976,4988;0,00790192
3977,4629;0,00790489
3978,4272;0,00791263
3979,3914;0,00791903
3980,3557;0,007919
3981,3198;0,00791182
3982,2842;0,00790154
3983,2483;0,00789464
3984,2126;0,00789632
3985,1768;0,00790791
3986,1411;0,00792666
3987,1052;0,00794738
3988,0696;0,00796479
3989,0337;0,00797512
3989,9980;0,0079764
3990,9622;0,0079678
3991,9265;0,00794917
3992,8906;0,00792169
3993,8550;0,00788921
3994,8191;0,00785874
3995,7834;0,00783884
3996,7476;0,00783593
3997,7119;0,00785102
3998,6760;0,00787917
3999,6404;0,00791234
4000,6045;0,00791272

##### Extended Information
[Comments]
Sample name
Comment
Username
Division
Organization;UNIVERSIDAD INDUSTRIAL DE SANTANDER

[Detailed Information]
Creation date;18/03/2025 12:04 p.m.

Data array type;Linear data array
Horizontal axis;Wavenumber [cm-1]
Vertical axis;Abs
Start;399,193 cm-1
End;4000,6 cm-1
Data interval;0,964233 cm-1
Data points;3736    

[Measurement Information]
Model name;FT/IR-4X1typeA
Serial No.;A035162111

Accessory;ATR PRO 4X
Accessory S/N;A021162126
Incident angle;45 deg

Measurement date;18/03/2025 12:03 p.m.

Light source;Standard
Detector;TGS
Accumulation;40
Resolution;4 cm-1
Zero filling;On
Apodization;Cosine
Gain;Auto (8)
Aperture;Auto (7 mm)
Scan speed;Auto (2 mm/sec)
Filter;Auto (12800 Hz)

