TITLE;
DATA TYPE;INFRARED SPECTRUM
ORIGIN;JASCO
OWNER;
DATE;25/03/18
TIME;12:57:30
SPECTROMETER/DATA SYSTEM;
LOCALE;9226
RESOLUTION;
DELTAX;0,964233
XUNITS;1/CM
YUNITS;ABSORBANCE
FIRSTX;  399,1927
LASTX; 4000,6047
NPOINTS;    3736
FIRSTY;     0,20066
MAXY;     0,25296
MINY;     0,01165
XYDATA
399,1927;0,20066
400,1569;0,200794
401,1211;0,202561
402,0854;0,205021
403,0496;0,2075
404,0138;0,209562
404,9781;0,210901
405,9423;0,211329
406,9065;0,210848
407,8708;0,209686
408,8350;0,208253
409,7992;0,207029
410,7635;0,20644
411,7277;0,206731
412,6919;0,207877
413,6562;0,209615
414,6204;0,211563
415,5846;0,21331
416,5489;0,214426
417,5131;0,214538
418,4773;0,213666
419,4416;0,212534
420,4058;0,212101
421,3700;0,212728
422,3343;0,214135
423,2985;0,215851
424,2627;0,217488
425,2270;0,218816
426,1912;0,219764
427,1554;0,220375
428,1197;0,220726
429,0839;0,220879
430,0481;0,220886
431,0124;0,220823
431,9766;0,220785
432,9408;0,220832
433,9051;0,22094
434,8693;0,220998
435,8335;0,220881
436,7978;0,220523
437,7620;0,219938
438,7262;0,219165
439,6905;0,218228
440,6547;0,21716
441,6189;0,216087
442,5832;0,215258
443,5474;0,21495
444,5116;0,215262
445,4759;0,215986
446,4401;0,216699
447,4043;0,217001
448,3686;0,216721
449,3328;0,215984
450,2970;0,215126
451,2613;0,214495
452,2255;0,214265
453,1897;0,214363
454,1540;0,214536
455,1182;0,214501
456,0824;0,214072
457,0467;0,213254
458,0109;0,212254
458,9751;0,211363
459,9394;0,210782
460,9036;0,21054
461,8678;0,210549
462,8321;0,210684
463,7963;0,210827
464,7605;0,210871
465,7248;0,210742
466,6890;0,210418
467,6532;0,209949
468,6175;0,209457
469,5817;0,209098
470,5459;0,20902
471,5102;0,209301
472,4744;0,209902
473,4386;0,210673
474,4029;0,211436
475,3671;0,212071
476,3313;0,21253
477,2956;0,212808
478,2598;0,212904
479,2240;0,21282
480,1883;0,212584
481,1525;0,212278
482,1167;0,212035
483,0810;0,212
484,0452;0,212258
485,0094;0,21278
485,9737;0,213437
486,9379;0,214073
487,9021;0,214588
488,8664;0,214963
489,8306;0,215236
490,7948;0,215456
491,7591;0,215652
492,7233;0,215831
493,6875;0,216001
494,6518;0,216189
495,6160;0,216434
496,5802;0,216766
497,5445;0,217185
498,5087;0,217658
499,4729;0,218137
500,4372;0,218579
501,4014;0,218961
502,3656;0,219279
503,3299;0,219544
504,2941;0,219782
505,2583;0,220034
506,2226;0,220351
507,1868;0,220781
508,1510;0,221344
509,1153;0,222014
510,0795;0,222728
511,0437;0,223426
512,0080;0,224073
512,9722;0,224673
513,9365;0,225246
514,9007;0,225797
515,8649;0,226287
516,8292;0,226642
517,7934;0,226788
518,7576;0,226704
519,7219;0,22645
520,6861;0,226137
521,6503;0,225868
522,6146;0,2257
523,5788;0,225637
524,5430;0,225631
525,5073;0,225605
526,4715;0,225486
527,4357;0,225237
528,4000;0,224873
529,3642;0,224437
530,3284;0,223976
531,2927;0,223522
532,2569;0,223094
533,2211;0,222713
534,1854;0,22241
535,1496;0,222226
536,1138;0,22219
537,0781;0,222288
538,0423;0,222444
539,0065;0,222552
539,9708;0,222528
540,9350;0,222372
541,8992;0,222188
542,8635;0,222134
543,8277;0,222343
544,7919;0,222838
545,7562;0,223514
546,7204;0,224187
547,6846;0,224701
548,6489;0,225015
549,6131;0,225209
550,5773;0,225429
551,5416;0,225801
552,5058;0,226381
553,4700;0,227139
554,4343;0,227983
555,3985;0,22877
556,3627;0,229322
557,3270;0,229454
558,2912;0,229015
559,2554;0,227946
560,2197;0,226316
561,1839;0,224311
562,1481;0,222176
563,1124;0,220136
564,0766;0,218339
565,0408;0,216842
566,0051;0,215642
566,9693;0,214708
567,9335;0,213997
568,8978;0,213457
569,8620;0,213022
570,8262;0,212631
571,7905;0,212244
572,7547;0,21186
573,7189;0,211501
574,6832;0,211189
575,6474;0,21092
576,6116;0,210664
577,5759;0,210383
578,5401;0,210065
579,5043;0,209732
580,4686;0,209425
581,4328;0,209176
582,3970;0,208993
583,3613;0,208857
584,3255;0,208745
585,2897;0,208643
586,2540;0,208555
587,2182;0,208488
588,1824;0,208438
589,1467;0,208386
590,1109;0,208303
591,0751;0,208159
592,0394;0,207936
593,0036;0,207626
593,9678;0,207232
594,9321;0,206769
595,8963;0,206255
596,8605;0,20572
597,8248;0,205199
598,7890;0,204723
599,7532;0,204307
600,7175;0,20394
601,6817;0,203591
602,6459;0,203224
603,6102;0,202814
604,5744;0,202354
605,5386;0,201845
606,5029;0,201285
607,4671;0,20066
608,4313;0,199958
609,3956;0,199186
610,3598;0,198386
611,3240;0,197627
612,2883;0,196966
613,2525;0,196412
614,2167;0,1959
615,1810;0,195304
616,1452;0,194477
617,1094;0,193327
618,0737;0,191861
619,0379;0,190186
620,0021;0,188448
620,9664;0,186772
621,9306;0,185229
622,8948;0,183852
623,8591;0,182652
624,8233;0,181629
625,7875;0,180781
626,7518;0,180079
627,7160;0,179466
628,6802;0,17887
629,6445;0,178219
630,6087;0,177468
631,5729;0,17661
632,5372;0,175679
633,5014;0,174744
634,4656;0,173879
635,4299;0,173139
636,3941;0,172539
637,3583;0,172054
638,3226;0,171627
639,2868;0,171199
640,2510;0,170726
641,2153;0,170198
642,1795;0,169632
643,1437;0,169071
644,1080;0,16856
645,0722;0,168134
646,0364;0,167799
647,0007;0,167532
647,9649;0,167296
648,9291;0,167069
649,8934;0,166858
650,8576;0,166701
651,8218;0,166639
652,7861;0,166693
653,7503;0,166849
654,7145;0,167073
655,6788;0,167339
656,6430;0,16764
657,6072;0,167975
658,5715;0,168311
659,5357;0,168552
660,4999;0,168576
661,4642;0,168315
662,4284;0,167824
663,3926;0,167249
664,3569;0,166756
665,3211;0,16647
666,2853;0,166423
667,2496;0,166423
668,2138;0,165981
669,1780;0,164727
670,1423;0,16291
671,1065;0,160975
672,0707;0,159069
673,0350;0,157132
673,9992;0,15509
674,9634;0,152955
675,9277;0,150832
676,8919;0,14886
677,8561;0,147117
678,8204;0,145599
679,7846;0,14426
680,7488;0,143069
681,7131;0,142022
682,6773;0,141123
683,6415;0,140368
684,6058;0,139731
685,5700;0,139182
686,5342;0,138681
687,4985;0,138193
688,4627;0,137686
689,4269;0,137146
690,3912;0,136581
691,3554;0,136018
692,3196;0,135484
693,2839;0,134996
694,2481;0,134554
695,2123;0,134145
696,1766;0,133753
697,1408;0,133358
698,1050;0,132943
699,0693;0,132485
700,0335;0,131968
700,9977;0,131386
701,9620;0,130745
702,9262;0,130064
703,8904;0,129361
704,8547;0,128648
705,8189;0,127931
706,7831;0,127213
707,7474;0,126497
708,7116;0,125786
709,6758;0,125071
710,6401;0,124326
711,6043;0,123516
712,5685;0,122621
713,5328;0,121664
714,4970;0,120714
715,4612;0,119797
716,4255;0,119101
717,3897;0,118539
718,3539;0,118006
719,3182;0,117353
720,2824;0,116458
721,2466;0,115295
722,2109;0,113945
723,1751;0,112547
724,1393;0,111225
725,1036;0,110046
726,0678;0,109022
727,0320;0,108126
727,9963;0,107318
728,9605;0,10656
729,9247;0,10582
730,8890;0,105078
731,8532;0,104318
732,8174;0,103538
733,7817;0,102746
734,7459;0,101961
735,7101;0,101207
736,6744;0,100507
737,6386;0,0998723
738,6028;0,0993053
739,5671;0,0987958
740,5313;0,0983272
741,4955;0,0978815
742,4598;0,0974428
743,4240;0,096998
744,3882;0,096537
745,3525;0,0960534
746,3167;0,0955472
747,2809;0,0950264
748,2452;0,094506
749,2094;0,094002
750,1736;0,0935237
751,1379;0,093068
752,1021;0,0926216
753,0663;0,092168
754,0306;0,0916971
754,9948;0,0912099
755,9590;0,0907172
756,9233;0,0902315
757,8875;0,089762
758,8517;0,0893133
759,8160;0,0888897
760,7802;0,0885007
761,7444;0,0881601
762,7087;0,0878788
763,6729;0,0876547
764,6371;0,0874674
765,6014;0,0872839
766,5656;0,0870717
767,5298;0,0868132
768,4941;0,0865122
769,4583;0,0861888
770,4225;0,0858673
771,3868;0,0855645
772,3510;0,0852859
773,3152;0,0850286
774,2795;0,0847881
775,2437;0,0845617
776,2079;0,0843487
777,1722;0,0841459
778,1364;0,0839445
779,1006;0,0837284
780,0649;0,0834779
781,0291;0,0831752
781,9933;0,0828104
782,9576;0,0823855
783,9218;0,0819148
784,8860;0,0814214
785,8503;0,0809317
786,8145;0,0804709
787,7787;0,08006
788,7430;0,0797129
789,7072;0,0794338
790,6714;0,079214
791,6357;0,0790308
792,5999;0,078853
793,5641;0,0786507
794,5284;0,0784075
795,4926;0,0781268
796,4568;0,0778282
797,4211;0,0775364
798,3853;0,0772691
799,3495;0,0770317
800,3138;0,0768201
801,2780;0,0766283
802,2422;0,0764529
803,2065;0,0762923
804,1707;0,0761426
805,1349;0,0759961
806,0992;0,0758445
807,0634;0,0756853
808,0276;0,075525
808,9919;0,0753756
809,9561;0,0752461
810,9203;0,0751353
811,8846;0,0750311
812,8488;0,0749187
813,8130;0,0747906
814,7773;0,074653
815,7415;0,0745234
816,7057;0,0744217
817,6700;0,0743602
818,6342;0,0743377
819,5984;0,0743412
820,5627;0,0743511
821,5269;0,0743474
822,4911;0,0743139
823,4554;0,074239
824,4196;0,0741171
825,3839;0,0739491
826,3481;0,0737444
827,3123;0,0735211
828,2766;0,0733028
829,2408;0,0731108
830,2050;0,0729557
831,1693;0,0728318
832,1335;0,0727183
833,0977;0,0725876
834,0620;0,0724174
835,0262;0,0721994
835,9904;0,0719423
836,9547;0,0716664
837,9189;0,0713948
838,8831;0,0711458
839,8474;0,0709297
840,8116;0,0707508
841,7758;0,0706107
842,7401;0,0705101
843,7043;0,0704466
844,6685;0,070412
845,6328;0,0703909
846,5970;0,0703651
847,5612;0,0703209
848,5255;0,0702561
849,4897;0,0701805
850,4539;0,0701102
851,4182;0,0700569
852,3824;0,0700214
853,3466;0,069994
854,3109;0,0699622
855,2751;0,0699188
856,2393;0,0698652
857,2036;0,0698072
858,1678;0,069748
859,1320;0,0696847
860,0963;0,0696119
861,0605;0,0695287
862,0247;0,0694432
862,9890;0,0693699
863,9532;0,0693223
864,9174;0,069307
865,8817;0,0693247
866,8459;0,0693769
867,8101;0,0694715
868,7744;0,0696212
869,7386;0,0698343
870,7028;0,0701037
871,6671;0,0704048
872,6313;0,0707044
873,5955;0,0709769
874,5598;0,0712161
875,5240;0,0714372
876,4882;0,0716659
877,4525;0,0719252
878,4167;0,0722282
879,3809;0,0725796
880,3452;0,0729833
881,3094;0,0734485
882,2736;0,0739888
883,2379;0,0746163
884,2021;0,0753349
885,1663;0,0761391
886,1306;0,0770159
887,0948;0,0779499
888,0590;0,0789239
889,0233;0,0799176
889,9875;0,0809059
890,9517;0,0818599
891,9160;0,0827512
892,8802;0,0835547
893,8444;0,0842489
894,8087;0,0848125
895,7729;0,0852209
896,7371;0,0854488
897,7014;0,0854771
898,6656;0,0853024
899,6298;0,0849423
900,5941;0,0844333
901,5583;0,0838225
902,5225;0,0831577
903,4868;0,08248
904,4510;0,0818214
905,4152;0,081206
906,3795;0,0806522
907,3437;0,0801739
908,3079;0,0797809
909,2722;0,079477
910,2364;0,0792588
911,2007;0,0791154
912,1649;0,0790324
913,1292;0,0789974
914,0934;0,0790068
915,0576;0,0790675
916,0219;0,0791929
916,9861;0,0793929
917,9503;0,079666
918,9146;0,0799974
919,8788;0,0803654
920,8430;0,0807512
921,8073;0,0811446
922,7715;0,0815425
923,7357;0,0819413
924,7000;0,0823313
925,6642;0,0826976
926,6284;0,0830291
927,5927;0,0833263
928,5569;0,0836043
929,5211;0,0838856
930,4854;0,0841887
931,4496;0,0845199
932,4138;0,084874
933,3781;0,0852433
934,3423;0,0856278
935,3065;0,0860409
936,2708;0,0865059
937,2350;0,0870467
938,1992;0,08768
939,1635;0,0884115
940,1277;0,089239
941,0919;0,0901571
942,0562;0,0911605
943,0204;0,0922439
943,9846;0,0934
944,9489;0,0946197
945,9131;0,0958961
946,8773;0,0972279
947,8416;0,0986203
948,8058;0,100079
949,7700;0,101603
950,7343;0,10318
951,6985;0,104791
952,6627;0,106419
953,6270;0,10806
954,5912;0,109724
955,5554;0,11143
956,5197;0,113191
957,4839;0,115008
958,4481;0,116876
959,4124;0,118784
960,3766;0,120725
961,3408;0,122695
962,3051;0,124687
963,2693;0,126688
964,2335;0,128683
965,1978;0,130665
966,1620;0,132644
967,1262;0,134649
968,0905;0,136718
969,0547;0,138888
970,0189;0,141187
970,9832;0,143636
971,9474;0,146252
972,9116;0,149054
973,8759;0,15206
974,8401;0,155281
975,8043;0,158712
976,7686;0,162335
977,7328;0,166108
978,6970;0,169974
979,6613;0,173847
980,6255;0,177622
981,5897;0,181179
982,5540;0,184407
983,5182;0,18723
984,4824;0,189627
985,4467;0,19164
986,4109;0,193356
987,3751;0,194878
988,3394;0,196297
989,3036;0,197668
990,2678;0,199005
991,2321;0,200286
992,1963;0,201472
993,1605;0,20253
994,1248;0,203449
995,0890;0,204246
996,0532;0,204959
997,0175;0,205631
997,9817;0,206292
998,9459;0,20695
999,9102;0,207606
1000,8744;0,208271
1001,8386;0,208979
1002,8029;0,209791
1003,7671;0,210775
1004,7313;0,211981
1005,6956;0,213424
1006,6598;0,215086
1007,6240;0,216928
1008,5883;0,218908
1009,5525;0,220997
1010,5167;0,223175
1011,4810;0,225419
1012,4452;0,2277
1013,4094;0,229974
1014,3737;0,232193
1015,3379;0,234314
1016,3021;0,236306
1017,2664;0,238147
1018,2306;0,239828
1019,1948;0,241353
1020,1591;0,242734
1021,1233;0,244002
1022,0875;0,245194
1023,0518;0,246353
1024,0160;0,247508
1024,9802;0,248667
1025,9445;0,249807
1026,9087;0,250881
1027,8729;0,251822
1028,8372;0,252547
1029,8014;0,252962
1030,7656;0,252959
1031,7299;0,252426
1032,6941;0,251273
1033,6583;0,249463
1034,6226;0,247044
1035,5868;0,244161
1036,5510;0,241034
1037,5153;0,237917
1038,4795;0,235043
1039,4437;0,232589
1040,4080;0,230655
1041,3722;0,229264
1042,3364;0,228374
1043,3007;0,227902
1044,2649;0,227735
1045,2291;0,227754
1046,1934;0,22785
1047,1576;0,227931
1048,1218;0,227928
1049,0861;0,227787
1050,0503;0,227458
1051,0145;0,226892
1051,9788;0,226047
1052,9430;0,224901
1053,9072;0,223456
1054,8715;0,221728
1055,8357;0,219723
1056,7999;0,217415
1057,7642;0,214741
1058,7284;0,211627
1059,6926;0,208035
1060,6569;0,204003
1061,6211;0,19966
1062,5853;0,195198
1063,5496;0,190822
1064,5138;0,186696
1065,4780;0,182907
1066,4423;0,179472
1067,4065;0,176358
1068,3707;0,173514
1069,3350;0,170893
1070,2992;0,168453
1071,2634;0,166146
1072,2277;0,16391
1073,1919;0,161677
1074,1561;0,159385
1075,1204;0,157001
1076,0846;0,154537
1077,0488;0,152045
1078,0131;0,149601
1078,9773;0,147287
1079,9415;0,145175
1080,9058;0,143314
1081,8700;0,141732
1082,8342;0,140434
1083,7985;0,139405
1084,7627;0,13861
1085,7269;0,138008
1086,6912;0,137554
1087,6554;0,13722
1088,6196;0,136996
1089,5839;0,136885
1090,5481;0,136895
1091,5123;0,13702
1092,4766;0,13724
1093,4408;0,137528
1094,4050;0,137861
1095,3693;0,138226
1096,3335;0,138623
1097,2977;0,139052
1098,2620;0,139503
1099,2262;0,139955
1100,1904;0,140375
1101,1547;0,140726
1102,1189;0,140975
1103,0831;0,141098
1104,0474;0,141085
1105,0116;0,140948
1105,9758;0,140716
1106,9401;0,140422
1107,9043;0,140084
1108,8685;0,139675
1109,8328;0,139118
1110,7970;0,138305
1111,7612;0,137141
1112,7255;0,135591
1113,6897;0,133706
1114,6539;0,131614
1115,6182;0,129476
1116,5824;0,127436
1117,5466;0,12558
1118,5109;0,123923
1119,4751;0,12242
1120,4393;0,120988
1121,4036;0,119528
1122,3678;0,117942
1123,3320;0,116156
1124,2963;0,114128
1125,2605;0,111861
1126,2247;0,109398
1127,1890;0,106805
1128,1532;0,104154
1129,1174;0,101505
1130,0817;0,0988973
1131,0459;0,0963562
1132,0101;0,0939012
1132,9744;0,0915573
1133,9386;0,0893597
1134,9028;0,0873542
1135,8671;0,0855919
1136,8313;0,084122
1137,7955;0,0829836
1138,7598;0,0821968
1139,7240;0,0817585
1140,6882;0,0816419
1141,6525;0,0818022
1142,6167;0,0821853
1143,5809;0,082737
1144,5452;0,0834096
1145,5094;0,0841655
1146,4736;0,0849778
1147,4379;0,0858302
1148,4021;0,0867151
1149,3663;0,0876304
1150,3306;0,0885727
1151,2948;0,0895315
1152,2590;0,0904847
1153,2233;0,0913991
1154,1875;0,0922337
1155,1517;0,0929439
1156,1160;0,0934827
1157,0802;0,0937977
1158,0444;0,0938263
1159,0087;0,0934945
1159,9729;0,0927234
1160,9371;0,0914447
1161,9014;0,0896206
1162,8656;0,0872612
1163,8298;0,0844318
1164,7941;0,0812458
1165,7583;0,0778481
1166,7225;0,0743924
1167,6868;0,0710196
1168,6510;0,0678415
1169,6152;0,0649324
1170,5795;0,062328
1171,5437;0,0600322
1172,5079;0,0580282
1173,4722;0,0562902
1174,4364;0,0547923
1175,4006;0,0535105
1176,3649;0,0524218
1177,3291;0,0514997
1178,2933;0,0507151
1179,2576;0,0500388
1180,2218;0,0494487
1181,1860;0,0489339
1182,1503;0,0484956
1183,1145;0,0481427
1184,0787;0,0478847
1185,0430;0,0477265
1186,0072;0,0476663
1186,9714;0,047698
1187,9357;0,0478157
1188,8999;0,0480176
1189,8641;0,0483062
1190,8284;0,0486857
1191,7926;0,0491569
1192,7568;0,0497126
1193,7211;0,0503376
1194,6853;0,0510112
1195,6495;0,0517122
1196,6138;0,0524233
1197,5780;0,0531328
1198,5422;0,053833
1199,5065;0,0544871
1200,4707;0,0551565
1201,4349;0,0557992
1202,3992;0,056405
1203,3634;0,0569598
1204,3276;0,0574468
1205,2919;0,057851
1206,2561;0,0581663
1207,2203;0,0584037
1208,1846;0,0585945
1209,1488;0,0587864
1210,1130;0,0590327
1211,0773;0,0593777
1212,0415;0,0598458
1213,0057;0,0604373
1213,9700;0,0611337
1214,9342;0,0619073
1215,8984;0,0627305
1216,8627;0,0635818
1217,8269;0,0644457
1218,7911;0,0653113
1219,7554;0,0661698
1220,7196;0,0670127
1221,6838;0,0678313
1222,6481;0,0686172
1223,6123;0,0693632
1224,5765;0,0700655
1225,5408;0,0707255
1226,5050;0,0713495
1227,4692;0,0719466
1228,4335;0,0725238
1229,3977;0,0730809
1230,3619;0,0736093
1231,3262;0,0740932
1232,2904;0,0745152
1233,2546;0,0748618
1234,2189;0,0751279
1235,1831;0,0753181
1236,1473;0,0754446
1237,1116;0,0755239
1238,0758;0,0755719
1239,0400;0,0755997
1240,0043;0,0756115
1240,9685;0,0756049
1241,9327;0,0755726
1242,8970;0,0755062
1243,8612;0,0753984
1244,8254;0,0752447
1245,7897;0,0750437
1246,7539;0,0747969
1247,7181;0,0745089
1248,6824;0,074187
1249,6466;0,0738413
1250,6108;0,073483
1251,5751;0,0731239
1252,5393;0,0727754
1253,5035;0,0724475
1254,4678;0,0721475
1255,4320;0,0718774
1256,3962;0,0716317
1257,3605;0,0713979
1258,3247;0,0711587
1259,2889;0,0708971
1260,2532;0,0706013
1261,2174;0,0702674
1262,1816;0,0698979
1263,1459;0,0694983
1264,1101;0,0690732
1265,0743;0,0686247
1266,0386;0,068154
1267,0028;0,0676624
1267,9670;0,0671536
1268,9313;0,066633
1269,8955;0,0661054
1270,8597;0,0655721
1271,8240;0,0650301
1272,7882;0,0644742
1273,7524;0,0639027
1274,7167;0,0633221
1275,6809;0,062747
1276,6451;0,0621938
1277,6094;0,0616707
1278,5736;0,0611711
1279,5378;0,0606753
1280,5021;0,0601615
1281,4663;0,0596199
1282,4305;0,0590605
1283,3948;0,0585098
1284,3590;0,0579999
1285,3232;0,0575561
1286,2875;0,0571908
1287,2517;0,0569047
1288,2159;0,0566921
1289,1802;0,056546
1290,1444;0,0564613
1291,1086;0,0564359
1292,0729;0,056471
1293,0371;0,0565728
1294,0013;0,0567512
1294,9656;0,057017
1295,9298;0,0573758
1296,8940;0,057825
1297,8583;0,0583537
1298,8225;0,0589479
1299,7867;0,0595956
1300,7510;0,0602904
1301,7152;0,0610307
1302,6794;0,0618167
1303,6437;0,062647
1304,6079;0,0635184
1305,5721;0,0644252
1306,5364;0,0653603
1307,5006;0,0663157
1308,4648;0,0672821
1309,4291;0,068247
1310,3933;0,0691911
1311,3575;0,0700863
1312,3218;0,0708971
1313,2860;0,0715857
1314,2502;0,0721186
1315,2145;0,0724694
1316,1787;0,0726199
1317,1429;0,0725616
1318,1072;0,0723034
1319,0714;0,0718789
1320,0356;0,0713456
1320,9999;0,0707701
1321,9641;0,0702088
1322,9283;0,0696969
1323,8926;0,0692505
1324,8568;0,0688754
1325,8210;0,0685749
1326,7853;0,0683521
1327,7495;0,0682069
1328,7137;0,0681304
1329,6780;0,0681011
1330,6422;0,0680871
1331,6064;0,0680546
1332,5707;0,0679786
1333,5349;0,0678491
1334,4991;0,067666
1335,4634;0,0674253
1336,4276;0,0671068
1337,3918;0,0666747
1338,3561;0,0660993
1339,3203;0,065393
1340,2845;0,0646247
1341,2488;0,063889
1342,2130;0,0632566
1343,1772;0,0627533
1344,1415;0,0623709
1345,1057;0,0620887
1346,0699;0,0618898
1347,0342;0,0617685
1347,9984;0,0617304
1348,9626;0,0617866
1349,9269;0,0619433
1350,8911;0,0621941
1351,8553;0,0625189
1352,8196;0,0628917
1353,7838;0,0632928
1354,7480;0,0637174
1355,7123;0,0641745
1356,6765;0,064676
1357,6407;0,0652227
1358,6050;0,065798
1359,5692;0,0663684
1360,5334;0,0668906
1361,4977;0,0673267
1362,4619;0,0676678
1363,4261;0,0679446
1364,3904;0,0682049
1365,3546;0,0684785
1366,3188;0,0687643
1367,2831;0,0690398
1368,2473;0,0692759
1369,2115;0,0694453
1370,1758;0,0695231
1371,1400;0,0694821
1372,1042;0,0692928
1373,0685;0,0689384
1374,0327;0,0684381
1374,9969;0,0678526
1375,9612;0,0672466
1376,9254;0,0666386
1377,8896;0,0659935
1378,8539;0,0652625
1379,8181;0,0644355
1380,7823;0,0635633
1381,7466;0,0627297
1382,7108;0,0619932
1383,6750;0,0613467
1384,6393;0,060726
1385,6035;0,0600588
1386,5677;0,0593307
1387,5320;0,0586194
1388,4962;0,0580447
1389,4604;0,0576752
1390,4247;0,057495
1391,3889;0,0574427
1392,3531;0,0574587
1393,3174;0,0575051
1394,2816;0,0575641
1395,2458;0,0576285
1396,2101;0,0576952
1397,1743;0,0577676
1398,1385;0,0578618
1399,1028;0,058004
1400,0670;0,0582165
1401,0313;0,058504
1401,9955;0,0588499
1402,9597;0,0592253
1403,9240;0,0596027
1404,8882;0,0599701
1405,8524;0,0603355
1406,8167;0,0607179
1407,7809;0,0611308
1408,7451;0,0615752
1409,7094;0,0620472
1410,6736;0,0625483
1411,6378;0,0630887
1412,6021;0,0636772
1413,5663;0,0643082
1414,5305;0,0649547
1415,4948;0,0655674
1416,4590;0,0660775
1417,4232;0,0664126
1418,3875;0,0665468
1419,3517;0,0665458
1420,3159;0,0665157
1421,2802;0,0664974
1422,2444;0,0664484
1423,2086;0,0663036
1424,1729;0,0660318
1425,1371;0,0656439
1426,1013;0,0651601
1427,0656;0,0645716
1428,0298;0,0638427
1428,9940;0,0629614
1429,9583;0,0619934
1430,9225;0,0610646
1431,8867;0,0602677
1432,8510;0,0595867
1433,8152;0,0589054
1434,7794;0,0580814
1435,7437;0,0570619
1436,7079;0,0559861
1437,6721;0,055118
1438,6364;0,0546183
1439,6006;0,0544494
1440,5648;0,0544848
1441,5291;0,0546224
1442,4933;0,054816
1443,4575;0,0550559
1444,4218;0,0553386
1445,3860;0,0556481
1446,3502;0,0559574
1447,3145;0,0562469
1448,2787;0,0565226
1449,2429;0,056814
1450,2072;0,0571494
1451,1714;0,0575305
1452,1356;0,0579289
1453,0999;0,0582921
1454,0641;0,058539
1455,0283;0,0585391
1455,9926;0,0581347
1456,9568;0,0573404
1457,9210;0,0565355
1458,8853;0,0561042
1459,8495;0,0560437
1460,8137;0,056131
1461,7780;0,0561427
1462,7422;0,0559053
1463,7064;0,0553137
1464,6707;0,0544027
1465,6349;0,0533767
1466,5991;0,0524621
1467,5634;0,0517266
1468,5276;0,0510711
1469,4918;0,0503205
1470,4561;0,0492884
1471,4203;0,0478384
1472,3845;0,0460113
1473,3488;0,0441173
1474,3130;0,0425367
1475,2772;0,0414034
1476,2415;0,0406112
1477,2057;0,0400089
1478,1699;0,0394989
1479,1342;0,0390363
1480,0984;0,038606
1481,0626;0,0382124
1482,0269;0,0378757
1482,9911;0,037624
1483,9553;0,0374748
1484,9196;0,037421
1485,8838;0,0374273
1486,8480;0,0374393
1487,8123;0,0374077
1488,7765;0,0373358
1489,7407;0,0373105
1490,7050;0,0374381
1491,6692;0,0377484
1492,6334;0,0381968
1493,5977;0,0387232
1494,5619;0,0392842
1495,5261;0,039857
1496,4904;0,040436
1497,4546;0,0410356
1498,4188;0,0416839
1499,3831;0,0423915
1500,3473;0,0431295
1501,3115;0,043846
1502,2758;0,0444944
1503,2400;0,0450456
1504,2042;0,0454803
1505,1685;0,0457576
1506,1327;0,0457838
1507,0969;0,0455164
1508,0612;0,0451547
1509,0254;0,0449388
1509,9896;0,04489
1510,9539;0,0449153
1511,9181;0,0449326
1512,8823;0,0448906
1513,8466;0,044759
1514,8108;0,0445263
1515,7750;0,0442045
1516,7393;0,0438219
1517,7035;0,043399
1518,6677;0,0429316
1519,6320;0,0424102
1520,5962;0,0418658
1521,5604;0,0413892
1522,5247;0,0410761
1523,4889;0,0409545
1524,4531;0,0409818
1525,4174;0,0411018
1526,3816;0,0412874
1527,3458;0,0415378
1528,3101;0,0418516
1529,2743;0,0422095
1530,2385;0,0425812
1531,2028;0,0429427
1532,1670;0,0432912
1533,1312;0,0436498
1534,0955;0,04405
1535,0597;0,044499
1536,0239;0,0449677
1536,9882;0,0454064
1537,9524;0,0457581
1538,9166;0,0459555
1539,8809;0,0459445
1540,8451;0,0457998
1541,8093;0,0457477
1542,7736;0,0458993
1543,7378;0,04617
1544,7020;0,046455
1545,6663;0,0467145
1546,6305;0,0469527
1547,5947;0,0471768
1548,5590;0,0473752
1549,5232;0,0475239
1550,4874;0,0476137
1551,4517;0,0476717
1552,4159;0,0477513
1553,3801;0,0478903
1554,3444;0,0480748
1555,3086;0,0482305
1556,2728;0,0482247
1557,2371;0,0478945
1558,2013;0,0472425
1559,1655;0,046707
1560,1298;0,0467411
1561,0940;0,0472761
1562,0582;0,0480329
1563,0225;0,0488278
1563,9867;0,049578
1564,9509;0,0502455
1565,9152;0,0508112
1566,8794;0,0512803
1567,8436;0,0517022
1568,8079;0,0521682
1569,7721;0,052755
1570,7363;0,0534606
1571,7006;0,0542145
1572,6648;0,0549389
1573,6290;0,0555892
1574,5933;0,0561594
1575,5575;0,0566772
1576,5217;0,0571972
1577,4860;0,0577734
1578,4502;0,0584208
1579,4144;0,0591117
1580,3787;0,0598062
1581,3429;0,0604721
1582,3071;0,0610903
1583,2714;0,0616572
1584,2356;0,0621858
1585,1998;0,0626981
1586,1641;0,0632096
1587,1283;0,0637181
1588,0925;0,0642044
1589,0568;0,0646411
1590,0210;0,0650001
1590,9852;0,065254
1591,9495;0,0653742
1592,9137;0,0653355
1593,8779;0,0651291
1594,8422;0,0647756
1595,8064;0,0643222
1596,7706;0,0638235
1597,7349;0,0633177
1598,6991;0,0628198
1599,6633;0,0623282
1600,6276;0,0618402
1601,5918;0,0613626
1602,5560;0,060914
1603,5203;0,0605146
1604,4845;0,0601702
1605,4487;0,059863
1606,4130;0,0595594
1607,3772;0,0592337
1608,3414;0,058898
1609,3057;0,0586085
1610,2699;0,0584295
1611,2341;0,0583802
1612,1984;0,0584152
1613,1626;0,0584458
1614,1268;0,0583789
1615,0911;0,0581698
1616,0553;0,0578885
1617,0195;0,0577141
1617,9838;0,05778
1618,9480;0,0580562
1619,9122;0,058415
1620,8765;0,0587384
1621,8407;0,0589644
1622,8049;0,0590954
1623,7692;0,059185
1624,7334;0,0592938
1625,6976;0,0594451
1626,6619;0,0596268
1627,6261;0,0598283
1628,5903;0,0600598
1629,5546;0,060337
1630,5188;0,0606518
1631,4830;0,0609597
1632,4473;0,0611871
1633,4115;0,0612434
1634,3757;0,0610587
1635,3400;0,0606843
1636,3042;0,0603559
1637,2684;0,0602975
1638,2327;0,0605064
1639,1969;0,060846
1640,1611;0,0612016
1641,1254;0,0615176
1642,0896;0,0617683
1643,0538;0,0619215
1644,0181;0,061916
1644,9823;0,0616826
1645,9465;0,0612417
1646,9108;0,0607911
1647,8750;0,0605625
1648,8392;0,0605861
1649,8035;0,0606914
1650,7677;0,0606079
1651,7319;0,0600089
1652,6962;0,0587115
1653,6604;0,0571587
1654,6246;0,0561425
1655,5889;0,0558094
1656,5531;0,0558016
1657,5173;0,0558016
1658,4816;0,0556365
1659,4458;0,0552127
1660,4100;0,0544852
1661,3743;0,053499
1662,3385;0,0524348
1663,3027;0,0515273
1664,2670;0,0508921
1665,2312;0,050466
1666,1954;0,0500776
1667,1597;0,049531
1668,1239;0,0486858
1669,0881;0,0475675
1670,0524;0,046408
1671,0166;0,0454623
1671,9808;0,0447763
1672,9451;0,0442002
1673,9093;0,0435597
1674,8735;0,0427981
1675,8378;0,0420195
1676,8020;0,0413973
1677,7662;0,0410199
1678,7305;0,0408351
1679,6947;0,0407022
1680,6589;0,0404416
1681,6232;0,0398477
1682,5874;0,0387545
1683,5516;0,0372607
1684,5159;0,0358491
1685,4801;0,034939
1686,4443;0,0344943
1687,4086;0,0342516
1688,3728;0,0340138
1689,3370;0,0337185
1690,3013;0,0333926
1691,2655;0,0330851
1692,2297;0,0328174
1693,1940;0,0325682
1694,1582;0,0322883
1695,1224;0,0319297
1696,0867;0,0314709
1697,0509;0,0309236
1698,0151;0,0303249
1698,9794;0,0297384
1699,9436;0,0292589
1700,9078;0,0289736
1701,8721;0,0289008
1702,8363;0,028979
1703,8005;0,0291135
1704,7648;0,0292298
1705,7290;0,029308
1706,6932;0,0293862
1707,6575;0,0295268
1708,6217;0,029767
1709,5859;0,0300997
1710,5502;0,0304922
1711,5144;0,0309081
1712,4786;0,0313136
1713,4429;0,0316673
1714,4071;0,031907
1715,3713;0,0319593
1716,3356;0,031811
1717,2998;0,0316008
1718,2640;0,0315468
1719,2283;0,0317441
1720,1925;0,0321277
1721,1567;0,0325832
1722,1210;0,033021
1723,0852;0,033394
1724,0494;0,033695
1725,0137;0,033949
1725,9779;0,0341974
1726,9421;0,0344749
1727,9064;0,0347905
1728,8706;0,0351185
1729,8348;0,0353981
1730,7991;0,0355355
1731,7633;0,0354262
1732,7275;0,0350303
1733,6918;0,0344757
1734,6560;0,0340089
1735,6202;0,033769
1736,5845;0,0336963
1737,5487;0,0336434
1738,5129;0,0334877
1739,4772;0,0331795
1740,4414;0,0327497
1741,4056;0,0322799
1742,3699;0,0318394
1743,3341;0,0314418
1744,2983;0,0310565
1745,2626;0,0306431
1746,2268;0,0301631
1747,1910;0,0295692
1748,1553;0,0288086
1749,1195;0,0278724
1750,0837;0,0268563
1751,0480;0,025928
1752,0122;0,0252021
1752,9764;0,0246734
1753,9407;0,0242587
1754,9049;0,0238694
1755,8691;0,023458
1756,8334;0,023026
1757,7976;0,0225962
1758,7618;0,0221745
1759,7261;0,0217379
1760,6903;0,0212649
1761,6545;0,0207793
1762,6188;0,020352
1763,5830;0,020051
1764,5472;0,0198895
1765,5115;0,0198217
1766,4757;0,0197756
1767,4399;0,0196855
1768,4042;0,0195085
1769,3684;0,0192274
1770,3326;0,0188513
1771,2969;0,0184258
1772,2611;0,0180393
1773,2253;0,0177874
1774,1896;0,01771
1775,1538;0,0177706
1776,1180;0,0178914
1777,0823;0,0179971
1778,0465;0,0180401
1779,0107;0,0180105
1779,9750;0,0179333
1780,9392;0,017847
1781,9034;0,0177764
1782,8677;0,0177225
1783,8319;0,0176808
1784,7961;0,017661
1785,7604;0,017687
1786,7246;0,017774
1787,6888;0,017907
1788,6531;0,0180364
1789,6173;0,0180922
1790,5815;0,0180136
1791,5458;0,0177991
1792,5100;0,0175391
1793,4742;0,0173622
1794,4385;0,0173298
1795,4027;0,0174095
1796,3669;0,0175283
1797,3312;0,0176236
1798,2954;0,0176633
1799,2596;0,0176457
1800,2239;0,0175906
1801,1881;0,0175242
1802,1523;0,0174665
1803,1166;0,017428
1804,0808;0,0174144
1805,0450;0,0174288
1806,0093;0,0174687
1806,9735;0,017522
1807,9377;0,0175664
1808,9020;0,0175784
1809,8662;0,0175467
1810,8304;0,0174835
1811,7947;0,017418
1812,7589;0,0173768
1813,7231;0,0173669
1814,6874;0,0173768
1815,6516;0,0173882
1816,6158;0,0173913
1817,5801;0,017393
1818,5443;0,017413
1819,5085;0,0174672
1820,4728;0,0175527
1821,4370;0,0176464
1822,4012;0,0177169
1823,3655;0,0177419
1824,3297;0,0177223
1825,2939;0,0176778
1826,2582;0,0176263
1827,2224;0,0175651
1828,1866;0,0174754
1829,1509;0,0173493
1830,1151;0,0172168
1831,0793;0,017136
1832,0436;0,0171475
1833,0078;0,0172428
1833,9720;0,0173728
1834,9363;0,0174806
1835,9005;0,0175332
1836,8647;0,0175408
1837,8290;0,0175497
1838,7932;0,0176052
1839,7574;0,0177162
1840,7217;0,0178482
1841,6859;0,0179419
1842,6501;0,0179429
1843,6144;0,0178384
1844,5786;0,0176769
1845,5428;0,017534
1846,5071;0,01745
1847,4713;0,0174117
1848,4355;0,017386
1849,3998;0,0173548
1850,3640;0,0173252
1851,3282;0,0173168
1852,2925;0,0173406
1853,2567;0,0173875
1854,2209;0,0174351
1855,1852;0,017465
1856,1494;0,0174746
1857,1136;0,0174747
1858,0779;0,0174767
1859,0421;0,0174838
1860,0063;0,0174936
1860,9706;0,0175098
1861,9348;0,0175477
1862,8990;0,0176261
1863,8633;0,0177491
1864,8275;0,0178934
1865,7917;0,0180064
1866,7560;0,0180237
1867,7202;0,017908
1868,6844;0,0176923
1869,6487;0,0174724
1870,6129;0,0173375
1871,5771;0,0173135
1872,5414;0,0173691
1873,5056;0,0174539
1874,4698;0,0175274
1875,4341;0,017571
1876,3983;0,0175876
1877,3625;0,0175917
1878,3268;0,0175966
1879,2910;0,0176069
1880,2552;0,0176198
1881,2195;0,0176322
1882,1837;0,0176454
1883,1479;0,0176655
1884,1122;0,0176991
1885,0764;0,0177478
1886,0406;0,0178062
1887,0049;0,0178627
1887,9691;0,0179038
1888,9333;0,0179207
1889,8976;0,017914
1890,8618;0,0178927
1891,8260;0,0178668
1892,7903;0,0178416
1893,7545;0,0178169
1894,7188;0,0177918
1895,6830;0,0177689
1896,6472;0,017755
1897,6115;0,0177558
1898,5757;0,0177712
1899,5399;0,0177933
1900,5042;0,01781
1901,4684;0,0178123
1902,4326;0,017799
1903,3969;0,0177786
1904,3611;0,0177647
1905,3253;0,0177692
1906,2896;0,0177957
1907,2538;0,0178374
1908,2180;0,0178791
1909,1823;0,0179045
1910,1465;0,0179043
1911,1107;0,0178811
1912,0750;0,0178446
1913,0392;0,017803
1914,0034;0,0177578
1914,9677;0,0177071
1915,9319;0,0176552
1916,8961;0,0176208
1917,8604;0,0176337
1918,8246;0,0177168
1919,7888;0,0178656
1920,7531;0,0180424
1921,7173;0,0181899
1922,6815;0,0182552
1923,6458;0,0182158
1924,6100;0,0180931
1925,5742;0,0179414
1926,5385;0,01782
1927,5027;0,0177692
1928,4669;0,0177992
1929,4312;0,0178922
1930,3954;0,0180101
1931,3596;0,0181093
1932,3239;0,0181581
1933,2881;0,0181509
1934,2523;0,0181093
1935,2166;0,0180713
1936,1808;0,0180706
1937,1450;0,0181193
1938,1093;0,0182034
1939,0735;0,0182932
1940,0377;0,0183597
1941,0020;0,0183882
1941,9662;0,0183829
1942,9304;0,0183604
1943,8947;0,0183357
1944,8589;0,0183114
1945,8231;0,0182802
1946,7874;0,0182356
1947,7516;0,0181817
1948,7158;0,0181342
1949,6801;0,0181116
1950,6443;0,0181191
1951,6085;0,018137
1952,5728;0,0181261
1953,5370;0,0180489
1954,5012;0,0178993
1955,4655;0,017717
1956,4297;0,0175746
1957,3939;0,0175387
1958,3582;0,0176296
1959,3224;0,0178076
1960,2866;0,0179987
1961,2509;0,0181461
1962,2151;0,0182458
1963,1793;0,0183378
1964,1436;0,0184598
1965,1078;0,0186022
1966,0720;0,0187002
1967,0363;0,0186761
1968,0005;0,0185016
1968,9647;0,0182303
1969,9290;0,0179716
1970,8932;0,0178309
1971,8574;0,0178632
1972,8217;0,0180586
1973,7859;0,0183556
1974,7501;0,0186682
1975,7144;0,0189146
1976,6786;0,0190421
1977,6428;0,019041
1978,6071;0,0189398
1979,5713;0,0187837
1980,5355;0,0186116
1981,4998;0,0184477
1982,4640;0,0183099
1983,4282;0,0182231
1984,3925;0,0182207
1985,3567;0,0183289
1986,3209;0,0185425
1987,2852;0,0188134
1988,2494;0,019066
1989,2136;0,0192333
1990,1779;0,0192919
1991,1421;0,0192714
1992,1063;0,01923
1993,0706;0,0192114
1994,0348;0,0192177
1994,9990;0,0192184
1995,9633;0,0191825
1996,9275;0,0191061
1997,8917;0,0190165
1998,8560;0,0189535
1999,8202;0,0189412
2000,7844;0,0189705
2001,7487;0,0190036
2002,7129;0,0189972
2003,6771;0,018929
2004,6414;0,018816
2005,6056;0,0187147
2006,5698;0,0187014
2007,5341;0,0188334
2008,4983;0,019111
2009,4625;0,0194632
2010,4268;0,0197719
2011,3910;0,0199239
2012,3552;0,0198638
2013,3195;0,01962
2014,2837;0,0192917
2015,2479;0,0190002
2016,2122;0,0188312
2017,1764;0,0188015
2018,1406;0,0188742
2019,1049;0,0190061
2020,0691;0,019186
2021,0333;0,0194312
2021,9976;0,019749
2022,9618;0,0201
2023,9260;0,0203962
2024,8903;0,0205412
2025,8545;0,0204846
2026,8187;0,020252
2027,7830;0,0199294
2028,7472;0,0196162
2029,7114;0,0193836
2030,6757;0,0192612
2031,6399;0,0192504
2032,6041;0,0193401
2033,5684;0,0195072
2034,5326;0,0197053
2035,4968;0,0198674
2036,4611;0,019931
2037,4253;0,0198738
2038,3895;0,0197301
2039,3538;0,0195734
2040,3180;0,0194733
2041,2822;0,0194547
2042,2465;0,0194885
2043,2107;0,0195191
2044,1749;0,019508
2045,1392;0,0194603
2046,1034;0,0194171
2047,0676;0,0194242
2048,0320;0,0195003
2048,9961;0,0196282
2049,9604;0,0197708
2050,9246;0,0198933
2051,8889;0,0199736
2052,8530;0,0200019
2053,8174;0,0199784
2054,7815;0,0199157
2055,7458;0,0198405
2056,7100;0,0197878
2057,6743;0,0197858
2058,6384;0,0198409
2059,6028;0,0199323
2060,5669;0,0200242
2061,5313;0,0200851
2062,4954;0,0201038
2063,4597;0,0200918
2064,4238;0,0200718
2065,3882;0,0200622
2066,3523;0,0200689
2067,3167;0,020087
2068,2808;0,0201088
2069,2451;0,0201298
2070,2092;0,0201484
2071,1736;0,0201621
2072,1377;0,0201632
2073,1021;0,0201399
2074,0662;0,0200821
2075,0305;0,0199894
2075,9946;0,0198768
2076,9590;0,0197721
2077,9231;0,0197046
2078,8875;0,0196899
2079,8516;0,0197207
2080,8159;0,0197708
2081,7800;0,0198116
2082,7444;0,0198297
2083,7085;0,0198347
2084,6729;0,0198502
2085,6370;0,0198947
2086,6013;0,0199679
2087,5654;0,0200501
2088,5298;0,0201164
2089,4939;0,0201532
2090,4583;0,0201663
2091,4224;0,0201747
2092,3867;0,0201976
2093,3508;0,0202451
2094,3152;0,0203167
2095,2793;0,0204051
2096,2437;0,020499
2097,2078;0,0205833
2098,1721;0,0206377
2099,1362;0,0206421
2100,1006;0,0205861
2101,0647;0,0204768
2102,0291;0,02034
2102,9932;0,020211
2103,9575;0,0201209
2104,9216;0,0200865
2105,8860;0,020109
2106,8501;0,0201771
2107,8145;0,0202724
2108,7786;0,0203728
2109,7429;0,0204566
2110,7070;0,0205077
2111,6714;0,020521
2112,6355;0,0205039
2113,5999;0,0204689
2114,5640;0,0204241
2115,5283;0,0203666
2116,4924;0,020289
2117,4568;0,0201926
2118,4209;0,0201003
2119,3853;0,0200535
2120,3494;0,0200911
2121,3137;0,0202211
2122,2778;0,0204051
2123,2422;0,0205698
2124,2063;0,0206439
2125,1707;0,0206004
2126,1348;0,0204761
2127,0991;0,0203554
2128,0632;0,0203243
2129,0276;0,0204224
2129,9917;0,020621
2130,9561;0,0208399
2131,9202;0,0209936
2132,8845;0,0210395
2133,8486;0,0210016
2134,8130;0,0209513
2135,7771;0,020958
2136,7415;0,0210413
2137,7056;0,0211586
2138,6699;0,0212369
2139,6340;0,0212226
2140,5984;0,0211185
2141,5625;0,0209849
2142,5269;0,0209072
2143,4910;0,0209519
2144,4553;0,0211355
2145,4194;0,0214217
2146,3838;0,0217438
2147,3479;0,0220345
2148,3123;0,0222461
2149,2764;0,0223548
2150,2407;0,0223552
2151,2048;0,0222574
2152,1692;0,0220864
2153,1333;0,0218834
2154,0977;0,0217023
2155,0618;0,0216002
2156,0261;0,0216235
2156,9902;0,0217889
2157,9546;0,022062
2158,9187;0,0223519
2159,8831;0,0225394
2160,8472;0,0225351
2161,8115;0,0223249
2162,7756;0,0219757
2163,7400;0,0216068
2164,7041;0,0213415
2165,6685;0,0212554
2166,6326;0,0213438
2167,5969;0,0215288
2168,5610;0,0217037
2169,5254;0,0217885
2170,4895;0,0217636
2171,4539;0,0216667
2172,4180;0,0215622
2173,3823;0,0215031
2174,3464;0,0215075
2175,3108;0,0215596
2176,2749;0,0216296
2177,2393;0,0216945
2178,2034;0,0217474
2179,1677;0,0217919
2180,1318;0,0218306
2181,0962;0,0218581
2182,0603;0,0218612
2183,0247;0,0218257
2183,9888;0,0217412
2184,9531;0,0216043
2185,9172;0,0214203
2186,8816;0,0212072
2187,8457;0,0209987
2188,8101;0,0208389
2189,7742;0,0207657
2190,7385;0,020789
2191,7026;0,0208789
2192,6670;0,0209743
2193,6311;0,021013
2194,5955;0,020964
2195,5596;0,0208428
2196,5239;0,020699
2197,4880;0,0205863
2198,4524;0,0205363
2199,4165;0,0205516
2200,3809;0,0206187
2201,3450;0,0207247
2202,3093;0,020863
2203,2734;0,0210257
2204,2378;0,0211932
2205,2019;0,0213339
2206,1663;0,0214161
2207,1304;0,0214237
2208,0947;0,0213645
2209,0588;0,0212659
2210,0232;0,0211637
2210,9873;0,0210893
2211,9517;0,0210617
2212,9158;0,021083
2213,8801;0,021137
2214,8442;0,0211936
2215,8086;0,0212215
2216,7727;0,0212048
2217,7371;0,0211553
2218,7012;0,0211094
2219,6655;0,021109
2220,6296;0,0211763
2221,5940;0,0212979
2222,5581;0,0214295
2223,5225;0,0215173
2224,4866;0,0215228
2225,4509;0,0214393
2226,4150;0,0212916
2227,3794;0,0211217
2228,3435;0,0209704
2229,3079;0,0208611
2230,2720;0,0207929
2231,2363;0,0207463
2232,2004;0,0206984
2233,1648;0,0206408
2234,1289;0,0205888
2235,0933;0,0205756
2236,0574;0,0206339
2237,0217;0,0207732
2237,9858;0,0209689
2238,9502;0,0211694
2239,9143;0,0213175
2240,8787;0,021375
2241,8428;0,0213361
2242,8071;0,0212251
2243,7712;0,0210835
2244,7356;0,0209526
2245,6997;0,0208607
2246,6641;0,0208174
2247,6282;0,0208156
2248,5925;0,0208393
2249,5566;0,0208744
2250,5210;0,0209168
2251,4851;0,0209731
2252,4495;0,0210515
2253,4136;0,0211487
2254,3779;0,0212425
2255,3420;0,0212984
2256,3064;0,0212886
2257,2705;0,0212117
2258,2349;0,0210985
2259,1990;0,0209982
2260,1633;0,0209531
2261,1274;0,0209772
2262,0918;0,0210524
2263,0559;0,0211414
2264,0203;0,0212103
2264,9844;0,0212436
2265,9487;0,0212454
2266,9128;0,0212284
2267,8772;0,0212017
2268,8413;0,0211665
2269,8057;0,0211204
2270,7698;0,0210644
2271,7341;0,021006
2272,6982;0,0209559
2273,6626;0,0209208
2274,6267;0,0209005
2275,5911;0,0208903
2276,5552;0,020886
2277,5195;0,0208886
2278,4836;0,0209027
2279,4480;0,0209322
2280,4121;0,0209762
2281,3765;0,0210293
2282,3406;0,0210864
2283,3049;0,0211463
2284,2690;0,0212122
2285,2334;0,0212873
2286,1975;0,0213705
2287,1619;0,0214556
2288,1260;0,0215363
2289,0903;0,0216129
2290,0544;0,0216944
2291,0188;0,0217949
2291,9829;0,0219243
2292,9473;0,0220811
2293,9114;0,0222525
2294,8757;0,022421
2295,8398;0,0225736
2296,8042;0,0227065
2297,7683;0,0228221
2298,7327;0,0229225
2299,6968;0,0230032
2300,6611;0,0230557
2301,6252;0,0230759
2302,5896;0,0230735
2303,5537;0,0230759
2304,5181;0,0231196
2305,4822;0,023232
2306,4465;0,0234117
2307,4106;0,023618
2308,3750;0,0237816
2309,3391;0,0238332
2310,3035;0,0237402
2311,2676;0,0235274
2312,2319;0,0232673
2313,1960;0,0230431
2314,1604;0,0229062
2315,1245;0,0228568
2316,0889;0,022856
2317,0530;0,0228572
2318,0173;0,0228351
2318,9814;0,0227973
2319,9458;0,0227745
2320,9099;0,0227972
2321,8743;0,0228756
2322,8384;0,0229919
2323,8027;0,0231075
2324,7668;0,0231761
2325,7312;0,023158
2326,6953;0,0230349
2327,6597;0,02282
2328,6238;0,022559
2329,5881;0,0223189
2330,5522;0,0221639
2331,5166;0,0221254
2332,4807;0,0221842
2333,4451;0,0222766
2334,4092;0,0223253
2335,3735;0,0222783
2336,3376;0,0221386
2337,3020;0,0219686
2338,2661;0,0218632
2339,2305;0,0218938
2340,1946;0,0220525
2341,1589;0,0222324
2342,1230;0,0222773
2343,0874;0,022113
2344,0515;0,021883
2345,0159;0,0218863
2345,9800;0,0222996
2346,9443;0,0230186
2347,9084;0,0237687
2348,8728;0,0242945
2349,8369;0,0244719
2350,8013;0,024333
2351,7654;0,0240326
2352,7297;0,0237704
2353,6938;0,0236917
2354,6582;0,023825
2355,6223;0,0240936
2356,5867;0,0243678
2357,5508;0,024514
2358,5151;0,0244411
2359,4792;0,0241412
2360,4436;0,0236891
2361,4077;0,0231894
2362,3721;0,0227183
2363,3362;0,0223109
2364,3005;0,0219808
2365,2646;0,0217322
2366,2290;0,0215553
2367,1931;0,0214218
2368,1575;0,0212995
2369,1216;0,0211708
2370,0859;0,0210402
2371,0500;0,0209242
2372,0144;0,020838
2372,9785;0,020791
2373,9429;0,020791
2374,9070;0,0208477
2375,8713;0,0209699
2376,8354;0,0211569
2377,7998;0,0213933
2378,7639;0,0216503
2379,7283;0,0218923
2380,6924;0,0220873
2381,6567;0,0222134
2382,6208;0,0222631
2383,5852;0,0222424
2384,5493;0,0221691
2385,5137;0,0220675
2386,4778;0,0219632
2387,4421;0,0218766
2388,4063;0,0218192
2389,3706;0,0217922
2390,3347;0,0217889
2391,2991;0,0217998
2392,2632;0,0218159
2393,2275;0,021832
2394,1917;0,0218454
2395,1560;0,0218558
2396,1201;0,0218636
2397,0845;0,02187
2398,0486;0,0218779
2399,0129;0,0218897
2399,9771;0,0219068
2400,9414;0,0219284
2401,9055;0,0219513
2402,8699;0,0219715
2403,8340;0,0219858
2404,7983;0,0219937
2405,7625;0,0219977
2406,7268;0,0220026
2407,6909;0,0220134
2408,6553;0,022034
2409,6194;0,0220643
2410,5837;0,0221012
2411,5479;0,0221387
2412,5122;0,0221712
2413,4763;0,0221951
2414,4407;0,0222107
2415,4048;0,0222214
2416,3691;0,0222322
2417,3333;0,0222483
2418,2976;0,0222731
2419,2617;0,0223076
2420,2261;0,0223499
2421,1902;0,0223943
2422,1545;0,0224331
2423,1187;0,022459
2424,0830;0,0224683
2425,0471;0,022463
2426,0115;0,0224512
2426,9756;0,0224438
2427,9399;0,0224506
2428,9041;0,0224763
2429,8684;0,0225192
2430,8325;0,0225713
2431,7969;0,0226207
2432,7610;0,0226561
2433,7253;0,0226707
2434,6895;0,0226658
2435,6538;0,0226498
2436,6179;0,0226348
2437,5823;0,02263
2438,5464;0,0226368
2439,5107;0,0226497
2440,4749;0,0226613
2441,4392;0,0226699
2442,4033;0,0226813
2443,3677;0,0227054
2444,3318;0,0227477
2445,2961;0,0228037
2446,2603;0,0228597
2447,2246;0,0229003
2448,1887;0,0229177
2449,1531;0,0229154
2450,1172;0,0229047
2451,0815;0,0228976
2452,0457;0,0229012
2453,0100;0,022917
2453,9741;0,0229441
2454,9385;0,022982
2455,9026;0,0230299
2456,8669;0,0230837
2457,8311;0,0231345
2458,7954;0,023171
2459,7595;0,0231857
2460,7239;0,0231807
2461,6880;0,0231681
2462,6523;0,0231649
2463,6165;0,0231846
2464,5808;0,0232297
2465,5449;0,0232915
2466,5093;0,0233543
2467,4734;0,0234032
2468,4377;0,0234307
2469,4019;0,0234387
2470,3662;0,0234357
2471,3303;0,0234314
2472,2947;0,0234321
2473,2588;0,023438
2474,2231;0,0234452
2475,1873;0,023449
2476,1516;0,0234476
2477,1157;0,0234437
2478,0801;0,0234426
2479,0442;0,0234495
2480,0085;0,0234662
2480,9727;0,0234902
2481,9370;0,0235162
2482,9011;0,0235396
2483,8655;0,0235594
2484,8296;0,0235782
2485,7939;0,0236002
2486,7581;0,0236279
2487,7224;0,0236596
2488,6865;0,023691
2489,6509;0,0237184
2490,6150;0,0237417
2491,5793;0,0237649
2492,5435;0,0237923
2493,5078;0,023825
2494,4719;0,0238595
2495,4363;0,0238898
2496,4004;0,0239117
2497,3647;0,0239259
2498,3289;0,0239374
2499,2932;0,023952
2500,2573;0,023973
2501,2217;0,0240001
2502,1858;0,0240299
2503,1501;0,0240581
2504,1143;0,024081
2505,0786;0,024096
2506,0427;0,0241026
2507,0071;0,0241017
2507,9712;0,0240963
2508,9355;0,024089
2509,8997;0,0240809
2510,8640;0,024072
2511,8281;0,0240641
2512,7925;0,0240634
2513,7566;0,0240805
2514,7209;0,0241242
2515,6851;0,0241938
2516,6494;0,0242746
2517,6135;0,0243423
2518,5779;0,0243742
2519,5420;0,0243625
2520,5063;0,0243183
2521,4705;0,0242658
2522,4348;0,0242288
2523,3989;0,0242192
2524,3633;0,0242331
2525,3274;0,024257
2526,2917;0,0242778
2527,2559;0,0242899
2528,2202;0,0242956
2529,1843;0,024301
2530,1487;0,02431
2531,1128;0,0243227
2532,0771;0,0243365
2533,0413;0,02435
2534,0056;0,0243653
2534,9697;0,0243872
2535,9341;0,0244202
2536,8982;0,024465
2537,8625;0,0245167
2538,8267;0,024566
2539,7910;0,0246026
2540,7551;0,0246195
2541,7195;0,024616
2542,6836;0,0245973
2543,6479;0,0245717
2544,6121;0,0245468
2545,5764;0,024527
2546,5405;0,0245135
2547,5049;0,0245059
2548,4690;0,0245048
2549,4333;0,0245115
2550,3975;0,0245275
2551,3618;0,0245518
2552,3259;0,0245811
2553,2903;0,0246106
2554,2544;0,0246369
2555,2188;0,02466
2556,1829;0,0246831
2557,1472;0,0247102
2558,1113;0,0247425
2559,0757;0,0247769
2560,0398;0,0248059
2561,0042;0,0248205
2561,9683;0,0248143
2562,9326;0,0247873
2563,8967;0,0247472
2564,8611;0,0247069
2565,8252;0,0246802
2566,7896;0,0246751
2567,7537;0,024691
2568,7180;0,024719
2569,6821;0,0247471
2570,6465;0,0247665
2571,6106;0,0247751
2572,5750;0,024778
2573,5391;0,024783
2574,5034;0,0247959
2575,4675;0,0248173
2576,4319;0,0248426
2577,3960;0,0248649
2578,3604;0,0248781
2579,3245;0,0248804
2580,2888;0,0248746
2581,2529;0,0248678
2582,2173;0,0248688
2583,1814;0,0248845
2584,1458;0,0249178
2585,1099;0,0249654
2586,0742;0,0250191
2587,0383;0,0250682
2588,0027;0,0251025
2588,9668;0,025116
2589,9312;0,0251085
2590,8953;0,0250871
2591,8596;0,0250642
2592,8237;0,0250538
2593,7881;0,0250662
2594,7522;0,0251027
2595,7166;0,0251551
2596,6807;0,0252095
2597,6450;0,0252529
2598,6091;0,0252801
2599,5735;0,0252947
2600,5376;0,0253056
2601,5020;0,0253217
2602,4661;0,0253468
2603,4304;0,0253792
2604,3945;0,0254141
2605,3589;0,0254461
2606,3230;0,0254713
2607,2874;0,0254874
2608,2515;0,0254945
2609,2158;0,0254955
2610,1799;0,025496
2611,1443;0,0255024
2612,1084;0,0255198
2613,0728;0,0255493
2614,0369;0,0255884
2615,0012;0,0256332
2615,9653;0,0256808
2616,9297;0,0257298
2617,8938;0,0257789
2618,8582;0,0258247
2619,8223;0,0258626
2620,7866;0,0258879
2621,7507;0,0258992
2622,7151;0,0258986
2623,6792;0,0258912
2624,6436;0,0258827
2625,6077;0,025879
2626,5720;0,0258854
2627,5361;0,025907
2628,5005;0,0259462
2629,4646;0,0260001
2630,4290;0,0260599
2631,3931;0,0261132
2632,3574;0,0261495
2633,3215;0,0261656
2634,2859;0,0261676
2635,2500;0,026167
2636,2144;0,0261751
2637,1785;0,0261976
2638,1428;0,0262329
2639,1069;0,0262749
2640,0713;0,0263173
2641,0354;0,0263567
2641,9998;0,0263931
2642,9639;0,0264278
2643,9282;0,0264613
2644,8923;0,0264927
2645,8567;0,0265202
2646,8208;0,0265435
2647,7852;0,0265644
2648,7493;0,0265859
2649,7136;0,0266105
2650,6777;0,0266386
2651,6421;0,026668
2652,6062;0,0266962
2653,5706;0,0267218
2654,5347;0,0267462
2655,4990;0,0267726
2656,4631;0,0268041
2657,4275;0,0268424
2658,3916;0,0268865
2659,3560;0,0269339
2660,3201;0,0269813
2661,2844;0,0270255
2662,2485;0,0270639
2663,2129;0,0270951
2664,1770;0,0271193
2665,1414;0,0271385
2666,1055;0,0271558
2667,0698;0,0271747
2668,0339;0,0271973
2668,9983;0,0272241
2669,9624;0,0272541
2670,9268;0,0272858
2671,8909;0,0273179
2672,8552;0,0273494
2673,8193;0,027379
2674,7837;0,0274055
2675,7478;0,0274288
2676,7122;0,0274504
2677,6763;0,0274736
2678,6406;0,027502
2679,6047;0,0275379
2680,5691;0,0275803
2681,5332;0,0276252
2682,4976;0,0276681
2683,4617;0,027706
2684,4260;0,0277393
2685,3901;0,0277711
2686,3545;0,0278053
2687,3186;0,027844
2688,2830;0,0278862
2689,2471;0,0279284
2690,2114;0,0279666
2691,1755;0,0279986
2692,1399;0,0280255
2693,1040;0,0280507
2694,0684;0,0280781
2695,0325;0,0281099
2695,9968;0,0281459
2696,9609;0,0281844
2697,9253;0,0282233
2698,8894;0,0282614
2699,8538;0,0282985
2700,8179;0,0283354
2701,7822;0,0283731
2702,7463;0,0284128
2703,7107;0,0284546
2704,6748;0,028498
2705,6392;0,0285415
2706,6033;0,0285827
2707,5676;0,0286203
2708,5317;0,0286543
2709,4961;0,0286866
2710,4602;0,0287199
2711,4246;0,0287563
2712,3887;0,0287959
2713,3530;0,028837
2714,3171;0,0288771
2715,2815;0,0289143
2716,2456;0,0289479
2717,2100;0,0289786
2718,1741;0,0290075
2719,1384;0,0290353
2720,1025;0,029062
2721,0669;0,029087
2722,0310;0,0291098
2722,9954;0,0291306
2723,9595;0,0291513
2724,9238;0,029175
2725,8879;0,0292054
2726,8523;0,0292453
2727,8164;0,0292954
2728,7808;0,0293535
2729,7449;0,0294153
2730,7092;0,0294758
2731,6733;0,0295302
2732,6377;0,0295756
2733,6018;0,0296104
2734,5662;0,0296351
2735,5303;0,0296518
2736,4946;0,029664
2737,4587;0,0296762
2738,4231;0,0296931
2739,3872;0,0297178
2740,3516;0,0297507
2741,3157;0,029789
2742,2800;0,0298273
2743,2441;0,0298592
2744,2085;0,0298797
2745,1726;0,0298871
2746,1370;0,0298839
2747,1011;0,0298768
2748,0654;0,0298749
2749,0295;0,029887
2749,9939;0,0299186
2750,9580;0,0299701
2751,9224;0,0300361
2752,8865;0,0301077
2753,8508;0,0301755
2754,8149;0,0302328
2755,7793;0,030278
2756,7434;0,0303133
2757,7078;0,0303431
2758,6719;0,0303715
2759,6362;0,0304012
2760,6003;0,0304332
2761,5647;0,030468
2762,5288;0,0305058
2763,4932;0,0305469
2764,4573;0,0305911
2765,4216;0,0306381
2766,3857;0,0306878
2767,3501;0,0307402
2768,3142;0,030795
2769,2786;0,0308509
2770,2427;0,030905
2771,2070;0,0309529
2772,1711;0,0309914
2773,1355;0,0310207
2774,0996;0,0310455
2775,0640;0,0310746
2776,0281;0,0311167
2776,9924;0,0311768
2777,9565;0,0312536
2778,9209;0,03134
2779,8850;0,0314267
2780,8494;0,0315067
2781,8135;0,0315777
2782,7778;0,0316417
2783,7419;0,0317016
2784,7063;0,0317588
2785,6704;0,031812
2786,6348;0,0318597
2787,5989;0,0319033
2788,5632;0,0319485
2789,5273;0,0320035
2790,4917;0,0320755
2791,4558;0,0321662
2792,4202;0,032271
2793,3843;0,0323814
2794,3486;0,0324883
2795,3127;0,0325867
2796,2771;0,0326762
2797,2412;0,0327604
2798,2056;0,0328441
2799,1697;0,0329306
2800,1340;0,0330211
2801,0981;0,0331148
2802,0625;0,0332109
2803,0266;0,0333096
2803,9910;0,0334125
2804,9551;0,0335204
2805,9194;0,0336325
2806,8835;0,0337457
2807,8479;0,0338568
2808,8120;0,0339648
2809,7764;0,0340722
2810,7405;0,0341843
2811,7048;0,0343059
2812,6689;0,034438
2813,6333;0,0345776
2814,5974;0,0347192
2815,5618;0,0348592
2816,5259;0,0349969
2817,4902;0,035135
2818,4543;0,0352768
2819,4187;0,0354242
2820,3828;0,0355773
2821,3472;0,0357351
2822,3113;0,0358976
2823,2756;0,0360663
2824,2397;0,0362435
2825,2041;0,0364314
2826,1682;0,036631
2827,1326;0,0368419
2828,0967;0,0370634
2829,0610;0,0372959
2830,0251;0,0375412
2830,9895;0,0378016
2831,9536;0,0380779
2832,9180;0,0383682
2833,8821;0,0386684
2834,8464;0,0389755
2835,8105;0,0392915
2836,7749;0,039626
2837,7390;0,0399947
2838,7034;0,0404137
2839,6675;0,0408944
2840,6318;0,041441
2841,5959;0,0420525
2842,5603;0,042726
2843,5244;0,0434574
2844,4888;0,0442367
2845,4529;0,0450401
2846,4172;0,0458256
2847,3813;0,046536
2848,3457;0,0471122
2849,3098;0,0475098
2850,2742;0,0477127
2851,2383;0,0477359
2852,2026;0,0476179
2853,1667;0,0474066
2854,1311;0,0471464
2855,0952;0,0468706
2856,0596;0,046601
2857,0237;0,0463511
2857,9880;0,046131
2858,9521;0,0459489
2859,9165;0,045811
2860,8806;0,0457205
2861,8450;0,0456763
2862,8091;0,0456745
2863,7734;0,0457106
2864,7375;0,0457805
2865,7019;0,0458795
2866,6660;0,0459997
2867,6304;0,0461293
2868,5945;0,046254
2869,5588;0,046361
2870,5229;0,0464444
2871,4873;0,0465057
2872,4514;0,0465525
2873,4158;0,0465929
2874,3799;0,0466324
2875,3442;0,0466728
2876,3083;0,046714
2877,2727;0,0467569
2878,2368;0,0468048
2879,2012;0,0468629
2880,1653;0,0469368
2881,1296;0,0470309
2882,0938;0,047147
2883,0581;0,0472837
2884,0222;0,0474364
2884,9866;0,0475983
2885,9507;0,0477628
2886,9150;0,0479259
2887,8792;0,0480866
2888,8435;0,048246
2889,8076;0,0484043
2890,7720;0,0485589
2891,7361;0,0487065
2892,7004;0,048846
2893,6646;0,0489823
2894,6289;0,049126
2895,5930;0,049288
2896,5574;0,049474
2897,5215;0,0496789
2898,4858;0,0498891
2899,4500;0,050088
2900,4143;0,0502644
2901,3784;0,0504176
2902,3428;0,050557
2903,3069;0,0506973
2904,2712;0,0508518
2905,2354;0,0510299
2906,1997;0,0512373
2907,1638;0,0514802
2908,1282;0,051768
2909,0923;0,0521126
2910,0566;0,0525229
2911,0208;0,0529978
2911,9851;0,0535213
2912,9492;0,0540614
2913,9136;0,0545754
2914,8777;0,0550178
2915,8420;0,0553499
2916,8062;0,0555476
2917,7705;0,0556048
2918,7346;0,0555327
2919,6990;0,0553534
2920,6631;0,055093
2921,6274;0,0547736
2922,5916;0,0544102
2923,5559;0,0540114
2924,5200;0,0535826
2925,4844;0,0531306
2926,4485;0,0526645
2927,4128;0,0521951
2928,3770;0,051732
2929,3413;0,0512808
2930,3054;0,050842
2931,2698;0,050412
2932,2339;0,0499845
2933,1982;0,0495545
2934,1624;0,0491199
2935,1267;0,0486837
2936,0908;0,0482525
2937,0552;0,0478343
2938,0193;0,0474349
2938,9836;0,0470563
2939,9478;0,0466963
2940,9121;0,0463507
2941,8762;0,0460156
2942,8406;0,0456896
2943,8047;0,0453734
2944,7690;0,0450697
2945,7332;0,0447824
2946,6975;0,0445165
2947,6616;0,0442768
2948,6260;0,0440667
2949,5901;0,0438858
2950,5544;0,0437288
2951,5186;0,043586
2952,4829;0,0434464
2953,4470;0,0433008
2954,4114;0,0431437
2955,3755;0,0429735
2956,3398;0,0427905
2957,3040;0,0425952
2958,2683;0,0423881
2959,2324;0,0421708
2960,1968;0,0419464
2961,1609;0,041719
2962,1252;0,0414911
2963,0894;0,0412621
2964,0537;0,041029
2965,0178;0,0407895
2965,9822;0,0405446
2966,9463;0,0402996
2967,9106;0,0400612
2968,8748;0,039833
2969,8391;0,0396127
2970,8032;0,0393938
2971,7676;0,0391709
2972,7317;0,0389437
2973,6960;0,0387195
2974,6602;0,0385085
2975,6245;0,0383187
2976,5886;0,0381515
2977,5530;0,0380014
2978,5171;0,0378611
2979,4814;0,0377264
2980,4456;0,0375982
2981,4099;0,0374812
2982,3740;0,0373791
2983,3384;0,0372921
2984,3025;0,0372156
2985,2668;0,0371432
2986,2310;0,0370702
2987,1953;0,0369953
2988,1594;0,0369211
2989,1238;0,0368528
2990,0879;0,0367955
2991,0522;0,0367527
2992,0164;0,0367255
2992,9807;0,0367118
2993,9448;0,0367079
2994,9092;0,0367097
2995,8733;0,0367148
2996,8376;0,0367228
2997,8018;0,0367353
2998,7661;0,0367536
2999,7302;0,0367777
3000,6946;0,0368055
3001,6587;0,0368345
3002,6230;0,0368636
3003,5872;0,0368939
3004,5515;0,0369283
3005,5156;0,036969
3006,4800;0,0370161
3007,4441;0,0370668
3008,4084;0,0371173
3009,3726;0,0371649
3010,3369;0,0372102
3011,3010;0,0372569
3012,2654;0,03731
3013,2295;0,037372
3014,1938;0,0374415
3015,1580;0,0375137
3016,1223;0,0375837
3017,0864;0,0376509
3018,0508;0,03772
3019,0149;0,0377993
3019,9792;0,0378949
3020,9434;0,0380061
3021,9077;0,0381245
3022,8718;0,0382385
3023,8362;0,0383401
3024,8003;0,0384299
3025,7646;0,0385165
3026,7288;0,03861
3027,6931;0,0387154
3028,6572;0,0388285
3029,6216;0,0389392
3030,5857;0,0390381
3031,5500;0,0391228
3032,5142;0,0391998
3033,4785;0,0392809
3034,4426;0,039377
3035,4070;0,0394925
3036,3711;0,0396243
3037,3354;0,0397628
3038,2996;0,0398964
3039,2639;0,0400157
3040,2280;0,0401174
3041,1924;0,0402063
3042,1565;0,0402936
3043,1208;0,0403927
3044,0850;0,0405122
3045,0493;0,0406514
3046,0134;0,0408003
3046,9778;0,0409455
3047,9419;0,0410776
3048,9063;0,0411967
3049,8704;0,0413108
3050,8347;0,0414301
3051,7988;0,0415602
3052,7632;0,0416995
3053,7273;0,0418421
3054,6917;0,0419825
3055,6558;0,0421189
3056,6201;0,0422529
3057,5842;0,042386
3058,5486;0,0425179
3059,5127;0,0426469
3060,4771;0,0427717
3061,4412;0,042893
3062,4055;0,0430121
3063,3696;0,0431289
3064,3340;0,0432413
3065,2981;0,0433469
3066,2625;0,0434464
3067,2266;0,043545
3068,1909;0,0436506
3069,1550;0,0437693
3070,1194;0,0439024
3071,0835;0,0440457
3072,0479;0,0441922
3073,0120;0,0443348
3073,9763;0,0444681
3074,9404;0,044589
3075,9048;0,0446966
3076,8689;0,0447925
3077,8333;0,0448814
3078,7974;0,0449703
3079,7617;0,045066
3080,7258;0,0451717
3081,6902;0,0452863
3082,6543;0,0454052
3083,6187;0,0455239
3084,5828;0,0456407
3085,5471;0,0457578
3086,5112;0,0458799
3087,4756;0,0460113
3088,4397;0,0461535
3089,4041;0,0463037
3090,3682;0,0464554
3091,3325;0,046601
3092,2966;0,0467352
3093,2610;0,0468579
3094,2251;0,0469736
3095,1895;0,0470889
3096,1536;0,047207
3097,1179;0,0473252
3098,0820;0,0474367
3099,0464;0,0475363
3100,0105;0,0476267
3100,9749;0,0477186
3101,9390;0,0478257
3102,9033;0,0479557
3103,8674;0,0481056
3104,8318;0,0482633
3105,7959;0,0484159
3106,7603;0,0485575
3107,7244;0,0486917
3108,6887;0,0488278
3109,6528;0,0489738
3110,6172;0,04913
3111,5813;0,04929
3112,5457;0,049445
3113,5098;0,0495898
3114,4741;0,0497256
3115,4382;0,0498582
3116,4026;0,0499939
3117,3667;0,0501358
3118,3311;0,0502821
3119,2952;0,0504287
3120,2595;0,0505721
3121,2236;0,0507119
3122,1880;0,0508509
3123,1521;0,0509942
3124,1165;0,0511469
3125,0806;0,051312
3126,0449;0,0514891
3127,0090;0,0516736
3127,9734;0,0518568
3128,9375;0,0520292
3129,9019;0,0521841
3130,8660;0,0523212
3131,8303;0,0524483
3132,7944;0,052578
3133,7588;0,0527211
3134,7229;0,0528813
3135,6873;0,0530539
3136,6514;0,0532297
3137,6157;0,0534019
3138,5798;0,0535687
3139,5442;0,0537334
3140,5083;0,0538995
3141,4727;0,0540681
3142,4368;0,0542394
3143,4011;0,054415
3144,3652;0,0545992
3145,3296;0,0547954
3146,2937;0,0550007
3147,2581;0,0552029
3148,2222;0,0553858
3149,1865;0,055539
3150,1506;0,0556661
3151,1150;0,0557853
3152,0791;0,0559196
3153,0435;0,0560848
3154,0076;0,0562812
3154,9719;0,0564952
3155,9360;0,0567084
3156,9004;0,0569071
3157,8645;0,0570874
3158,8289;0,0572542
3159,7930;0,057417
3160,7573;0,0575854
3161,7214;0,0577662
3162,6858;0,0579611
3163,6499;0,0581661
3164,6143;0,0583723
3165,5784;0,0585686
3166,5427;0,0587468
3167,5068;0,0589057
3168,4712;0,0590519
3169,4353;0,0591432
3170,3997;0,0593016
3171,3638;0,0594805
3172,3281;0,0596799
3173,2922;0,0598933
3174,2566;0,0601099
3175,2207;0,0603187
3176,1851;0,0605121
3177,1492;0,0606885
3178,1135;0,0608528
3179,0776;0,0610133
3180,0420;0,0611767
3181,0061;0,0613442
3181,9705;0,0615118
3182,9346;0,0616739
3183,8989;0,0618291
3184,8630;0,0619825
3185,8274;0,0621435
3186,7915;0,0623201
3187,7559;0,0625137
3188,7200;0,062718
3189,6843;0,0629224
3190,6484;0,063117
3191,6128;0,0632967
3192,5769;0,0634622
3193,5413;0,0636184
3194,5054;0,0637716
3195,4697;0,0639276
3196,4338;0,0640892
3197,3982;0,0642553
3198,3623;0,0644216
3199,3267;0,0645829
3200,2908;0,0647364
3201,2551;0,0648841
3202,2192;0,0650322
3203,1836;0,0651872
3204,1477;0,065352
3205,1121;0,0655237
3206,0762;0,0656952
3207,0405;0,0658598
3208,0046;0,0660158
3208,9690;0,0661664
3209,9331;0,0663174
3210,8975;0,0664732
3211,8616;0,0666344
3212,8259;0,0667986
3213,7900;0,0669623
3214,7544;0,0671224
3215,7185;0,0672772
3216,6829;0,0674255
3217,6470;0,0675675
3218,6113;0,0677059
3219,5754;0,0678456
3220,5398;0,0679927
3221,5039;0,0681514
3222,4683;0,0683212
3223,4324;0,0684978
3224,3967;0,0686763
3225,3608;0,0688544
3226,3252;0,0690328
3227,2893;0,0692119
3228,2537;0,0693887
3229,2178;0,0695557
3230,1821;0,0697052
3231,1462;0,0698361
3232,1106;0,0699569
3233,0747;0,070083
3234,0391;0,0702285
3235,0032;0,0703985
3235,9675;0,0705868
3236,9316;0,0707804
3237,8960;0,0709674
3238,8601;0,0711423
3239,8245;0,0713065
3240,7886;0,0714638
3241,7529;0,0716176
3242,7170;0,0717694
3243,6814;0,0719212
3244,6455;0,0720775
3245,6099;0,0722443
3246,5740;0,0724272
3247,5383;0,0726272
3248,5024;0,0728409
3249,4668;0,0730619
3250,4309;0,0732839
3251,3953;0,073503
3252,3594;0,0737183
3253,3237;0,0739313
3254,2878;0,0741445
3255,2522;0,0743601
3256,2163;0,074579
3257,1807;0,0748
3258,1448;0,0750194
3259,1091;0,0752331
3260,0732;0,0754378
3261,0376;0,0756331
3262,0017;0,0758215
3262,9661;0,0760063
3263,9302;0,0761898
3264,8945;0,0763714
3265,8586;0,0765484
3266,8230;0,0767173
3267,7871;0,0768759
3268,7515;0,0770236
3269,7156;0,0771604
3270,6799;0,0772853
3271,6440;0,0773965
3272,6084;0,0774923
3273,5725;0,0775731
3274,5369;0,0776425
3275,5010;0,077706
3276,4653;0,0777685
3277,4294;0,0778312
3278,3938;0,0778921
3279,3579;0,0779468
3280,3223;0,0779919
3281,2864;0,0780271
3282,2507;0,0780547
3283,2148;0,078079
3284,1792;0,0781036
3285,1433;0,0781301
3286,1077;0,0781577
3287,0718;0,078183
3288,0361;0,0782007
3289,0002;0,0782059
3289,9646;0,0781966
3290,9287;0,0781755
3291,8931;0,0781497
3292,8572;0,0781268
3293,8215;0,0781096
3294,7856;0,0780941
3295,7500;0,0780714
3296,7141;0,0780349
3297,6785;0,077986
3298,6426;0,0779348
3299,6069;0,0778945
3300,5710;0,0778724
3301,5354;0,0778637
3302,4995;0,0778527
3303,4639;0,0778212
3304,4280;0,0777584
3305,3923;0,0776681
3306,3564;0,077567
3307,3208;0,077477
3308,2849;0,077415
3309,2493;0,0773858
3310,2134;0,0773818
3311,1777;0,0773887
3312,1418;0,0773943
3313,1062;0,0773947
3314,0703;0,0773949
3315,0347;0,0774044
3315,9988;0,0774303
3316,9631;0,0774733
3317,9272;0,0775272
3318,8916;0,0775837
3319,8557;0,0776376
3320,8201;0,077689
3321,7842;0,0777422
3322,7485;0,0778012
3323,7126;0,0778668
3324,6770;0,0779366
3325,6411;0,078007
3326,6055;0,0780767
3327,5696;0,0781462
3328,5339;0,078217
3329,4980;0,0782878
3330,4624;0,078354
3331,4265;0,0784085
3332,3909;0,0784436
3333,3550;0,0784533
3334,3193;0,0784339
3335,2834;0,0783847
3336,2478;0,0783067
3337,2119;0,0782034
3338,1763;0,0780795
3339,1404;0,0779406
3340,1047;0,077792
3341,0688;0,0776386
3342,0332;0,0774837
3342,9973;0,0773288
3343,9617;0,0771718
3344,9258;0,0770072
3345,8901;0,0768274
3346,8542;0,0766268
3347,8186;0,076406
3348,7827;0,0761735
3349,7471;0,0759422
3350,7112;0,0757227
3351,6755;0,0755174
3352,6396;0,0753205
3353,6040;0,0751226
3354,5681;0,0749175
3355,5325;0,074706
3356,4966;0,0744933
3357,4609;0,0742846
3358,4250;0,0740808
3359,3894;0,0738802
3360,3535;0,0736826
3361,3179;0,0734915
3362,2820;0,0733122
3363,2463;0,0731464
3364,2104;0,0729884
3365,1748;0,0728262
3366,1389;0,0726479
3367,1033;0,0724487
3368,0674;0,0722329
3369,0317;0,0720102
3369,9958;0,0717902
3370,9602;0,0715787
3371,9243;0,0713777
3372,8887;0,0711874
3373,8528;0,0710075
3374,8171;0,0708366
3375,7813;0,0706708
3376,7456;0,0705048
3377,7097;0,0703335
3378,6741;0,0701548
3379,6382;0,069969
3380,6025;0,0697773
3381,5667;0,0695807
3382,5310;0,0693801
3383,4951;0,0691793
3384,4595;0,0689865
3385,4236;0,0688118
3386,3879;0,0686617
3387,3521;0,0685343
3388,3164;0,0684187
3389,2805;0,0682991
3390,2449;0,0681623
3391,2090;0,0680024
3392,1733;0,0678225
3393,1375;0,0676316
3394,1018;0,0674397
3395,0659;0,0672544
3396,0303;0,0670791
3396,9944;0,0669142
3397,9587;0,0667571
3398,9229;0,0666035
3399,8872;0,0664483
3400,8513;0,066287
3401,8157;0,066117
3402,7798;0,0659385
3403,7441;0,0657531
3404,7083;0,0655627
3405,6726;0,0653686
3406,6367;0,0651717
3407,6011;0,0649715
3408,5652;0,0647668
3409,5295;0,0645549
3410,4937;0,0643337
3411,4580;0,0641039
3412,4221;0,0638708
3413,3865;0,0636424
3414,3506;0,0634246
3415,3149;0,0632161
3416,2791;0,0630079
3417,2434;0,0627871
3418,2075;0,0625447
3419,1719;0,0622819
3420,1360;0,0620091
3421,1003;0,0617399
3422,0645;0,0614826
3423,0288;0,0612373
3423,9929;0,060998
3424,9573;0,0607587
3425,9214;0,0605165
3426,8857;0,0602717
3427,8499;0,0600252
3428,8142;0,0597778
3429,7783;0,05953
3430,7427;0,0592841
3431,7068;0,0590439
3432,6711;0,0588132
3433,6353;0,0585931
3434,5996;0,0583809
3435,5637;0,058171
3436,5281;0,0579573
3437,4922;0,0577362
3438,4565;0,0575082
3439,4207;0,0572781
3440,3850;0,0570527
3441,3491;0,0568348
3442,3135;0,0566185
3443,2776;0,0563883
3444,2419;0,0561246
3445,2061;0,0558167
3446,1704;0,0554732
3447,1345;0,0551233
3448,0989;0,0548036
3449,0630;0,0545377
3450,0273;0,0543245
3450,9915;0,0541418
3451,9558;0,0539618
3452,9199;0,0537651
3453,8843;0,0535475
3454,8484;0,0533171
3455,8127;0,0530838
3456,7769;0,0528508
3457,7412;0,0526136
3458,7053;0,0523648
3459,6697;0,0521018
3460,6338;0,0518296
3461,5981;0,0515581
3462,5623;0,0512949
3463,5266;0,0510403
3464,4907;0,0507871
3465,4551;0,0505266
3466,4192;0,0502556
3467,3835;0,0499799
3468,3477;0,0497104
3469,3120;0,0494549
3470,2761;0,049211
3471,2405;0,0489669
3472,2046;0,0487108
3473,1689;0,0484424
3474,1331;0,0481782
3475,0974;0,0479423
3476,0615;0,0477497
3477,0259;0,0475928
3477,9900;0,0474414
3478,9543;0,0472591
3479,9185;0,0470241
3480,8828;0,0467438
3481,8469;0,0464497
3482,8113;0,046176
3483,7754;0,0459366
3484,7397;0,0457181
3485,7039;0,0454937
3486,6682;0,045244
3487,6323;0,0449723
3488,5967;0,0447032
3489,5608;0,0444658
3490,5251;0,0442727
3491,4893;0,0441108
3492,4536;0,0439488
3493,4177;0,0437572
3494,3821;0,0435273
3495,3462;0,0432794
3496,3105;0,0430502
3497,2747;0,0428668
3498,2390;0,0427249
3499,2031;0,0425871
3500,1675;0,0424025
3501,1316;0,0421375
3502,0959;0,0418019
3503,0601;0,0414496
3504,0244;0,0411452
3504,9885;0,0409207
3505,9529;0,0407578
3506,9170;0,0406055
3507,8813;0,0404142
3508,8455;0,0401639
3509,8098;0,0398734
3510,7739;0,0395843
3511,7383;0,0393309
3512,7024;0,0391212
3513,6667;0,0389406
3514,6309;0,0387698
3515,5952;0,0386004
3516,5593;0,038437
3517,5237;0,038289
3518,4878;0,0381584
3519,4521;0,0380358
3520,4163;0,0379053
3521,3806;0,0377533
3522,3447;0,0375737
3523,3091;0,037365
3524,2732;0,0371239
3525,2375;0,0368428
3526,2017;0,0365177
3527,1660;0,0361606
3528,1301;0,0358054
3529,0945;0,0354972
3530,0586;0,0352689
3531,0229;0,0351217
3531,9871;0,0350245
3532,9514;0,0349302
3533,9155;0,0347964
3534,8799;0,0346031
3535,8440;0,0343611
3536,8083;0,034108
3537,7725;0,0338909
3538,7368;0,0337439
3539,7009;0,0336723
3540,6653;0,0336491
3541,6294;0,0336205
3542,5938;0,033521
3543,5579;0,0332998
3544,5222;0,0329547
3545,4863;0,0325473
3546,4507;0,0321736
3547,4148;0,0319023
3548,3792;0,0317347
3549,3433;0,0316158
3550,3076;0,0314743
3551,2717;0,0312656
3552,2361;0,0309973
3553,2002;0,0307219
3554,1646;0,0304973
3555,1287;0,0303459
3556,0930;0,0302449
3557,0571;0,0301508
3558,0215;0,0300355
3558,9856;0,0299105
3559,9500;0,0298227
3560,9141;0,0298192
3561,8784;0,0299031
3562,8425;0,03001
3563,8069;0,0300146
3564,7710;0,0297713
3565,7354;0,0292051
3566,6995;0,0284196
3567,6638;0,0276765
3568,6279;0,0271976
3569,5923;0,0270146
3570,5564;0,0270146
3571,5208;0,0270555
3572,4849;0,0270387
3573,4492;0,026933
3574,4133;0,026765
3575,3777;0,026586
3576,3418;0,0264316
3577,3062;0,0263034
3578,2703;0,0261858
3579,2346;0,0260786
3580,1987;0,0260107
3581,1631;0,0260202
3582,1272;0,0261154
3583,0916;0,0262469
3584,0557;0,0263068
3585,0200;0,0261626
3585,9841;0,0257393
3586,9485;0,0251231
3587,9126;0,0245565
3588,8770;0,0242558
3589,8411;0,0242512
3590,8054;0,0244152
3591,7695;0,0245766
3592,7339;0,0246052
3593,6980;0,0244583
3594,6624;0,0241902
3595,6265;0,0239034
3596,5908;0,0236663
3597,5549;0,0234728
3598,5193;0,0232782
3599,4834;0,0230641
3600,4478;0,0228709
3601,4119;0,0227659
3602,3762;0,0227797
3603,3403;0,0228709
3604,3047;0,0229453
3605,2688;0,0229037
3606,2332;0,0226912
3607,1973;0,0223306
3608,1616;0,021912
3609,1257;0,0215317
3610,0901;0,0212349
3611,0542;0,0210163
3612,0186;0,0208621
3612,9827;0,0207749
3613,9470;0,0207585
3614,9111;0,0207832
3615,8755;0,0207716
3616,8396;0,0206254
3617,8040;0,0202913
3618,7681;0,0198358
3619,7324;0,0194487
3620,6965;0,0193225
3621,6609;0,0195176
3622,6250;0,0199497
3623,5894;0,0204621
3624,5535;0,0208799
3625,5178;0,0210219
3626,4819;0,020722
3627,4463;0,0199337
3628,4104;0,0188901
3629,3748;0,0180293
3630,3389;0,0176132
3631,3032;0,0175608
3632,2673;0,0176487
3633,2317;0,0177076
3634,1958;0,0176761
3635,1602;0,0175761
3636,1243;0,0174599
3637,0886;0,0173611
3638,0527;0,0172773
3639,0171;0,0171928
3639,9812;0,0171135
3640,9456;0,0170805
3641,9097;0,0171469
3642,8740;0,0173361
3643,8381;0,0176102
3644,8025;0,0178574
3645,7666;0,017888
3646,7310;0,0174599
3647,6951;0,0164361
3648,6594;0,0150888
3649,6235;0,0140608
3650,5879;0,013732
3651,5520;0,0139497
3652,5164;0,0143627
3653,4805;0,0146918
3654,4448;0,014791
3655,4089;0,0146554
3656,3733;0,014409
3657,3374;0,0142212
3658,3018;0,0141797
3659,2659;0,0142483
3660,2302;0,0143377
3661,1943;0,0143969
3662,1587;0,0144508
3663,1228;0,014568
3664,0872;0,0147888
3665,0513;0,0150717
3666,0156;0,0152974
3666,9797;0,0153219
3667,9441;0,0150718
3668,9082;0,0146461
3669,8726;0,0142953
3670,8367;0,0142051
3671,8010;0,0143208
3672,7651;0,0144064
3673,7295;0,0142173
3674,6936;0,0136768
3675,6580;0,0129946
3676,6221;0,0125277
3677,5864;0,0124518
3678,5505;0,0126748
3679,5149;0,0130197
3680,4790;0,0133731
3681,4434;0,0137111
3682,4075;0,0140595
3683,3718;0,0144363
3684,3359;0,0148105
3685,3003;0,0150915
3686,2644;0,0151482
3687,2288;0,0148663
3688,1929;0,0142609
3689,1572;0,0135671
3690,1213;0,0131135
3691,0857;0,0130502
3692,0498;0,0132931
3693,0142;0,0136798
3693,9783;0,0140909
3694,9426;0,0144706
3695,9067;0,0148013
3696,8711;0,0150707
3697,8352;0,0152511
3698,7996;0,0153001
3699,7637;0,0151877
3700,7280;0,0149388
3701,6921;0,0146559
3702,6565;0,014478
3703,6206;0,0144971
3704,5850;0,0147118
3705,5491;0,0150436
3706,5134;0,0153712
3707,4775;0,0155492
3708,4419;0,0154234
3709,4060;0,0148959
3710,3704;0,0140551
3711,3345;0,0132215
3712,2988;0,0127352
3713,2629;0,0127042
3714,2273;0,0130177
3715,1914;0,0135016
3716,1558;0,014014
3717,1199;0,0144684
3718,0842;0,0148303
3719,0483;0,0151072
3720,0127;0,0153266
3720,9768;0,0155059
3721,9412;0,0156307
3722,9053;0,0156685
3723,8696;0,0156087
3724,8337;0,0154961
3725,7981;0,0154183
3726,7622;0,0154501
3727,7266;0,0156106
3728,6907;0,0158635
3729,6550;0,0161437
3730,6191;0,0163751
3731,5835;0,016469
3732,5476;0,0163196
3733,5120;0,0158411
3734,4761;0,0150779
3735,4404;0,0142784
3736,4045;0,0137576
3737,3689;0,0136697
3738,3330;0,0139595
3739,2974;0,0144579
3740,2615;0,0149611
3741,2258;0,0152602
3742,1899;0,0151784
3743,1543;0,0146861
3744,1184;0,0140258
3745,0828;0,0135881
3746,0469;0,0135529
3747,0112;0,0137619
3747,9753;0,0138906
3748,9397;0,0136469
3749,9038;0,012962
3750,8682;0,012139
3751,8323;0,0116535
3752,7966;0,0117028
3753,7607;0,0121246
3754,7251;0,0126438
3755,6892;0,0130401
3756,6536;0,0131928
3757,6177;0,0131025
3758,5820;0,0128937
3759,5461;0,0127435
3760,5105;0,0127612
3761,4746;0,0129365
3762,4390;0,0131841
3763,4031;0,0134095
3764,3674;0,0135462
3765,3315;0,0135642
3766,2959;0,0134614
3767,2600;0,013253
3768,2244;0,0129698
3769,1885;0,0126701
3770,1528;0,0124417
3771,1169;0,0123698
3772,0813;0,0124887
3773,0454;0,0127609
3774,0098;0,0130958
3774,9739;0,0133841
3775,9382;0,0135305
3776,9023;0,0134877
3777,8667;0,0132891
3778,8308;0,0130452
3779,7952;0,0128762
3780,7593;0,0128323
3781,7236;0,0128803
3782,6877;0,0129503
3783,6521;0,0129869
3784,6162;0,0129739
3785,5806;0,0129318
3786,5447;0,0128999
3787,5090;0,012915
3788,4731;0,0129975
3789,4375;0,0131464
3790,4016;0,0133382
3791,3660;0,0135322
3792,3301;0,0136855
3793,2944;0,0137745
3794,2585;0,0138136
3795,2229;0,0138475
3796,1870;0,0139117
3797,1514;0,0139839
3798,1155;0,0139747
3799,0798;0,0137808
3800,0439;0,0133852
3801,0083;0,0129253
3801,9724;0,0126132
3802,9368;0,0125488
3803,9009;0,012644
3804,8652;0,0127207
3805,8293;0,0126573
3806,7937;0,0124875
3807,7578;0,0123855
3808,7222;0,012519
3809,6863;0,0129096
3810,6506;0,0134377
3811,6147;0,0139293
3812,5791;0,0142303
3813,5432;0,0142621
3814,5076;0,014074
3815,4717;0,0138317
3816,4360;0,0136873
3817,4001;0,0136414
3818,3645;0,0135574
3819,3286;0,0133035
3820,2930;0,0128964
3821,2571;0,0125186
3822,2214;0,0123613
3823,1855;0,0124649
3824,1499;0,0127313
3825,1140;0,0130314
3826,0784;0,0132782
3827,0425;0,0134431
3828,0068;0,0135417
3828,9709;0,0136077
3829,9353;0,0136709
3830,8994;0,0137494
3831,8638;0,0138499
3832,8279;0,0139652
3833,7922;0,0140651
3834,7563;0,0140954
3835,7207;0,0139974
3836,6848;0,0137513
3837,6492;0,0134158
3838,6133;0,0131094
3839,5776;0,0129241
3840,5417;0,0128623
3841,5061;0,0128627
3842,4702;0,0128737
3843,4346;0,0128995
3844,3987;0,012997
3845,3630;0,0132348
3846,3271;0,0136475
3847,2915;0,0142134
3848,2556;0,0148551
3849,2200;0,0154365
3850,1841;0,0157458
3851,1484;0,0155085
3852,1125;0,0145669
3853,0769;0,0132356
3854,0410;0,0122225
3855,0054;0,0119142
3855,9695;0,0121704
3856,9338;0,0127061
3857,8979;0,0133125
3858,8623;0,0138581
3859,8264;0,0142493
3860,7908;0,0144219
3861,7549;0,0143713
3862,7192;0,0141859
3863,6833;0,0140186
3864,6477;0,0139878
3865,6118;0,0141031
3866,5762;0,0142792
3867,5403;0,0143981
3868,5046;0,0143641
3869,4688;0,0141462
3870,4331;0,0137979
3871,3972;0,013437
3872,3616;0,0131867
3873,3257;0,0131217
3874,2900;0,0132501
3875,2542;0,0135232
3876,2185;0,0138566
3877,1826;0,014155
3878,1470;0,0143421
3879,1111;0,0143937
3880,0754;0,014348
3881,0396;0,0142697
3882,0039;0,0141898
3882,9680;0,0140885
3883,9324;0,013943
3884,8965;0,0137855
3885,8608;0,0136993
3886,8250;0,0137453
3887,7893;0,013896
3888,7534;0,0140413
3889,7178;0,0140567
3890,6819;0,0138959
3891,6462;0,0136531
3892,6104;0,013511
3893,5747;0,0135962
3894,5388;0,0138999
3895,5032;0,0143193
3896,4673;0,0147325
3897,4316;0,0150438
3898,3958;0,0152034
3899,3601;0,015204
3900,3242;0,0150541
3901,2886;0,0147553
3902,2527;0,0143218
3903,2170;0,0138253
3904,1812;0,0133928
3905,1455;0,0131341
3906,1096;0,0130745
3907,0740;0,0131595
3908,0381;0,0133066
3909,0024;0,013454
3909,9666;0,0135836
3910,9309;0,0137166
3911,8950;0,0138859
3912,8594;0,0141002
3913,8235;0,014323
3914,7878;0,0144814
3915,7520;0,0145073
3916,7163;0,01439
3917,6804;0,0141992
3918,6448;0,0140428
3919,6089;0,0139902
3920,5732;0,014032
3921,5374;0,0141002
3922,5017;0,0141201
3923,4658;0,0140623
3924,4302;0,0139659
3925,3943;0,0139103
3926,3586;0,0139546
3927,3228;0,0140956
3928,2871;0,0142707
3929,2512;0,0143919
3930,2156;0,0143901
3931,1797;0,014253
3932,1440;0,0140345
3933,1082;0,0138203
3934,0725;0,0136799
3935,0366;0,0136435
3936,0010;0,0137073
3936,9651;0,0138463
3937,9294;0,014022
3938,8936;0,0141868
3939,8579;0,0142964
3940,8220;0,014329
3941,7864;0,0143016
3942,7505;0,0142633
3943,7148;0,014262
3944,6790;0,0143093
3945,6433;0,0143704
3946,6074;0,0143865
3947,5718;0,0143125
3948,5359;0,0141488
3949,5002;0,0139469
3950,4644;0,0137784
3951,4287;0,0136924
3952,3928;0,0136936
3953,3572;0,0137533
3954,3213;0,0138337
3955,2856;0,0139078
3956,2498;0,0139652
3957,2141;0,0140066
3958,1782;0,014033
3959,1426;0,0140405
3960,1067;0,014024
3961,0710;0,013985
3962,0352;0,0139357
3962,9995;0,0138949
3963,9636;0,0138782
3964,9280;0,0138897
3965,8921;0,0139211
3966,8564;0,0139573
3967,8206;0,0139854
3968,7849;0,0140004
3969,7490;0,0140055
3970,7134;0,0140057
3971,6775;0,0140034
3972,6418;0,0139961
3973,6060;0,0139814
3974,5703;0,0139617
3975,5344;0,0139454
3976,4988;0,0139423
3977,4629;0,0139563
3978,4272;0,0139812
3979,3914;0,0140031
3980,3557;0,0140082
3981,3198;0,0139908
3982,2842;0,0139574
3983,2483;0,0139233
3984,2126;0,0139048
3985,1768;0,0139113
3986,1411;0,0139419
3987,1052;0,0139869
3988,0696;0,0140327
3989,0337;0,0140668
3989,9980;0,0140811
3990,9622;0,0140726
3991,9265;0,0140425
3992,8906;0,0139961
3993,8550;0,0139421
3994,8191;0,0138924
3995,7834;0,0138591
3996,7476;0,0138497
3997,7119;0,0138636
3998,6760;0,0138922
3999,6404;0,0139242
4000,6045;0,0138936

##### Extended Information
[Comments]
Sample name
Comment
Username
Division
Organization;UNIVERSIDAD INDUSTRIAL DE SANTANDER

[Detailed Information]
Creation date;18/03/2025 12:57 p.m.

Data array type;Linear data array
Horizontal axis;Wavenumber [cm-1]
Vertical axis;Abs
Start;399,193 cm-1
End;4000,6 cm-1
Data interval;0,964233 cm-1
Data points;3736    

[Measurement Information]
Model name;FT/IR-4X1typeA
Serial No.;A035162111

Accessory;ATR PRO 4X
Accessory S/N;A021162126
Incident angle;45 deg

Measurement date;18/03/2025 12:56 p.m.

Light source;Standard
Detector;TGS
Accumulation;40
Resolution;4 cm-1
Zero filling;On
Apodization;Cosine
Gain;Auto (8)
Aperture;Auto (7 mm)
Scan speed;Auto (2 mm/sec)
Filter;Auto (12800 Hz)

