TITLE;
DATA TYPE;INFRARED SPECTRUM
ORIGIN;JASCO
OWNER;
DATE;25/03/18
TIME;12:19:05
SPECTROMETER/DATA SYSTEM;
LOCALE;9226
RESOLUTION;
DELTAX;0,964233
XUNITS;1/CM
YUNITS;ABSORBANCE
FIRSTX;  399,1927
LASTX; 4000,6047
NPOINTS;    3736
FIRSTY;     0,21841
MAXY;     0,27121
MINY;     0,01267
XYDATA
399,1927;0,218415
400,1569;0,216461
401,1211;0,214582
402,0854;0,213377
403,0496;0,213017
404,0138;0,213375
404,9781;0,214154
405,9423;0,215011
406,9065;0,215712
407,8708;0,216231
408,8350;0,216715
409,7992;0,217354
410,7635;0,218243
411,7277;0,219317
412,6919;0,220396
413,6562;0,221285
414,6204;0,221838
415,5846;0,221967
416,5489;0,221646
417,5131;0,22101
418,4773;0,220502
419,4416;0,220739
420,4058;0,221983
421,3700;0,223937
422,3343;0,226096
423,2985;0,22804
424,2627;0,229488
425,2270;0,230323
426,1912;0,230637
427,1554;0,230718
428,1197;0,230911
429,0839;0,23145
430,0481;0,232353
431,0124;0,233425
431,9766;0,234364
432,9408;0,234916
433,9051;0,235009
434,8693;0,23478
435,8335;0,234471
436,7978;0,234275
437,7620;0,234209
438,7262;0,234123
439,6905;0,233803
440,6547;0,233111
441,6189;0,23208
442,5832;0,230947
443,5474;0,230045
444,5116;0,229619
445,4759;0,229683
446,4401;0,230052
447,4043;0,230481
448,3686;0,230809
449,3328;0,231003
450,2970;0,231122
451,2613;0,231222
452,2255;0,23127
453,1897;0,231138
454,1540;0,230658
455,1182;0,229734
456,0824;0,228442
457,0467;0,227069
458,0109;0,226011
458,9751;0,225534
459,9394;0,22559
460,9036;0,225892
461,8678;0,226136
462,8321;0,226144
463,7963;0,225883
464,7605;0,225424
465,7248;0,224875
466,6890;0,224326
467,6532;0,223827
468,6175;0,223408
469,5817;0,2231
470,5459;0,222956
471,5102;0,223026
472,4744;0,223328
473,4386;0,22382
474,4029;0,224429
475,3671;0,225092
476,3313;0,225769
477,2956;0,226428
478,2598;0,227034
479,2240;0,227544
480,1883;0,227931
481,1525;0,2282
482,1167;0,228394
483,0810;0,228569
484,0452;0,228763
485,0094;0,228978
485,9737;0,229197
486,9379;0,229421
487,9021;0,229686
488,8664;0,230051
489,8306;0,23055
490,7948;0,231143
491,7591;0,231708
492,7233;0,232093
493,6875;0,232219
494,6518;0,232146
495,6160;0,232055
496,5802;0,232144
497,5445;0,232526
498,5087;0,233169
499,4729;0,233913
500,4372;0,23454
501,4014;0,234888
502,3656;0,234942
503,3299;0,234839
504,2941;0,23479
505,2583;0,23497
506,2226;0,235454
507,1868;0,236203
508,1510;0,237095
509,1153;0,237982
510,0795;0,238753
511,0437;0,239384
512,0080;0,239934
512,9722;0,240511
513,9365;0,241198
514,9007;0,242007
515,8649;0,242846
516,8292;0,243546
517,7934;0,243934
518,7576;0,243934
519,7219;0,243605
520,6861;0,243091
521,6503;0,242536
522,6146;0,242037
523,5788;0,241644
524,5430;0,24138
525,5073;0,241238
526,4715;0,241173
527,4357;0,241102
528,4000;0,240928
529,3642;0,240584
530,3284;0,240056
531,2927;0,239394
532,2569;0,238698
533,2211;0,238087
534,1854;0,23766
535,1496;0,237465
536,1138;0,237485
537,0781;0,23765
538,0423;0,237866
539,0065;0,23805
539,9708;0,238163
540,9350;0,238224
541,8992;0,238296
542,8635;0,23846
543,8277;0,238774
544,7919;0,239249
545,7562;0,239847
546,7204;0,240503
547,6846;0,241162
548,6489;0,241803
549,6131;0,242447
550,5773;0,243126
551,5416;0,243863
552,5058;0,244646
553,4700;0,245429
554,4343;0,246135
555,3985;0,246666
556,3627;0,246907
557,3270;0,246741
558,2912;0,246075
559,2554;0,24487
560,2197;0,243182
561,1839;0,241165
562,1481;0,239034
563,1124;0,236999
564,0766;0,235196
565,0408;0,233664
566,0051;0,232368
566,9693;0,231258
567,9335;0,23031
568,8978;0,229534
569,8620;0,228941
570,8262;0,228509
571,7905;0,228178
572,7547;0,227871
573,7189;0,227533
574,6832;0,227149
575,6474;0,226749
576,6116;0,226376
577,5759;0,226058
578,5401;0,225788
579,5043;0,225536
580,4686;0,22527
581,4328;0,224982
582,3970;0,224695
583,3613;0,224454
584,3255;0,224302
585,2897;0,224249
586,2540;0,224266
587,2182;0,224296
588,1824;0,224273
589,1467;0,224154
590,1109;0,223927
591,0751;0,223611
592,0394;0,22324
593,0036;0,222838
593,9678;0,222416
594,9321;0,22197
595,8963;0,221502
596,8605;0,221023
597,8248;0,220558
598,7890;0,220127
599,7532;0,219732
600,7175;0,219352
601,6817;0,218946
602,6459;0,21848
603,6102;0,217939
604,5744;0,217335
605,5386;0,216693
606,5029;0,216028
607,4671;0,215336
608,4313;0,214594
609,3956;0,213781
610,3598;0,212904
611,3240;0,212007
612,2883;0,211149
613,2525;0,210369
614,2167;0,209652
615,1810;0,208919
616,1452;0,208049
617,1094;0,206934
618,0737;0,205531
619,0379;0,203891
620,0021;0,202121
620,9664;0,200337
621,9306;0,198629
622,8948;0,197056
623,8591;0,195661
624,8233;0,194466
625,7875;0,193481
626,7518;0,192676
627,7160;0,191983
628,6802;0,191308
629,6445;0,190567
630,6087;0,189702
631,5729;0,188707
632,5372;0,187623
633,5014;0,186523
634,4656;0,18549
635,4299;0,18459
636,3941;0,183854
637,3583;0,183276
638,3226;0,182824
639,2868;0,182448
640,2510;0,182097
641,2153;0,181724
642,1795;0,181302
643,1437;0,180827
644,1080;0,180317
645,0722;0,179808
646,0364;0,179336
647,0007;0,178926
647,9649;0,178584
648,9291;0,178299
649,8934;0,178061
650,8576;0,177871
651,8218;0,177744
652,7861;0,177706
653,7503;0,177783
654,7145;0,17799
655,6788;0,178329
656,6430;0,178774
657,6072;0,179273
658,5715;0,179734
659,5357;0,180041
660,4999;0,180094
661,4642;0,179879
662,4284;0,179491
663,3926;0,179082
664,3569;0,178785
665,3211;0,178668
666,2853;0,178668
667,2496;0,178473
668,2138;0,17755
669,1780;0,175706
670,1423;0,173448
671,1065;0,171289
672,0707;0,169307
673,0350;0,167361
673,9992;0,165326
674,9634;0,163181
675,9277;0,161009
676,8919;0,158934
677,8561;0,15704
678,8204;0,155342
679,7846;0,153819
680,7488;0,152458
681,7131;0,151257
682,6773;0,150207
683,6415;0,149288
684,6058;0,148482
685,5700;0,147777
686,5342;0,147173
687,4985;0,146659
688,4627;0,146201
689,4269;0,14575
690,3912;0,145261
691,3554;0,144718
692,3196;0,144139
693,2839;0,143556
694,2481;0,143008
695,2123;0,142514
696,1766;0,142077
697,1408;0,141674
698,1050;0,141269
699,0693;0,140824
700,0335;0,14031
700,9977;0,139719
701,9620;0,13906
702,9262;0,138353
703,8904;0,137622
704,8547;0,136881
705,8189;0,136135
706,7831;0,135384
707,7474;0,134629
708,7116;0,133866
709,6758;0,133089
710,6401;0,132278
711,6043;0,13141
712,5685;0,130474
713,5328;0,129488
714,4970;0,128507
715,4612;0,127536
716,4255;0,126751
717,3897;0,126061
718,3539;0,125374
719,3182;0,124564
720,2824;0,123535
721,2466;0,122278
722,2109;0,120872
723,1751;0,119437
724,1393;0,11807
725,1036;0,11682
726,0678;0,115692
727,0320;0,114668
727,9963;0,113723
728,9605;0,112827
729,9247;0,111955
730,8890;0,111082
731,8532;0,1102
732,8174;0,109323
733,7817;0,10848
734,7459;0,107702
735,7101;0,107007
736,6744;0,106389
737,6386;0,105829
738,6028;0,105301
739,5671;0,104792
740,5313;0,104292
741,4955;0,103796
742,4598;0,103297
743,4240;0,102789
744,3882;0,102265
745,3525;0,101731
746,3167;0,101196
747,2809;0,10067
748,2452;0,100156
749,2094;0,0996514
750,1736;0,0991479
751,1379;0,0986369
752,1021;0,0981121
753,0663;0,0975707
754,0306;0,0970132
754,9948;0,0964451
755,9590;0,0958783
756,9233;0,0953301
757,8875;0,0948175
758,8517;0,0943485
759,8160;0,0939185
760,7802;0,0935138
761,7444;0,0931225
762,7087;0,0927432
763,6729;0,0923852
764,6371;0,0920584
765,6014;0,0917598
766,5656;0,0914682
767,5298;0,0911517
768,4941;0,0907862
769,4583;0,0903694
770,4225;0,0899242
771,3868;0,0894858
772,3510;0,0890841
773,3152;0,0887304
774,2795;0,0884178
775,2437;0,0881301
776,2079;0,0878534
777,1722;0,0875799
778,1364;0,0873055
779,1006;0,0870234
780,0649;0,086722
781,0291;0,0863886
781,9933;0,0860152
782,9576;0,0856031
783,9218;0,0851611
784,8860;0,0847017
785,8503;0,0842375
786,8145;0,083781
787,7787;0,0833467
788,7430;0,0829508
789,7072;0,0826064
790,6714;0,0823163
791,6357;0,0820687
792,5999;0,0818407
793,5641;0,0816093
794,5284;0,0813625
795,4926;0,0811045
796,4568;0,080851
797,4211;0,0806168
798,3853;0,0804059
799,3495;0,080209
800,3138;0,0800104
801,2780;0,0797981
802,2422;0,0795706
803,2065;0,0793346
804,1707;0,0790985
805,1349;0,078867
806,0992;0,0786413
807,0634;0,0784259
808,0276;0,0782323
808,9919;0,0780763
809,9561;0,0779679
810,9203;0,0779007
811,8846;0,0778509
812,8488;0,0777871
813,8130;0,0776865
814,7773;0,0775463
815,7415;0,0773834
816,7057;0,0772245
817,6700;0,0770918
818,6342;0,0769957
819,5984;0,0769348
820,5627;0,0769013
821,5269;0,0768848
822,4911;0,0768739
823,4554;0,0768552
824,4196;0,0768144
825,3839;0,0767396
826,3481;0,0766256
827,3123;0,0764751
828,2766;0,0762974
829,2408;0,0761046
830,2050;0,0759082
831,1693;0,0757167
832,1335;0,0755341
833,0977;0,0753581
834,0620;0,0751783
835,0262;0,0749779
835,9904;0,0747384
836,9547;0,0744486
837,9189;0,0741114
838,8831;0,0737475
839,8474;0,0733894
840,8116;0,0730716
841,7758;0,0728184
842,7401;0,0726365
843,7043;0,0725142
844,6685;0,072427
845,6328;0,0723459
846,5970;0,072246
847,5612;0,0721128
848,5255;0,0719452
849,4897;0,071755
850,4539;0,071562
851,4182;0,0713873
852,3824;0,0712458
853,3466;0,0711413
854,3109;0,0710665
855,2751;0,0710087
856,2393;0,0709563
857,2036;0,070904
858,1678;0,0708542
859,1320;0,0708144
860,0963;0,0707939
861,0605;0,0708014
862,0247;0,0708437
862,9890;0,0709256
863,9532;0,071049
864,9174;0,071214
865,8817;0,0714207
866,8459;0,0716712
867,8101;0,0719696
868,7744;0,0723174
869,7386;0,0727066
870,7028;0,0731152
871,6671;0,0735112
872,6313;0,0738641
873,5955;0,0741601
874,5598;0,0744097
875,5240;0,0746434
876,4882;0,074897
877,4525;0,0751961
878,4167;0,0755498
879,3809;0,0759567
880,3452;0,0764171
881,3094;0,0769422
882,2736;0,0775524
883,2379;0,0782669
884,2021;0,0790929
885,1663;0,0800213
886,1306;0,0810312
887,0948;0,0820986
888,0590;0,0832018
889,0233;0,0843216
889,9875;0,0854371
890,9517;0,0865228
891,9160;0,0875488
892,8802;0,088483
893,8444;0,0892938
894,8087;0,0899506
895,7729;0,0904251
896,7371;0,090694
897,7014;0,0907448
898,6656;0,0905802
899,6298;0,0902195
900,5941;0,0896951
901,5583;0,0890479
902,5225;0,0883241
903,4868;0,0875724
904,4510;0,0868417
905,4152;0,0861743
906,3795;0,0855985
907,3437;0,0851238
908,3079;0,0847421
909,2722;0,0844371
910,2364;0,0841959
911,2007;0,0840164
912,1649;0,0839083
913,1292;0,0838868
914,0934;0,0839634
915,0576;0,0841396
916,0219;0,0844049
916,9861;0,084739
917,9503;0,0851185
918,9146;0,0855242
919,8788;0,0859462
920,8430;0,0863836
921,8073;0,0868398
922,7715;0,0873143
923,7357;0,0877977
924,7000;0,0882734
925,6642;0,0887246
926,6284;0,0891432
927,5927;0,0895331
928,5569;0,0899067
929,5211;0,0902776
930,4854;0,0906546
931,4496;0,0910415
932,4138;0,0914409
933,3781;0,0918594
934,3423;0,0923087
935,3065;0,0928051
936,2708;0,0933667
937,2350;0,0940118
938,1992;0,0947575
939,1635;0,0956159
940,1277;0,0965897
941,0919;0,097669
942,0562;0,0988332
943,0204;0,100059
943,9846;0,101333
944,9489;0,102656
945,9131;0,10404
946,8773;0,105504
947,8416;0,107059
948,8058;0,108705
949,7700;0,110432
950,7343;0,112228
951,6985;0,11408
952,6627;0,115979
953,6270;0,117918
954,5912;0,119892
955,5554;0,121901
956,5197;0,123952
957,4839;0,126058
958,4481;0,128235
959,4124;0,130483
960,3766;0,132788
961,3408;0,135117
962,3051;0,137435
963,2693;0,139717
964,2335;0,141961
965,1978;0,144189
966,1620;0,146435
967,1262;0,148735
968,0905;0,151115
969,0547;0,153594
970,0189;0,156186
970,9832;0,158912
971,9474;0,161805
972,9116;0,164903
973,8759;0,168242
974,8401;0,171841
975,8043;0,175695
976,7686;0,179772
977,7328;0,184016
978,6970;0,188348
979,6613;0,192668
980,6255;0,196854
981,5897;0,200775
982,5540;0,204312
983,5182;0,207386
984,4824;0,209979
985,4467;0,212139
986,4109;0,213962
987,3751;0,215557
988,3394;0,217016
989,3036;0,218391
990,2678;0,219697
991,2321;0,220922
992,1963;0,222043
993,1605;0,223044
994,1248;0,223919
995,0890;0,224677
996,0532;0,225338
997,0175;0,225927
997,9817;0,226468
998,9459;0,226983
999,9102;0,227496
1000,8744;0,228044
1001,8386;0,228679
1002,8029;0,229462
1003,7671;0,230451
1004,7313;0,231681
1005,6956;0,233159
1006,6598;0,234865
1007,6240;0,236768
1008,5883;0,238842
1009,5525;0,241069
1010,5167;0,243434
1011,4810;0,24591
1012,4452;0,248452
1013,4094;0,250991
1014,3737;0,253452
1015,3379;0,255763
1016,3021;0,257872
1017,2664;0,259752
1018,2306;0,261401
1019,1948;0,262841
1020,1591;0,264105
1021,1233;0,265234
1022,0875;0,26627
1023,0518;0,267243
1024,0160;0,26817
1024,9802;0,269043
1025,9445;0,269835
1026,9087;0,270499
1027,8729;0,27098
1028,8372;0,271209
1029,8014;0,271112
1030,7656;0,270602
1031,7299;0,269596
1032,6941;0,26803
1033,6583;0,265889
1034,6226;0,263235
1035,5868;0,260209
1036,5510;0,257017
1037,5153;0,253898
1038,4795;0,251076
1039,4437;0,248722
1040,4080;0,246935
1041,3722;0,245728
1042,3364;0,245041
1043,3007;0,244758
1044,2649;0,244734
1045,2291;0,244825
1046,1934;0,244907
1047,1576;0,24489
1048,1218;0,244711
1049,0861;0,244321
1050,0503;0,243674
1051,0145;0,242733
1051,9788;0,241472
1052,9430;0,239894
1053,9072;0,238024
1054,8715;0,235893
1055,8357;0,233511
1056,7999;0,230853
1057,7642;0,227859
1058,7284;0,224466
1059,6926;0,220655
1060,6569;0,216481
1061,6211;0,212078
1062,5853;0,207626
1063,5496;0,203304
1064,5138;0,199244
1065,4780;0,195509
1066,4423;0,1921
1067,4065;0,188983
1068,3707;0,186112
1069,3350;0,183442
1070,2992;0,180929
1071,2634;0,178519
1072,2277;0,176148
1073,1919;0,17375
1074,1561;0,171272
1075,1204;0,16869
1076,0846;0,166017
1077,0488;0,163298
1078,0131;0,160605
1078,9773;0,158021
1079,9415;0,155626
1080,9058;0,153486
1081,8700;0,151637
1082,8342;0,150085
1083,7985;0,148805
1084,7627;0,147759
1085,7269;0,146904
1086,6912;0,14621
1087,6554;0,145663
1088,6196;0,145258
1089,5839;0,144995
1090,5481;0,144869
1091,5123;0,144871
1092,4766;0,144988
1093,4408;0,145203
1094,4050;0,145496
1095,3693;0,145847
1096,3335;0,146234
1097,2977;0,146637
1098,2620;0,14704
1099,2262;0,147425
1100,1904;0,147772
1101,1547;0,148049
1102,1189;0,148221
1103,0831;0,148259
1104,0474;0,148148
1105,0116;0,147904
1105,9758;0,147558
1106,9401;0,147144
1107,9043;0,146671
1108,8685;0,146105
1109,8328;0,145369
1110,7970;0,144369
1111,7612;0,143033
1112,7255;0,141344
1113,6897;0,13936
1114,6539;0,137197
1115,6182;0,135001
1116,5824;0,132897
1117,5466;0,130967
1118,5109;0,129227
1119,4751;0,127641
1120,4393;0,126136
1121,4036;0,12462
1122,3678;0,123001
1123,3320;0,121205
1124,2963;0,119185
1125,2605;0,116937
1126,2247;0,114494
1127,1890;0,111921
1128,1532;0,109289
1129,1174;0,106663
1130,0817;0,104085
1131,0459;0,101578
1132,0101;0,0991536
1132,9744;0,096828
1133,9386;0,0946322
1134,9028;0,0926127
1135,8671;0,0908242
1136,8313;0,0893191
1137,7955;0,0881369
1138,7598;0,0872981
1139,7240;0,0868019
1140,6882;0,0866267
1141,6525;0,0867329
1142,6167;0,087069
1143,5809;0,0875796
1144,5452;0,0882144
1145,5094;0,088937
1146,4736;0,0897278
1147,4379;0,0905823
1148,4021;0,0915024
1149,3663;0,0924869
1150,3306;0,0935229
1151,2948;0,0945821
1152,2590;0,095623
1153,2233;0,0965975
1154,1875;0,0974574
1155,1517;0,0981585
1156,1160;0,0986585
1157,0802;0,0989115
1158,0444;0,0988603
1159,0087;0,0984347
1159,9729;0,0975579
1160,9371;0,0961625
1161,9014;0,0942117
1162,8656;0,0917162
1163,8298;0,088741
1164,7941;0,0853987
1165,7583;0,0818331
1166,7225;0,0781979
1167,6868;0,0746365
1168,6510;0,0712658
1169,6152;0,068166
1170,5795;0,065378
1171,5437;0,0629082
1172,5079;0,0607395
1173,4722;0,0588446
1174,4364;0,0571956
1175,4006;0,055768
1176,3649;0,0545388
1177,3291;0,0534843
1178,2933;0,0525794
1179,2576;0,0518006
1180,2218;0,0511296
1181,1860;0,0505554
1182,1503;0,0500728
1183,1145;0,0496797
1184,0787;0,0493756
1185,0430;0,0491617
1186,0072;0,0490419
1186,9714;0,0490229
1187,9357;0,0491116
1188,8999;0,0493124
1189,8641;0,0496243
1190,8284;0,0500407
1191,7926;0,0505504
1192,7568;0,0511395
1193,7211;0,0517935
1194,6853;0,0524979
1195,6495;0,0532384
1196,6138;0,054001
1197,5780;0,0547715
1198,5422;0,0555352
1199,5065;0,0562461
1200,4707;0,0569611
1201,4349;0,0576354
1202,3992;0,0582616
1203,3634;0,0588318
1204,3276;0,0593362
1205,2919;0,059765
1206,2561;0,0601146
1207,2203;0,0603945
1208,1846;0,0606323
1209,1488;0,0608707
1210,1130;0,061159
1211,0773;0,0615398
1212,0415;0,0620388
1213,0057;0,062661
1213,9700;0,0633941
1214,9342;0,064216
1215,8984;0,0651028
1216,8627;0,066032
1217,8269;0,0669838
1218,7911;0,0679414
1219,7554;0,0688908
1220,7196;0,0698218
1221,6838;0,0707278
1222,6481;0,0716045
1223,6123;0,072448
1224,5765;0,0732533
1225,5408;0,0740151
1226,5050;0,0747301
1227,4692;0,0753987
1228,4335;0,0760247
1229,3977;0,0766125
1230,3619;0,0771621
1231,3262;0,0776671
1232,2904;0,0781149
1233,2546;0,078491
1234,2189;0,0787849
1235,1831;0,0789949
1236,1473;0,0791293
1237,1116;0,0792038
1238,0758;0,0792364
1239,0400;0,0792413
1240,0043;0,0792261
1240,9685;0,0791907
1241,9327;0,0791293
1242,8970;0,0790328
1243,8612;0,0788908
1244,8254;0,078694
1245,7897;0,0784374
1246,7539;0,0781224
1247,7181;0,0777584
1248,6824;0,077361
1249,6466;0,0769479
1250,6108;0,0765341
1251,5751;0,0761295
1252,5393;0,0757399
1253,5035;0,0753693
1254,4678;0,0750205
1255,4320;0,0746929
1256,3962;0,0743785
1257,3605;0,0740616
1258,3247;0,0737221
1259,2889;0,0733444
1260,2532;0,072924
1261,2174;0,072468
1262,1816;0,0719886
1263,1459;0,0714936
1264,1101;0,0709818
1265,0743;0,0704455
1266,0386;0,0698773
1267,0028;0,0692768
1267,9670;0,0686511
1268,9313;0,0680113
1269,8955;0,0673665
1270,8597;0,0667206
1271,8240;0,0660736
1272,7882;0,0654258
1273,7524;0,0647814
1274,7167;0,0641497
1275,6809;0,0635419
1276,6451;0,0629655
1277,6094;0,0624194
1278,5736;0,0618925
1279,5378;0,0613674
1280,5021;0,0608283
1281,4663;0,0602692
1282,4305;0,0596971
1283,3948;0,0591296
1284,3590;0,0585886
1285,3232;0,0580939
1286,2875;0,0576612
1287,2517;0,0573017
1288,2159;0,0570229
1289,1802;0,0568278
1290,1444;0,0567143
1291,1086;0,0566757
1292,0729;0,0567043
1293,0371;0,0567967
1294,0013;0,0569558
1294,9656;0,0571894
1295,9298;0,0575055
1296,8940;0,0579074
1297,8583;0,0583923
1298,8225;0,0589536
1299,7867;0,0595839
1300,7510;0,0602766
1301,7152;0,0610262
1302,6794;0,0618271
1303,6437;0,0626735
1304,6079;0,0635603
1305,5721;0,0644832
1306,5364;0,0654372
1307,5006;0,0664156
1308,4648;0,0674082
1309,4291;0,0684011
1310,3933;0,0693765
1311,3575;0,0703119
1312,3218;0,0711793
1313,2860;0,0719469
1314,2502;0,0725807
1315,2145;0,0730463
1316,1787;0,0733115
1317,1429;0,073353
1318,1072;0,0731689
1319,0714;0,0727895
1320,0356;0,0722768
1320,9999;0,0717066
1321,9641;0,071145
1322,9283;0,0706339
1323,8926;0,0701922
1324,8568;0,0698251
1325,8210;0,0695323
1326,7853;0,0693127
1327,7495;0,0691619
1328,7137;0,0690688
1329,6780;0,0690132
1330,6422;0,0689669
1331,6064;0,0688998
1332,5707;0,0687873
1333,5349;0,0686146
1334,4991;0,0683728
1335,4634;0,0680497
1336,4276;0,0676243
1337,3918;0,0670721
1338,3561;0,0663871
1339,3203;0,0656065
1340,2845;0,0648087
1341,2488;0,064075
1342,2130;0,063451
1343,1772;0,0629409
1344,1415;0,0625288
1345,1057;0,0622005
1346,0699;0,0619538
1347,0342;0,0617971
1347,9984;0,0617425
1348,9626;0,0617967
1349,9269;0,0619554
1350,8911;0,0622021
1351,8553;0,062513
1352,8196;0,062865
1353,7838;0,0632453
1354,7480;0,0636557
1355,7123;0,0641089
1356,6765;0,0646161
1357,6407;0,0651762
1358,6050;0,0657723
1359,5692;0,0663746
1360,5334;0,0669466
1361,4977;0,0674551
1362,4619;0,0678874
1363,4261;0,0682612
1364,3904;0,0686098
1365,3546;0,0689549
1366,3188;0,0692955
1367,2831;0,0696135
1368,2473;0,0698846
1369,2115;0,0700835
1370,1758;0,0701839
1371,1400;0,0701547
1372,1042;0,0699617
1373,0685;0,0695842
1374,0327;0,0690408
1374,9969;0,0683955
1375,9612;0,0677192
1376,9254;0,0670359
1377,8896;0,0663127
1378,8539;0,0655004
1379,8181;0,0645874
1380,7823;0,0636229
1381,7466;0,062688
1382,7108;0,0618366
1383,6750;0,0610563
1384,6393;0,0602799
1385,6035;0,059441
1386,5677;0,0585434
1387,5320;0,0576901
1388,4962;0,0570165
1389,4604;0,0565861
1390,4247;0,056363
1391,3889;0,056264
1392,3531;0,0562145
1393,3174;0,0561727
1394,2816;0,0561296
1395,2458;0,0560978
1396,2101;0,0560946
1397,1743;0,0561328
1398,1385;0,0562223
1399,1028;0,0563733
1400,0670;0,0565922
1401,0313;0,0568736
1401,9955;0,0571991
1402,9597;0,057546
1403,9240;0,0578987
1404,8882;0,0582582
1405,8524;0,0586401
1406,8167;0,0590615
1407,7809;0,0595274
1408,7451;0,0600305
1409,7094;0,0605637
1410,6736;0,06113
1411,6378;0,061741
1412,6021;0,0624042
1413,5663;0,0631108
1414,5305;0,0638334
1415,4948;0,0645311
1416,4590;0,0651528
1417,4232;0,0656443
1418,3875;0,0659788
1419,3517;0,06619
1420,3159;0,0663422
1421,2802;0,0664566
1422,2444;0,0664959
1423,2086;0,0664124
1424,1729;0,0661919
1425,1371;0,0658574
1426,1013;0,0654347
1427,0656;0,0649171
1428,0298;0,0642686
1428,9940;0,0634753
1429,9583;0,0625971
1430,9225;0,0617512
1431,8867;0,0610222
1432,8510;0,0603902
1433,8152;0,0597412
1434,7794;0,0589394
1435,7437;0,0579415
1436,7079;0,0568924
1437,6721;0,0560533
1438,6364;0,0555755
1439,6006;0,0554126
1440,5648;0,0554336
1441,5291;0,0555377
1442,4933;0,055685
1443,4575;0,0558748
1444,4218;0,0561119
1445,3860;0,0563846
1446,3502;0,0566658
1447,3145;0,056933
1448,2787;0,0571886
1449,2429;0,0574604
1450,2072;0,0577763
1451,1714;0,058139
1452,1356;0,0585206
1453,0999;0,0588702
1454,0641;0,0591091
1455,0283;0,0591091
1455,9926;0,05871
1456,9568;0,0579177
1457,9210;0,0571101
1458,8853;0,0566833
1459,8495;0,0566414
1460,8137;0,0567566
1461,7780;0,0567977
1462,7422;0,056583
1463,7064;0,0560003
1464,6707;0,0550797
1465,6349;0,0540287
1466,5991;0,0530847
1467,5634;0,0523249
1468,5276;0,0516545
1469,4918;0,0508984
1470,4561;0,0498658
1471,4203;0,0484043
1472,3845;0,0465224
1473,3488;0,0445029
1474,3130;0,0427347
1475,2772;0,0413899
1476,2415;0,0403953
1477,2057;0,039613
1478,1699;0,0389463
1479,1342;0,0383461
1480,0984;0,0377932
1481,0626;0,0372903
1482,0269;0,0368602
1482,9911;0,0365343
1483,9553;0,036332
1484,9196;0,0362446
1485,8838;0,0362344
1486,8480;0,036246
1487,8123;0,0362302
1488,7765;0,0361867
1489,7407;0,0361933
1490,7050;0,0363468
1491,6692;0,0366741
1492,6334;0,0371342
1493,5977;0,037674
1494,5619;0,0382597
1495,5261;0,038877
1496,4904;0,0395212
1497,4546;0,0401945
1498,4188;0,0409088
1499,3831;0,0416694
1500,3473;0,0424534
1501,3115;0,0432159
1502,2758;0,0439129
1503,2400;0,0445151
1504,2042;0,0449997
1505,1685;0,045314
1506,1327;0,0453377
1507,0969;0,0450098
1508,0612;0,0445664
1509,0254;0,0442999
1509,9896;0,0442374
1510,9539;0,0442672
1511,9181;0,0442915
1512,8823;0,0442519
1513,8466;0,0441167
1514,8108;0,043875
1515,7750;0,0435406
1516,7393;0,0431442
1517,7035;0,0427086
1518,6677;0,0422302
1519,6320;0,0416956
1520,5962;0,0411276
1521,5604;0,0406093
1522,5247;0,0402368
1523,4889;0,040045
1524,4531;0,0399992
1525,4174;0,0400486
1526,3816;0,0401693
1527,3458;0,0403633
1528,3101;0,0406313
1529,2743;0,0409574
1530,2385;0,0413177
1531,2028;0,0416981
1532,1670;0,0421036
1533,1312;0,0425515
1534,0955;0,0430527
1535,0597;0,0435945
1536,0239;0,0441446
1536,9882;0,0446669
1537,9524;0,0451235
1538,9166;0,0454449
1539,8809;0,045509
1540,8451;0,045269
1541,8093;0,0449365
1542,7736;0,0447481
1543,7378;0,0447153
1544,7020;0,0447484
1545,6663;0,0447895
1546,6305;0,0448229
1547,5947;0,0448448
1548,5590;0,0448421
1549,5232;0,0447976
1550,4874;0,0447125
1551,4517;0,0446224
1552,4159;0,044582
1553,3801;0,0446224
1554,3444;0,0447181
1555,3086;0,0447779
1556,2728;0,0446376
1557,2371;0,0440763
1558,2013;0,0430492
1559,1655;0,042074
1560,1298;0,041757
1561,0940;0,0420567
1562,0582;0,042628
1563,0225;0,0432315
1563,9867;0,0437629
1564,9509;0,0441891
1565,9152;0,0445082
1566,8794;0,0447417
1567,8436;0,0449432
1568,8079;0,0451981
1569,7721;0,0455813
1570,7363;0,0461005
1571,7006;0,0466951
1572,6648;0,0472854
1573,6290;0,0478116
1574,5933;0,0482446
1575,5575;0,0485924
1576,5217;0,0489127
1577,4860;0,0492895
1578,4502;0,0497616
1579,4144;0,0502999
1580,3787;0,0508522
1581,3429;0,0513835
1582,3071;0,0518875
1583,2714;0,0523818
1584,2356;0,0528947
1585,1998;0,0534483
1586,1641;0,054045
1587,1283;0,0546675
1588,0925;0,055286
1589,0568;0,0558676
1590,0210;0,0563825
1590,9852;0,0568044
1591,9495;0,0571081
1592,9137;0,0572728
1593,8779;0,0572904
1594,8422;0,0571766
1595,8064;0,0569691
1596,7706;0,056713
1597,7349;0,0564419
1598,6991;0,0561714
1599,6633;0,0559039
1600,6276;0,0556416
1601,5918;0,0553957
1602,5560;0,0551878
1603,5203;0,0550393
1604,4845;0,0549555
1605,4487;0,0549175
1606,4130;0,0548915
1607,3772;0,0548536
1608,3414;0,0548161
1609,3057;0,0548303
1610,2699;0,0549508
1611,2341;0,0551877
1612,1984;0,055494
1613,1626;0,0557908
1614,1268;0,0560035
1615,0911;0,0561038
1616,0553;0,0561555
1617,0195;0,0563023
1617,9838;0,0566446
1618,9480;0,0571513
1619,9122;0,0577166
1620,8765;0,0582463
1621,8407;0,0586923
1622,8049;0,0590527
1623,7692;0,0593603
1624,7334;0,0596571
1625,6976;0,0599664
1626,6619;0,0602935
1627,6261;0,0606456
1628,5903;0,06104
1629,5546;0,061487
1630,5188;0,0619699
1631,4830;0,0624413
1632,4473;0,0628318
1633,4115;0,063056
1634,3757;0,0630333
1635,3400;0,0627782
1636,3042;0,0624949
1637,2684;0,0624311
1638,2327;0,0626363
1639,1969;0,0630033
1640,1611;0,0634199
1641,1254;0,063821
1642,0896;0,0641703
1643,0538;0,0644275
1644,0181;0,064527
1644,9823;0,0643947
1645,9465;0,0640408
1646,9108;0,0636526
1647,8750;0,0634613
1648,8392;0,0635015
1649,8035;0,0635987
1650,7677;0,0634684
1651,7319;0,0627644
1652,6962;0,0613003
1653,6604;0,0595778
1654,6246;0,0584713
1655,5889;0,0581316
1656,5531;0,0581515
1657,5173;0,0581744
1658,4816;0,0580113
1659,4458;0,0575662
1660,4100;0,0567973
1661,3743;0,0557545
1662,3385;0,0546264
1663,3027;0,0536569
1664,2670;0,0529673
1665,2312;0,0524933
1666,1954;0,0520588
1667,1597;0,0514641
1668,1239;0,050569
1669,0881;0,0494012
1670,0524;0,0481942
1671,0166;0,0471997
1671,9808;0,0464549
1672,9451;0,0458007
1673,9093;0,0450617
1674,8735;0,0441928
1675,8378;0,0433196
1676,8020;0,0426328
1677,7662;0,0422216
1678,7305;0,0420217
1679,6947;0,0418807
1680,6589;0,0416142
1681,6232;0,0410165
1682,5874;0,0399143
1683,5516;0,0383856
1684,5159;0,0369015
1685,4801;0,0359043
1686,4443;0,035387
1687,4086;0,0350944
1688,3728;0,0348227
1689,3370;0,0344989
1690,3013;0,0341412
1691,2655;0,0337946
1692,2297;0,0334816
1693,1940;0,0331862
1694,1582;0,0328672
1695,1224;0,0324828
1696,0867;0,0320114
1697,0509;0,0314564
1698,0151;0,0308422
1698,9794;0,030225
1699,9436;0,0297035
1700,9078;0,0293773
1701,8721;0,0292742
1702,8363;0,0293331
1703,8005;0,0294531
1704,7648;0,0295522
1705,7290;0,0296048
1706,6932;0,0296495
1707,6575;0,029755
1708,6217;0,0299674
1709,5859;0,0302862
1710,5502;0,0306791
1711,5144;0,0311066
1712,4786;0,0315305
1713,4429;0,0319085
1714,4071;0,0321853
1715,3713;0,0323007
1716,3356;0,0322447
1717,2998;0,0321325
1718,2640;0,0321455
1719,2283;0,0323621
1720,1925;0,032725
1721,1567;0,0331363
1722,1210;0,0335243
1723,0852;0,0338582
1724,0494;0,0341418
1725,0137;0,0344016
1725,9779;0,0346709
1726,9421;0,0349719
1727,9064;0,0353036
1728,8706;0,0356374
1729,8348;0,0359161
1730,7991;0,036054
1731,7633;0,0359529
1732,7275;0,0355702
1733,6918;0,0350198
1734,6560;0,0345379
1735,6202;0,0342659
1736,5845;0,0341513
1737,5487;0,0340505
1738,5129;0,0338427
1739,4772;0,0334813
1740,4414;0,033002
1741,4056;0,0324912
1742,3699;0,0320204
1743,3341;0,0316013
1744,2983;0,0311987
1745,2626;0,0307666
1746,2268;0,0302611
1747,1910;0,0296318
1748,1553;0,028826
1749,1195;0,0278398
1750,0837;0,0267788
1751,0480;0,0258181
1752,0122;0,0250708
1752,9764;0,0245227
1753,9407;0,0240809
1754,9049;0,0236516
1755,8691;0,0231901
1756,8334;0,0227067
1757,7976;0,0222358
1758,7618;0,0217909
1759,7261;0,0213472
1760,6903;0,0208722
1761,6545;0,0203727
1762,6188;0,0199069
1763,5830;0,0195409
1764,5472;0,0192982
1765,5115;0,0191495
1766,4757;0,0190409
1767,4399;0,018922
1768,4042;0,0187583
1769,3684;0,0185269
1770,3326;0,0182138
1771,2969;0,0178289
1772,2611;0,0174318
1773,2253;0,0171187
1774,1896;0,0169551
1775,1538;0,0169313
1776,1180;0,0169835
1777,0823;0,0170394
1778,0465;0,017049
1779,0107;0,0169968
1779,9750;0,0169003
1780,9392;0,0167912
1781,9034;0,0166922
1782,8677;0,0166086
1783,8319;0,0165422
1784,7961;0,0165062
1785,7604;0,0165222
1786,7246;0,0166003
1787,6888;0,0167224
1788,6531;0,0168428
1789,6173;0,0169011
1790,5815;0,0168457
1791,5458;0,0166724
1792,5100;0,0164529
1793,4742;0,0162947
1794,4385;0,0162534
1795,4027;0,0163042
1796,3669;0,0163859
1797,3312;0,0164454
1798,2954;0,0164565
1799,2596;0,0164204
1800,2239;0,0163575
1801,1881;0,0162939
1802,1523;0,0162488
1803,1166;0,0162299
1804,0808;0,016237
1805,0450;0,0162663
1806,0093;0,0163101
1806,9735;0,016355
1807,9377;0,0163822
1808,9020;0,0163736
1809,8662;0,0163219
1810,8304;0,0162389
1811,7947;0,0161502
1812,7589;0,0160795
1813,7231;0,0160364
1814,6874;0,0160174
1815,6516;0,0160148
1816,6158;0,0160256
1817,5801;0,0160546
1818,5443;0,0161081
1819,5085;0,0161852
1820,4728;0,0162714
1821,4370;0,0163429
1822,4012;0,0163776
1823,3655;0,0163677
1824,3297;0,0163261
1825,2939;0,016277
1826,2582;0,0162351
1827,2224;0,0161912
1828,1866;0,0161205
1829,1509;0,01601
1830,1151;0,0158839
1831,0793;0,0157955
1832,0436;0,0157841
1833,0078;0,0158446
1833,9720;0,0159354
1834,9363;0,0160089
1835,9005;0,0160396
1836,8647;0,0160387
1837,8290;0,0160445
1838,7932;0,0160916
1839,7574;0,0161831
1840,7217;0,0162893
1841,6859;0,016364
1842,6501;0,0163686
1843,6144;0,0162965
1844,5786;0,0161854
1845,5428;0,0160908
1846,5071;0,0160381
1847,4713;0,0160108
1848,4355;0,015978
1849,3998;0,0159249
1850,3640;0,0158616
1851,3282;0,0158125
1852,2925;0,0157969
1853,2567;0,015816
1854,2209;0,0158554
1855,1852;0,0158982
1856,1494;0,0159368
1857,1136;0,0159736
1858,0779;0,016013
1859,0421;0,0160532
1860,0063;0,0160876
1860,9706;0,0161129
1861,9348;0,0161354
1862,8990;0,0161679
1863,8633;0,0162187
1864,8275;0,0162818
1865,7917;0,0163355
1866,7560;0,0163493
1867,7202;0,0163028
1868,6844;0,0162076
1869,6487;0,0161062
1870,6129;0,0160393
1871,5771;0,0160175
1872,5414;0,0160258
1873,5056;0,0160427
1874,4698;0,0160544
1875,4341;0,0160562
1876,3983;0,0160494
1877,3625;0,0160366
1878,3268;0,0160225
1879,2910;0,0160147
1880,2552;0,0160227
1881,2195;0,0160527
1882,1837;0,0161012
1883,1479;0,0161535
1884,1122;0,0161919
1885,0764;0,0162062
1886,0406;0,0162009
1887,0049;0,0161915
1887,9691;0,0161944
1888,9333;0,0162147
1889,8976;0,0162413
1890,8618;0,0162548
1891,8260;0,0162393
1892,7903;0,0161913
1893,7545;0,0161198
1894,7188;0,0160435
1895,6830;0,0159834
1896,6472;0,0159556
1897,6115;0,0159636
1898,5757;0,0159974
1899,5399;0,0160383
1900,5042;0,0160675
1901,4684;0,0160739
1902,4326;0,0160578
1903,3969;0,0160292
1904,3611;0,0160012
1905,3253;0,0159836
1906,2896;0,0159795
1907,2538;0,0159876
1908,2180;0,0160054
1909,1823;0,0160308
1910,1465;0,0160619
1911,1107;0,0160943
1912,0750;0,016121
1913,0392;0,0161352
1914,0034;0,016134
1914,9677;0,0161217
1915,9319;0,0161091
1916,8961;0,0161089
1917,8604;0,0161279
1918,8246;0,0161608
1919,7888;0,0161927
1920,7531;0,0162067
1921,7173;0,0161922
1922,6815;0,0161497
1923,6458;0,0160899
1924,6100;0,0160292
1925,5742;0,0159832
1926,5385;0,0159618
1927,5027;0,0159686
1928,4669;0,0159997
1929,4312;0,0160423
1930,3954;0,0160748
1931,3596;0,0160746
1932,3239;0,016031
1933,2881;0,0159566
1934,2523;0,0158851
1935,2166;0,0158546
1936,1808;0,0158847
1937,1450;0,0159627
1938,1093;0,0160486
1939,0735;0,0160968
1940,0377;0,0160778
1941,0020;0,0159929
1941,9662;0,0158741
1942,9304;0,0157683
1943,8947;0,0157135
1944,8589;0,0157223
1945,8231;0,0157835
1946,7874;0,0158736
1947,7516;0,0159665
1948,7158;0,0160392
1949,6801;0,0160767
1950,6443;0,0160744
1951,6085;0,0160398
1952,5728;0,0159874
1953,5370;0,0159308
1954,5012;0,0158764
1955,4655;0,0158213
1956,4297;0,0157582
1957,3939;0,0156815
1958,3582;0,0155926
1959,3224;0,0155018
1960,2866;0,0154258
1961,2509;0,0153825
1962,2151;0,015386
1963,1793;0,0154436
1964,1436;0,0155545
1965,1078;0,0157081
1966,0720;0,0158805
1967,0363;0,0160319
1968,0005;0,0161132
1968,9647;0,0160824
1969,9290;0,0159271
1970,8932;0,0156803
1971,8574;0,0154179
1972,8217;0,0152353
1973,7859;0,0152034
1974,7501;0,0153257
1975,7144;0,0155258
1976,6786;0,0156874
1977,6428;0,015727
1978,6071;0,0156449
1979,5713;0,0155109
1980,5355;0,0154035
1981,4998;0,0153597
1982,4640;0,0153702
1983,4282;0,0154113
1984,3925;0,0154787
1985,3567;0,0155959
1986,3209;0,0157895
1987,2852;0,0160521
1988,2494;0,0163279
1989,2136;0,016536
1990,1779;0,0166207
1991,1421;0,0165932
1992,1063;0,0165267
1993,0706;0,016502
1994,0348;0,0165459
1994,9990;0,0166153
1995,9633;0,0166382
1996,9275;0,0165748
1997,8917;0,0164526
1998,8560;0,0163508
1999,8202;0,0163417
2000,7844;0,0164316
2001,7487;0,0165484
2002,7129;0,0165889
2003,6771;0,0164901
2004,6414;0,0162768
2005,6056;0,0160522
2006,5698;0,0159348
2007,5341;0,0159863
2008,4983;0,0161811
2009,4625;0,0164367
2010,4268;0,0166706
2011,3910;0,0168361
2012,3552;0,0169205
2013,3195;0,0169244
2014,2837;0,0168483
2015,2479;0,0166997
2016,2122;0,0165089
2017,1764;0,0163356
2018,1406;0,0162535
2019,1049;0,0163206
2020,0691;0,0165546
2021,0333;0,0169274
2021,9976;0,0173746
2022,9618;0,0178126
2023,9260;0,0181578
2024,8903;0,0183422
2025,8545;0,0183244
2026,8187;0,0180954
2027,7830;0,0176819
2028,7472;0,0171513
2029,7114;0,0166108
2030,6757;0,01619
2031,6399;0,0160004
2032,6041;0,0160852
2033,5684;0,0163894
2034,5326;0,0167815
2035,4968;0,0171233
2036,4611;0,0173434
2037,4253;0,0174614
2038,3895;0,0175482
2039,3538;0,0176566
2040,3180;0,0177747
2041,2822;0,0178367
2042,2465;0,0177835
2043,2107;0,0176238
2044,1749;0,0174448
2045,1392;0,0173616
2046,1034;0,0174426
2047,0676;0,0176638
2048,0320;0,0179285
2048,9961;0,0181378
2049,9604;0,018254
2050,9246;0,018306
2051,8889;0,0183458
2052,8530;0,0183996
2053,8174;0,0184509
2054,7815;0,018459
2055,7458;0,0183972
2056,7100;0,0182796
2057,6743;0,0181563
2058,6384;0,0180821
2059,6028;0,0180842
2060,5669;0,0181506
2061,5313;0,0182448
2062,4954;0,018332
2063,4597;0,0183983
2064,4238;0,0184507
2065,3882;0,0185041
2066,3523;0,0185658
2067,3167;0,0186297
2068,2808;0,0186821
2069,2451;0,018711
2070,2092;0,0187112
2071,1736;0,0186837
2072,1377;0,0186313
2073,1021;0,0185568
2074,0662;0,0184659
2075,0305;0,0183725
2075,9946;0,0182991
2076,9590;0,01827
2077,9231;0,0182967
2078,8875;0,0183676
2079,8516;0,0184495
2080,8159;0,0185061
2081,7800;0,0185205
2082,7444;0,0185077
2083,7085;0,0185046
2084,6729;0,0185438
2085,6370;0,0186284
2086,6013;0,0187274
2087,5654;0,0187969
2088,5298;0,0188118
2089,4939;0,018784
2090,4583;0,0187541
2091,4224;0,0187614
2092,3867;0,0188186
2093,3508;0,0189073
2094,3152;0,0189989
2095,2793;0,0190799
2096,2437;0,0191609
2097,2078;0,0192593
2098,1721;0,0193735
2099,1362;0,0194721
2100,1006;0,0195092
2101,0647;0,0194529
2102,0291;0,0193084
2102,9932;0,0191152
2103,9575;0,0189284
2104,9216;0,0187942
2105,8860;0,0187373
2106,8501;0,0187596
2107,8145;0,0188459
2108,7786;0,018968
2109,7429;0,0190906
2110,7070;0,0191799
2111,6714;0,0192155
2112,6355;0,0191987
2113,5999;0,01915
2114,5640;0,0190954
2115,5283;0,0190518
2116,4924;0,0190217
2117,4568;0,0190003
2118,4209;0,0189865
2119,3853;0,0189877
2120,3494;0,0190115
2121,3137;0,0190533
2122,2778;0,0190918
2123,2422;0,0190987
2124,2063;0,0190585
2125,1707;0,0189821
2126,1348;0,0189039
2127,0991;0,0188619
2128,0632;0,0188748
2129,0276;0,0189306
2129,9917;0,0189938
2130,9561;0,0190283
2131,9202;0,0190202
2132,8845;0,0189897
2133,8486;0,0189837
2134,8130;0,0190522
2135,7771;0,019218
2136,7415;0,0194575
2137,7056;0,0197061
2138,6699;0,0198853
2139,6340;0,0199393
2140,5984;0,0198639
2141,5625;0,0197124
2142,5269;0,0195764
2143,4910;0,0195466
2144,4553;0,0196725
2145,4194;0,0199375
2146,3838;0,0202633
2147,3479;0,0205403
2148,3123;0,0206724
2149,2764;0,020616
2150,2407;0,0203969
2151,2048;0,0200993
2152,1692;0,0198304
2153,1333;0,0196762
2154,0977;0,0196686
2155,0618;0,0197773
2156,0261;0,0199295
2156,9902;0,0200486
2157,9546;0,0200954
2158,9187;0,0200866
2159,8831;0,020073
2160,8472;0,0200964
2161,8115;0,020164
2162,7756;0,0202548
2163,7400;0,0203382
2164,7041;0,0203871
2165,6685;0,0203819
2166,6326;0,0203137
2167,5969;0,0201885
2168,5610;0,020031
2169,5254;0,0198802
2170,4895;0,0197751
2171,4539;0,0197342
2172,4180;0,0197433
2173,3823;0,0197624
2174,3464;0,0197532
2175,3108;0,01971
2176,2749;0,019671
2177,2393;0,0196939
2178,2034;0,0198131
2179,1677;0,0200082
2180,1318;0,0202097
2181,0962;0,0203421
2182,0603;0,0203736
2183,0247;0,0203343
2183,9888;0,0202851
2184,9531;0,0202637
2185,9172;0,0202551
2186,8816;0,0202114
2187,8457;0,0201032
2188,8101;0,0199553
2189,7742;0,0198362
2190,7385;0,0198051
2191,7026;0,0198618
2192,6670;0,0199403
2193,6311;0,0199558
2194,5955;0,0198683
2195,5596;0,0197114
2196,5239;0,0195655
2197,4880;0,0194945
2198,4524;0,0195002
2199,4165;0,019528
2200,3809;0,0195176
2201,3450;0,019456
2202,3093;0,0193891
2203,2734;0,0193841
2204,2378;0,0194737
2205,2019;0,0196276
2206,1663;0,0197703
2207,1304;0,019829
2208,0947;0,0197767
2209,0588;0,019642
2210,0232;0,0194868
2210,9873;0,0193719
2211,9517;0,019333
2212,9158;0,0193746
2213,8801;0,019476
2214,8442;0,0196012
2215,8086;0,0197099
2216,7727;0,0197712
2217,7371;0,0197768
2218,7012;0,0197464
2219,6655;0,0197173
2220,6296;0,0197215
2221,5940;0,019765
2222,5581;0,0198242
2223,5225;0,0198618
2224,4866;0,0198522
2225,4509;0,0197965
2226,4150;0,0197185
2227,3794;0,0196462
2228,3435;0,0195956
2229,3079;0,0195644
2230,2720;0,0195398
2231,2363;0,0195114
2232,2004;0,019478
2233,1648;0,0194466
2234,1289;0,0194271
2235,0933;0,0194275
2236,0574;0,0194525
2237,0217;0,0195041
2237,9858;0,0195806
2238,9502;0,0196746
2239,9143;0,019771
2240,8787;0,0198491
2241,8428;0,0198877
2242,8071;0,019874
2243,7712;0,0198098
2244,7356;0,0197129
2245,6997;0,0196104
2246,6641;0,0195277
2247,6282;0,0194792
2248,5925;0,019465
2249,5566;0,0194764
2250,5210;0,0195036
2251,4851;0,0195414
2252,4495;0,0195878
2253,4136;0,0196381
2254,3779;0,0196826
2255,3420;0,0197095
2256,3064;0,0197132
2257,2705;0,0196989
2258,2349;0,0196807
2259,1990;0,0196723
2260,1633;0,0196792
2261,1274;0,0196969
2262,0918;0,0197161
2263,0559;0,0197305
2264,0203;0,0197406
2264,9844;0,0197515
2265,9487;0,0197676
2266,9128;0,0197895
2267,8772;0,0198139
2268,8413;0,0198361
2269,8057;0,0198525
2270,7698;0,0198601
2271,7341;0,0198562
2272,6982;0,019837
2273,6626;0,0197993
2274,6267;0,0197426
2275,5911;0,0196718
2276,5552;0,0195992
2277,5195;0,0195432
2278,4836;0,0195237
2279,4480;0,0195541
2280,4121;0,0196338
2281,3765;0,0197457
2282,3406;0,0198624
2283,3049;0,0199578
2284,2690;0,0200182
2285,2334;0,0200468
2286,1975;0,0200594
2287,1619;0,0200763
2288,1260;0,0201133
2289,0903;0,0201781
2290,0544;0,0202714
2291,0188;0,0203889
2291,9829;0,0205223
2292,9473;0,0206601
2293,9114;0,0207901
2294,8757;0,0209032
2295,8398;0,0209978
2296,8042;0,0210789
2297,7683;0,0211534
2298,7327;0,0212217
2299,6968;0,0212754
2300,6611;0,0213012
2301,6252;0,0212932
2302,5896;0,0212618
2303,5537;0,0212354
2304,5181;0,0212495
2305,4822;0,0213281
2306,4465;0,0214675
2307,4106;0,0216308
2308,3750;0,0217601
2309,3391;0,0218012
2310,3035;0,0217295
2311,2676;0,021564
2312,2319;0,0213588
2313,1960;0,0211762
2314,1604;0,0210574
2315,1245;0,0210069
2316,0889;0,0209983
2317,0530;0,0209949
2318,0173;0,0209724
2318,9814;0,0209343
2319,9458;0,020912
2320,9099;0,0209505
2321,8743;0,021082
2322,8384;0,0213021
2323,8027;0,0215626
2324,7668;0,0217871
2325,7312;0,0219014
2326,6953;0,0218642
2327,6597;0,0216868
2328,6238;0,0214339
2329,5881;0,0212018
2330,5522;0,0210789
2331,5166;0,0211036
2332,4807;0,0212461
2333,4451;0,021426
2334,4092;0,0215551
2335,3735;0,0215808
2336,3376;0,0215104
2337,3020;0,0214065
2338,2661;0,0213524
2339,2305;0,021399
2340,1946;0,0215188
2341,1589;0,0215994
2342,1230;0,0214995
2343,0874;0,0211778
2344,0515;0,0208134
2345,0159;0,0207213
2345,9800;0,0210705
2346,9443;0,0217385
2347,9084;0,0224372
2348,8728;0,0229077
2349,8369;0,0230302
2350,8013;0,0228449
2351,7654;0,0225113
2352,7297;0,0222247
2353,6938;0,0221175
2354,6582;0,0222106
2355,6223;0,0224429
2356,5867;0,0227217
2357,5508;0,0229488
2358,5151;0,0230405
2359,4792;0,0229607
2360,4436;0,0227364
2361,4077;0,02243
2362,3721;0,0220922
2363,3362;0,0217433
2364,3005;0,0213853
2365,2646;0,021018
2366,2290;0,020644
2367,1931;0,0202678
2368,1575;0,0199003
2369,1216;0,0195615
2370,0859;0,0192752
2371,0500;0,0190579
2372,0144;0,0189141
2372,9785;0,0188417
2373,9429;0,0188419
2374,9070;0,0189198
2375,8713;0,019077
2376,8354;0,019302
2377,7998;0,0195677
2378,7639;0,0198388
2379,7283;0,0200825
2380,6924;0,0202774
2381,6567;0,0204147
2382,6208;0,0204948
2383,5852;0,0205243
2384,5493;0,0205133
2385,5137;0,0204753
2386,4778;0,0204268
2387,4421;0,0203846
2388,4063;0,0203611
2389,3706;0,0203607
2390,3347;0,0203789
2391,2991;0,0204048
2392,2632;0,0204269
2393,2275;0,0204381
2394,1917;0,0204381
2395,1560;0,0204319
2396,1201;0,0204265
2397,0845;0,0204278
2398,0486;0,0204395
2399,0129;0,0204613
2399,9771;0,0204906
2400,9414;0,0205241
2401,9055;0,0205575
2402,8699;0,0205875
2403,8340;0,0206114
2404,7983;0,020628
2405,7625;0,0206377
2406,7268;0,0206426
2407,6909;0,0206461
2408,6553;0,0206526
2409,6194;0,0206652
2410,5837;0,0206853
2411,5479;0,0207111
2412,5122;0,0207385
2413,4763;0,0207632
2414,4407;0,0207831
2415,4048;0,0207996
2416,3691;0,0208175
2417,3333;0,0208418
2418,2976;0,0208754
2419,2617;0,0209179
2420,2261;0,0209658
2421,1902;0,0210135
2422,1545;0,0210558
2423,1187;0,0210874
2424,0830;0,0211037
2425,0471;0,0211018
2426,0115;0,0210837
2426,9756;0,0210583
2427,9399;0,0210413
2428,9041;0,0210491
2429,8684;0,0210908
2430,8325;0,0211613
2431,7969;0,0212414
2432,7610;0,0213061
2433,7253;0,0213366
2434,6895;0,0213305
2435,6538;0,0213021
2436,6179;0,0212738
2437,5823;0,0212644
2438,5464;0,0212797
2439,5107;0,0213127
2440,4749;0,0213505
2441,4392;0,0213837
2442,4033;0,021411
2443,3677;0,0214378
2444,3318;0,0214705
2445,2961;0,0215118
2446,2603;0,0215588
2447,2246;0,0216062
2448,1887;0,0216488
2449,1531;0,0216837
2450,1172;0,0217095
2451,0815;0,0217256
2452,0457;0,0217323
2453,0100;0,0217321
2453,9741;0,021731
2454,9385;0,0217366
2455,9026;0,0217545
2456,8669;0,0217843
2457,8311;0,021819
2458,7954;0,0218485
2459,7595;0,021866
2460,7239;0,0218728
2461,6880;0,0218774
2462,6523;0,0218912
2463,6165;0,0219208
2464,5808;0,021964
2465,5449;0,0220113
2466,5093;0,0220514
2467,4734;0,0220769
2468,4377;0,022087
2469,4019;0,0220858
2470,3662;0,0220792
2471,3303;0,0220712
2472,2947;0,0220645
2473,2588;0,0220613
2474,2231;0,0220647
2475,1873;0,0220783
2476,1516;0,0221043
2477,1157;0,0221424
2478,0801;0,0221891
2479,0442;0,0222386
2480,0085;0,0222838
2480,9727;0,0223177
2481,9370;0,0223352
2482,9011;0,0223359
2483,8655;0,0223251
2484,8296;0,0223132
2485,7939;0,0223115
2486,7581;0,0223265
2487,7224;0,0223576
2488,6865;0,0223977
2489,6509;0,0224382
2490,6150;0,0224737
2491,5793;0,0225034
2492,5435;0,022529
2493,5078;0,0225517
2494,4719;0,0225714
2495,4363;0,0225881
2496,4004;0,0226046
2497,3647;0,0226247
2498,3289;0,0226504
2499,2932;0,0226783
2500,2573;0,0227003
2501,2217;0,0227082
2502,1858;0,0227008
2503,1501;0,0226854
2504,1143;0,0226749
2505,0786;0,0226804
2506,0427;0,0227054
2507,0071;0,0227452
2507,9712;0,0227912
2508,9355;0,0228352
2509,8997;0,0228724
2510,8640;0,0229003
2511,8281;0,0229176
2512,7925;0,022924
2513,7566;0,0229221
2514,7209;0,0229168
2515,6851;0,0229137
2516,6494;0,0229151
2517,6135;0,022918
2518,5779;0,022917
2519,5420;0,0229089
2520,5063;0,0228963
2521,4705;0,0228868
2522,4348;0,022887
2523,3989;0,0228978
2524,3633;0,0229138
2525,3274;0,022928
2526,2917;0,0229378
2527,2559;0,0229475
2528,2202;0,0229639
2529,1843;0,0229895
2530,1487;0,0230185
2531,1128;0,0230397
2532,0771;0,0230437
2533,0413;0,023031
2534,0056;0,0230133
2534,9697;0,0230078
2535,9341;0,0230279
2536,8982;0,0230762
2537,8625;0,0231427
2538,8267;0,0232103
2539,7910;0,0232619
2540,7551;0,0232885
2541,7195;0,0232912
2542,6836;0,0232798
2543,6479;0,023267
2544,6121;0,0232615
2545,5764;0,0232645
2546,5405;0,0232697
2547,5049;0,0232681
2548,4690;0,0232547
2549,4333;0,023232
2550,3975;0,0232097
2551,3618;0,023199
2552,3259;0,0232067
2553,2903;0,023232
2554,2544;0,0232679
2555,2188;0,0233055
2556,1829;0,023339
2557,1472;0,0233674
2558,1113;0,023393
2559,0757;0,023419
2560,0398;0,0234463
2561,0042;0,0234734
2561,9683;0,0234968
2562,9326;0,0235135
2563,8967;0,0235225
2564,8611;0,0235255
2565,8252;0,0235263
2566,7896;0,0235287
2567,7537;0,0235344
2568,7180;0,0235417
2569,6821;0,0235465
2570,6465;0,0235443
2571,6106;0,0235329
2572,5750;0,0235137
2573,5391;0,0234914
2574,5034;0,0234726
2575,4675;0,0234634
2576,4319;0,0234674
2577,3960;0,0234851
2578,3604;0,0235137
2579,3245;0,0235477
2580,2888;0,0235809
2581,2529;0,0236084
2582,2173;0,0236287
2583,1814;0,0236449
2584,1458;0,0236626
2585,1099;0,023688
2586,0742;0,0237238
2587,0383;0,0237674
2588,0027;0,0238118
2588,9668;0,0238478
2589,9312;0,0238684
2590,8953;0,0238717
2591,8596;0,0238629
2592,8237;0,0238522
2593,7881;0,0238509
2594,7522;0,0238669
2595,7166;0,023901
2596,6807;0,0239468
2597,6450;0,0239941
2598,6091;0,0240335
2599,5735;0,024061
2600,5376;0,0240789
2601,5020;0,024094
2602,4661;0,0241139
2603,4304;0,0241437
2604,3945;0,0241837
2605,3589;0,0242296
2606,3230;0,024274
2607,2874;0,0243085
2608,2515;0,0243275
2609,2158;0,0243306
2610,1799;0,0243236
2611,1443;0,0243162
2612,1084;0,0243179
2613,0728;0,0243342
2614,0369;0,0243652
2615,0012;0,0244075
2615,9653;0,0244566
2616,9297;0,0245092
2617,8938;0,0245614
2618,8582;0,0246077
2619,8223;0,0246405
2620,7866;0,0246538
2621,7507;0,0246468
2622,7151;0,0246262
2623,6792;0,0246043
2624,6436;0,0245939
2625,6077;0,0246032
2626,5720;0,0246337
2627,5361;0,0246816
2628,5005;0,0247406
2629,4646;0,0248034
2630,4290;0,0248627
2631,3931;0,0249114
2632,3574;0,0249444
2633,3215;0,0249613
2634,2859;0,0249674
2635,2500;0,0249725
2636,2144;0,0249861
2637,1785;0,0250134
2638,1428;0,0250529
2639,1069;0,0250975
2640,0713;0,0251381
2641,0354;0,0251685
2641,9998;0,0251874
2642,9639;0,0251984
2643,9282;0,0252082
2644,8923;0,0252232
2645,8567;0,0252472
2646,8208;0,0252796
2647,7852;0,0253164
2648,7493;0,0253524
2649,7136;0,0253839
2650,6777;0,0254105
2651,6421;0,0254346
2652,6062;0,0254598
2653,5706;0,0254883
2654,5347;0,0255195
2655,4990;0,0255514
2656,4631;0,0255819
2657,4275;0,0256108
2658,3916;0,0256396
2659,3560;0,0256704
2660,3201;0,0257038
2661,2844;0,0257384
2662,2485;0,0257717
2663,2129;0,0258016
2664,1770;0,0258282
2665,1414;0,0258531
2666,1055;0,0258784
2667,0698;0,0259047
2668,0339;0,0259302
2668,9983;0,0259524
2669,9624;0,0259699
2670,9268;0,0259843
2671,8909;0,0259995
2672,8552;0,0260202
2673,8193;0,0260487
2674,7837;0,0260838
2675,7478;0,0261209
2676,7122;0,0261556
2677,6763;0,0261856
2678,6406;0,026213
2679,6047;0,0262427
2680,5691;0,0262793
2681,5332;0,0263239
2682,4976;0,0263727
2683,4617;0,0264188
2684,4260;0,0264564
2685,3901;0,0264838
2686,3545;0,0265053
2687,3186;0,0265278
2688,2830;0,0265572
2689,2471;0,0265946
2690,2114;0,0266365
2691,1755;0,0266776
2692,1399;0,0267146
2693,1040;0,0267483
2694,0684;0,0267821
2695,0325;0,0268186
2695,9968;0,0268577
2696,9609;0,0268963
2697,9253;0,026931
2698,8894;0,0269606
2699,8538;0,0269871
2700,8179;0,0270147
2701,7822;0,0270476
2702,7463;0,0270882
2703,7107;0,0271356
2704,6748;0,0271865
2705,6392;0,027236
2706,6033;0,0272792
2707,5676;0,0273131
2708,5317;0,0273384
2709,4961;0,0273596
2710,4602;0,0273832
2711,4246;0,0274147
2712,3887;0,0274561
2713,3530;0,0275049
2714,3171;0,027556
2715,2815;0,0276047
2716,2456;0,0276487
2717,2100;0,027688
2718,1741;0,0277237
2719,1384;0,0277558
2720,1025;0,0277832
2721,0669;0,0278045
2722,0310;0,0278206
2722,9954;0,0278352
2723,9595;0,0278538
2724,9238;0,0278819
2725,8879;0,0279217
2726,8523;0,0279718
2727,8164;0,0280273
2728,7808;0,0280823
2729,7449;0,0281318
2730,7092;0,0281737
2731,6733;0,0282081
2732,6377;0,0282367
2733,6018;0,0282612
2734,5662;0,0282827
2735,5303;0,0283018
2736,4946;0,0283195
2737,4587;0,0283381
2738,4231;0,0283603
2739,3872;0,0283886
2740,3516;0,0284236
2741,3157;0,0284633
2742,2800;0,0285034
2743,2441;0,0285387
2744,2085;0,0285653
2745,1726;0,0285814
2746,1370;0,0285885
2747,1011;0,0285913
2748,0654;0,0285961
2749,0295;0,0286095
2749,9939;0,0286364
2750,9580;0,0286782
2751,9224;0,0287323
2752,8865;0,0287927
2753,8508;0,0288526
2754,8149;0,0289064
2755,7793;0,0289514
2756,7434;0,028988
2757,7078;0,029019
2758,6719;0,029048
2759,6362;0,0290781
2760,6003;0,0291113
2761,5647;0,029148
2762,5288;0,0291879
2763,4932;0,02923
2764,4573;0,0292738
2765,4216;0,0293194
2766,3857;0,0293671
2767,3501;0,0294171
2768,3142;0,029469
2769,2786;0,0295216
2770,2427;0,0295743
2771,2070;0,0296265
2772,1711;0,0296781
2773,1355;0,0297288
2774,0996;0,029778
2775,0640;0,0298253
2776,0281;0,0298713
2776,9924;0,0299179
2777,9565;0,0299674
2778,9209;0,0300214
2779,8850;0,03008
2780,8494;0,030143
2781,8135;0,0302103
2782,7778;0,0302823
2783,7419;0,0303582
2784,7063;0,0304349
2785,6704;0,030507
2786,6348;0,0305692
2787,5989;0,03062
2788,5632;0,0306647
2789,5273;0,0307135
2790,4917;0,0307766
2791,4558;0,0308592
2792,4202;0,0309586
2793,3843;0,0310659
2794,3486;0,0311715
2795,3127;0,0312694
2796,2771;0,0313593
2797,2412;0,031445
2798,2056;0,0315312
2799,1697;0,0316197
2800,1340;0,0317097
2801,0981;0,0317997
2802,0625;0,0318899
2803,0266;0,0319837
2803,9910;0,0320858
2804,9551;0,0321987
2805,9194;0,03232
2806,8835;0,0324425
2807,8479;0,032558
2808,8120;0,0326627
2809,7764;0,0327599
2810,7405;0,0328587
2811,7048;0,0329695
2812,6689;0,0330983
2813,6333;0,0332439
2814,5974;0,0333995
2815,5618;0,0335567
2816,5259;0,0337095
2817,4902;0,033857
2818,4543;0,0340025
2819,4187;0,0341511
2820,3828;0,0343071
2821,3472;0,0344718
2822,3113;0,0346433
2823,2756;0,0348188
2824,2397;0,0349965
2825,2041;0,0351775
2826,1682;0,0353665
2827,1326;0,0355691
2828,0967;0,0357892
2829,0610;0,0360279
2830,0251;0,0362834
2830,9895;0,036553
2831,9536;0,0368344
2832,9180;0,0371263
2833,8821;0,0374274
2834,8464;0,037738
2835,8105;0,0380618
2836,7749;0,038409
2837,7390;0,0387952
2838,7034;0,0392384
2839,6675;0,0397536
2840,6318;0,0403496
2841,5959;0,0410302
2842,5603;0,0417972
2843,5244;0,0426498
2844,4888;0,0435769
2845,4529;0,0445455
2846,4172;0,0454937
2847,3813;0,046335
2848,3457;0,0469795
2849,3098;0,0473613
2850,2742;0,0474613
2851,2383;0,0473126
2852,2026;0,0469861
2853,1667;0,0465658
2854,1311;0,046124
2855,0952;0,0457089
2856,0596;0,0453448
2857,0237;0,0450398
2857,9880;0,044796
2858,9521;0,0446147
2859,9165;0,0444971
2860,8806;0,0444418
2861,8450;0,0444434
2862,8091;0,0444933
2863,7734;0,0445815
2864,7375;0,0446991
2865,7019;0,0448385
2866,6660;0,0449924
2867,6304;0,0451524
2868,5945;0,0453084
2869,5588;0,0454509
2870,5229;0,0455738
2871,4873;0,045676
2872,4514;0,0457615
2873,4158;0,0458369
2874,3799;0,0459086
2875,3442;0,0459809
2876,3083;0,046056
2877,2727;0,0461348
2878,2368;0,0462186
2879,2012;0,0463092
2880,1653;0,0464096
2881,1296;0,0465222
2882,0938;0,0466488
2883,0581;0,0467884
2884,0222;0,046938
2884,9866;0,0470928
2885,9507;0,0472487
2886,9150;0,0474046
2887,8792;0,0475624
2888,8435;0,0477247
2889,8076;0,0478925
2890,7720;0,0480628
2891,7361;0,0482301
2892,7004;0,04839
2893,6646;0,0485426
2894,6289;0,0486933
2895,5930;0,0488494
2896,5574;0,0490158
2897,5215;0,0491919
2898,4858;0,0493719
2899,4500;0,0495486
2900,4143;0,0497178
2901,3784;0,0498802
2902,3428;0,0500412
2903,3069;0,0502086
2904,2712;0,0503905
2905,2354;0,0505951
2906,1997;0,0508335
2907,1638;0,0511213
2908,1282;0,0514797
2909,0923;0,0519308
2910,0566;0,0524888
2911,0208;0,0531494
2911,9851;0,0538825
2912,9492;0,0546317
2913,9136;0,0553246
2914,8777;0,0558886
2915,8420;0,0562678
2916,8062;0,0564343
2917,7705;0,0563903
2918,7346;0,0561618
2919,6990;0,0557878
2920,6631;0,0553095
2921,6274;0,0547631
2922,5916;0,0541764
2923,5559;0,0535696
2924,5200;0,0529571
2925,4844;0,0523508
2926,4485;0,0517612
2927,4128;0,0511976
2928,3770;0,0506666
2929,3413;0,0501695
2930,3054;0,0497025
2931,2698;0,0492575
2932,2339;0,0488251
2933,1982;0,0483987
2934,1624;0,0479754
2935,1267;0,0475571
2936,0908;0,0471482
2937,0552;0,0467537
2938,0193;0,0463773
2938,9836;0,0460204
2939,9478;0,0456812
2940,9121;0,0453559
2941,8762;0,0450391
2942,8406;0,0447261
2943,8047;0,0444148
2944,7690;0,0441076
2945,7332;0,0438109
2946,6975;0,0435332
2947,6616;0,0432818
2948,6260;0,0430603
2949,5901;0,0428666
2950,5544;0,0426946
2951,5186;0,0425356
2952,4829;0,0423815
2953,4470;0,0422257
2954,4114;0,0420639
2955,3755;0,0418929
2956,3398;0,0417101
2957,3040;0,0415133
2958,2683;0,0413014
2959,2324;0,0410753
2960,1968;0,0408392
2961,1609;0,0405991
2962,1252;0,0403607
2963,0894;0,040128
2964,0537;0,0399011
2965,0178;0,0396778
2965,9822;0,0394558
2966,9463;0,0392334
2967,9106;0,0390109
2968,8748;0,0387882
2969,8391;0,0385641
2970,8032;0,0383367
2971,7676;0,0381059
2972,7317;0,0378756
2973,6960;0,0376536
2974,6602;0,0374489
2975,6245;0,0372663
2976,5886;0,0371038
2977,5530;0,0369537
2978,5171;0,0368074
2979,4814;0,0366598
2980,4456;0,0365123
2981,4099;0,0363707
2982,3740;0,0362421
2983,3384;0,0361308
2984,3025;0,0360378
2985,2668;0,0359611
2986,2310;0,0358975
2987,1953;0,0358427
2988,1594;0,0357928
2989,1238;0,0357451
2990,0879;0,035699
2991,0522;0,0356564
2992,0164;0,0356206
2992,9807;0,0355942
2993,9448;0,0355774
2994,9092;0,0355685
2995,8733;0,0355661
2996,8376;0,0355709
2997,8018;0,035585
2998,7661;0,0356099
2999,7302;0,0356441
3000,6946;0,0356835
3001,6587;0,0357237
3002,6230;0,035763
3003,5872;0,0358039
3004,5515;0,0358502
3005,5156;0,0359041
3006,4800;0,0359634
3007,4441;0,0360229
3008,4084;0,0360771
3009,3726;0,0361241
3010,3369;0,0361662
3011,3010;0,036209
3012,2654;0,0362576
3013,2295;0,036315
3014,1938;0,0363808
3015,1580;0,0364533
3016,1223;0,0365309
3017,0864;0,0366135
3018,0508;0,0367024
3019,0149;0,0367991
3019,9792;0,0369043
3020,9434;0,037017
3021,9077;0,0371347
3022,8718;0,0372538
3023,8362;0,0373714
3024,8003;0,0374851
3025,7646;0,0375941
3026,7288;0,0376986
3027,6931;0,0377996
3028,6572;0,0378984
3029,6216;0,0379957
3030,5857;0,0380917
3031,5500;0,038186
3032,5142;0,0382789
3033,4785;0,0383731
3034,4426;0,0384738
3035,4070;0,0385868
3036,3711;0,0387149
3037,3354;0,0388541
3038,2996;0,0389943
3039,2639;0,0391237
3040,2280;0,0392356
3041,1924;0,0393342
3042,1565;0,0394331
3043,1208;0,0395487
3044,0850;0,0396903
3045,0493;0,0398547
3046,0134;0,0400279
3046,9778;0,0401937
3047,9419;0,0403421
3048,9063;0,0404741
3049,8704;0,0405986
3050,8347;0,0407255
3051,7988;0,04086
3052,7632;0,0410015
3053,7273;0,0411466
3054,6917;0,041293
3055,6558;0,0414408
3056,6201;0,0415915
3057,5842;0,0417447
3058,5486;0,0418979
3059,5127;0,0420476
3060,4771;0,0421915
3061,4412;0,0423291
3062,4055;0,0424604
3063,3696;0,0425843
3064,3340;0,0426989
3065,2981;0,0428033
3066,2625;0,0429005
3067,2266;0,0429976
3068,1909;0,0431033
3069,1550;0,0432243
3070,1194;0,0433628
3071,0835;0,0435163
3072,0479;0,0436789
3073,0120;0,0438432
3073,9763;0,044001
3074,9404;0,0441446
3075,9048;0,0442685
3076,8689;0,0443729
3077,8333;0,0444646
3078,7974;0,0445553
3079,7617;0,044657
3080,7258;0,0447762
3081,6902;0,0449107
3082,6543;0,0450521
3083,6187;0,0451909
3084,5828;0,0453214
3085,5471;0,0454445
3086,5112;0,0455659
3087,4756;0,0456924
3088,4397;0,0458285
3089,4041;0,045974
3090,3682;0,0461251
3091,3325;0,0462768
3092,2966;0,0464257
3093,2610;0,0465715
3094,2251;0,0467162
3095,1895;0,0468608
3096,1536;0,0470031
3097,1179;0,0471367
3098,0820;0,0472552
3099,0464;0,0473575
3100,0105;0,0474511
3100,9749;0,0475507
3101,9390;0,0476718
3102,9033;0,0478219
3103,8674;0,0479968
3104,8318;0,0481832
3105,7959;0,0483656
3106,7603;0,048534
3107,7244;0,0486876
3108,6887;0,0488322
3109,6528;0,0489757
3110,6172;0,0491231
3111,5813;0,0492748
3112,5457;0,0494286
3113,5098;0,0495829
3114,4741;0,0497382
3115,4382;0,049896
3116,4026;0,0500567
3117,3667;0,0502172
3118,3311;0,0503725
3119,2952;0,0505187
3120,2595;0,0506569
3121,2236;0,0507942
3122,1880;0,0509414
3123,1521;0,0511074
3124,1165;0,0512948
3125,0806;0,0514983
3126,0449;0,0517076
3127,0090;0,0519123
3127,9734;0,0521054
3128,9375;0,0522855
3129,9019;0,0524544
3130,8660;0,052616
3131,8303;0,0527743
3132,7944;0,0529334
3133,7588;0,053097
3134,7229;0,0532674
3135,6873;0,0534453
3136,6514;0,0536293
3137,6157;0,0538174
3138,5798;0,0540079
3139,5442;0,0542003
3140,5083;0,0543944
3141,4727;0,0545904
3142,4368;0,0547886
3143,4011;0,0549902
3144,3652;0,055197
3145,3296;0,0554105
3146,2937;0,0556295
3147,2581;0,0558487
3148,2222;0,0560601
3149,1865;0,056257
3150,1506;0,0564373
3151,1150;0,0566046
3152,0791;0,0567667
3153,0435;0,0569313
3154,0076;0,0571038
3154,9719;0,0572869
3155,9360;0,057482
3156,9004;0,0576904
3157,8645;0,0579123
3158,8289;0,0581456
3159,7930;0,0583846
3160,7573;0,0586217
3161,7214;0,05885
3162,6858;0,0590662
3163,6499;0,0592705
3164,6143;0,0594663
3165,5784;0,0596574
3166,5427;0,0598472
3167,5068;0,0600383
3168,4712;0,0602327
3169,4353;0,0603992
3170,3997;0,0606057
3171,3638;0,0608195
3172,3281;0,061039
3173,2922;0,0612611
3174,2566;0,0614814
3175,2207;0,0616964
3176,1851;0,0619044
3177,1492;0,062107
3178,1135;0,0623079
3179,0776;0,0625106
3180,0420;0,0627153
3181,0061;0,062918
3181,9705;0,0631128
3182,9346;0,0632968
3183,8989;0,0634733
3184,8630;0,0636515
3185,8274;0,0638425
3186,7915;0,0640523
3187,7559;0,0642789
3188,7200;0,064513
3189,6843;0,0647435
3190,6484;0,0649629
3191,6128;0,0651693
3192,5769;0,0653651
3193,5413;0,0655541
3194,5054;0,0657392
3195,4697;0,0659225
3196,4338;0,0661046
3197,3982;0,0662854
3198,3623;0,0664637
3199,3267;0,0666374
3200,2908;0,0668062
3201,2551;0,0669736
3202,2192;0,0671468
3203,1836;0,0673328
3204,1477;0,0675333
3205,1121;0,0677419
3206,0762;0,0679467
3207,0405;0,0681369
3208,0046;0,0683102
3208,9690;0,0684734
3209,9331;0,0686384
3210,8975;0,0688142
3211,8616;0,0690021
3212,8259;0,069196
3213,7900;0,0693879
3214,7544;0,069572
3215,7185;0,0697469
3216,6829;0,0699141
3217,6470;0,0700756
3218,6113;0,0702335
3219,5754;0,0703909
3220,5398;0,0705523
3221,5039;0,0707219
3222,4683;0,070902
3223,4324;0,0710921
3224,3967;0,0712903
3225,3608;0,0714946
3226,3252;0,0717041
3227,2893;0,071916
3228,2537;0,0721239
3229,2178;0,0723184
3230,1821;0,0724909
3231,1462;0,0726399
3232,1106;0,0727738
3233,0747;0,0729079
3234,0391;0,0730576
3235,0032;0,073231
3235,9675;0,073426
3236,9316;0,073633
3237,8960;0,0738412
3238,8601;0,074043
3239,8245;0,0742359
3240,7886;0,0744202
3241,7529;0,074597
3242,7170;0,0747672
3243,6814;0,0749326
3244,6455;0,0750975
3245,6099;0,0752688
3246,5740;0,0754545
3247,5383;0,0756608
3248,5024;0,0758893
3249,4668;0,0761357
3250,4309;0,0763903
3251,3953;0,0766403
3252,3594;0,0768743
3253,3237;0,0770863
3254,2878;0,0772787
3255,2522;0,077462
3256,2163;0,07765
3257,1807;0,0778534
3258,1448;0,0780746
3259,1091;0,078307
3260,0732;0,0785393
3261,0376;0,0787616
3262,0017;0,0789703
3262,9661;0,0791687
3263,9302;0,0793633
3264,8945;0,079559
3265,8586;0,0797549
3266,8230;0,0799449
3267,7871;0,0801207
3268,7515;0,0802754
3269,7156;0,0804064
3270,6799;0,0805148
3271,6440;0,0806045
3272,6084;0,0806811
3273,5725;0,0807509
3274,5369;0,0808204
3275,5010;0,0808948
3276,4653;0,0809766
3277,4294;0,081064
3278,3938;0,0811513
3279,3579;0,0812311
3280,3223;0,0812969
3281,2864;0,0813456
3282,2507;0,0813788
3283,2148;0,0814018
3284,1792;0,0814222
3285,1433;0,0814458
3286,1077;0,0814747
3287,0718;0,0815055
3288,0361;0,0815314
3289,0002;0,081545
3289,9646;0,0815429
3290,9287;0,0815276
3291,8931;0,0815061
3292,8572;0,0814859
3293,8215;0,0814706
3294,7856;0,0814582
3295,7500;0,0814438
3296,7141;0,0814236
3297,6785;0,0813972
3298,6426;0,0813674
3299,6069;0,0813368
3300,5710;0,0813049
3301,5354;0,0812676
3302,4995;0,0812193
3303,4639;0,0811573
3304,4280;0,0810838
3305,3923;0,0810062
3306,3564;0,0809342
3307,3208;0,0808768
3308,2849;0,0808391
3309,2493;0,0808202
3310,2134;0,0808142
3311,1777;0,0808123
3312,1418;0,0808072
3313,1062;0,080797
3314,0703;0,0807868
3315,0347;0,0807858
3315,9988;0,0808022
3316,9631;0,080838
3317,9272;0,0808875
3318,8916;0,0809409
3319,8557;0,0809897
3320,8201;0,0810318
3321,7842;0,0810717
3322,7485;0,0811167
3323,7126;0,0811718
3324,6770;0,0812366
3325,6411;0,0813062
3326,6055;0,0813743
3327,5696;0,0814367
3328,5339;0,0814922
3329,4980;0,081541
3330,4624;0,0815822
3331,4265;0,0816121
3332,3909;0,0816244
3333,3550;0,081612
3334,3193;0,0815701
3335,2834;0,0814989
3336,2478;0,0814045
3337,2119;0,0812972
3338,1763;0,0811868
3339,1404;0,0810786
3340,1047;0,080972
3341,0688;0,0808613
3342,0332;0,0807404
3342,9973;0,0806054
3343,9617;0,080456
3344,9258;0,0802943
3345,8901;0,080122
3346,8542;0,07994
3347,8186;0,0797486
3348,7827;0,0795495
3349,7471;0,0793456
3350,7112;0,0791395
3351,6755;0,0789322
3352,6396;0,0787229
3353,6040;0,0785107
3354,5681;0,0782973
3355,5325;0,0780881
3356,4966;0,0778895
3357,4609;0,0777059
3358,4250;0,077537
3359,3894;0,0773779
3360,3535;0,0772216
3361,3179;0,0770619
3362,2820;0,0768954
3363,2463;0,0767213
3364,2104;0,0765407
3365,1748;0,0763561
3366,1389;0,0761704
3367,1033;0,0759865
3368,0674;0,0758056
3369,0317;0,0756264
3369,9958;0,0754451
3370,9602;0,0752584
3371,9243;0,0750654
3372,8887;0,07487
3373,8528;0,0746787
3374,8171;0,0744978
3375,7813;0,0743299
3376,7456;0,0741729
3377,7097;0,0740212
3378,6741;0,0738676
3379,6382;0,0737054
3380,6025;0,0735293
3381,5667;0,0733366
3382,5310;0,0731295
3383,4951;0,0729174
3384,4595;0,0727165
3385,4236;0,072544
3386,3879;0,0724103
3387,3521;0,0723109
3388,3164;0,0722269
3389,2805;0,0721316
3390,2449;0,072003
3391,2090;0,0718338
3392,1733;0,0716339
3393,1375;0,0714245
3394,1018;0,0712261
3395,0659;0,0710489
3396,0303;0,0708913
3396,9944;0,0707437
3397,9587;0,0705952
3398,9229;0,0704384
3399,8872;0,0702697
3400,8513;0,0700879
3401,8157;0,0698933
3402,7798;0,0696867
3403,7441;0,069471
3404,7083;0,0692507
3405,6726;0,0690318
3406,6367;0,0688195
3407,6011;0,0686169
3408,5652;0,0684226
3409,5295;0,0682312
3410,4937;0,0680349
3411,4580;0,0678276
3412,4221;0,067609
3413,3865;0,0673852
3414,3506;0,0671655
3415,3149;0,0669555
3416,2791;0,0667522
3417,2434;0,0665441
3418,2075;0,0663166
3419,1719;0,0660611
3420,1360;0,0657811
3421,1003;0,065492
3422,0645;0,0652131
3423,0288;0,0649576
3423,9929;0,064727
3424,9573;0,0645123
3425,9214;0,0643006
3426,8857;0,0640814
3427,8499;0,0638506
3428,8142;0,0636101
3429,7783;0,0633637
3430,7427;0,0631138
3431,7068;0,0628601
3432,6711;0,0626022
3433,6353;0,0623426
3434,5996;0,0620875
3435,5637;0,0618433
3436,5281;0,0616122
3437,4922;0,0613907
3438,4565;0,0611725
3439,4207;0,0609546
3440,3850;0,0607384
3441,3491;0,0605263
3442,3135;0,0603138
3443,2776;0,0600855
3444,2419;0,0598215
3445,2061;0,0595106
3446,1704;0,059163
3447,1345;0,0588102
3448,0989;0,0584889
3449,0630;0,05822
3450,0273;0,0579978
3450,9915;0,0577973
3451,9558;0,0575909
3452,9199;0,0573628
3453,8843;0,0571128
3454,8484;0,0568517
3455,8127;0,0565905
3456,7769;0,0563334
3457,7412;0,0560774
3458,7053;0,0558167
3459,6697;0,0555488
3460,6338;0,0552762
3461,5981;0,0550049
3462,5623;0,0547403
3463,5266;0,0544828
3464,4907;0,0542278
3465,4551;0,0539689
3466,4192;0,0537028
3467,3835;0,0534327
3468,3477;0,0531658
3469,3120;0,052907
3470,2761;0,052653
3471,2405;0,0523925
3472,2046;0,0521155
3473,1689;0,051824
3474,1331;0,0515363
3475,0974;0,0512785
3476,0615;0,0510666
3477,0259;0,0508934
3477,9900;0,050729
3478,9543;0,0505367
3479,9185;0,0502947
3480,8828;0,0500086
3481,8469;0,0497072
3482,8113;0,0494217
3483,7754;0,0491646
3484,7397;0,048925
3485,7039;0,0486808
3486,6682;0,0484177
3487,6323;0,0481407
3488,5967;0,0478715
3489,5608;0,0476327
3490,5251;0,0474304
3491,4893;0,0472484
3492,4536;0,0470566
3493,4177;0,0468295
3494,3821;0,0465632
3495,3462;0,0462816
3496,3105;0,0460235
3497,2747;0,0458174
3498,2390;0,04566
3499,2031;0,045515
3500,1675;0,0453326
3501,1316;0,0450789
3502,0959;0,0447611
3503,0601;0,0444269
3504,0244;0,0441335
3504,9885;0,043907
3505,9529;0,0437277
3506,9170;0,0435481
3507,8813;0,0433252
3508,8455;0,0430464
3509,8098;0,0427349
3510,7739;0,0424303
3511,7383;0,0421615
3512,7024;0,0419312
3513,6667;0,0417243
3514,6309;0,0415266
3515,5952;0,041337
3516,5593;0,0411658
3517,5237;0,0410211
3518,4878;0,0408969
3519,4521;0,0407726
3520,4163;0,0406231
3521,3806;0,0404325
3522,3447;0,0402013
3523,3091;0,0399409
3524,2732;0,0396614
3525,2375;0,0393629
3526,2017;0,0390409
3527,1660;0,0387003
3528,1301;0,0383654
3529,0945;0,0380732
3530,0586;0,0378515
3531,0229;0,0376996
3531,9871;0,037586
3532,9514;0,0374642
3533,9155;0,0372947
3534,8799;0,0370631
3535,8440;0,0367881
3536,8083;0,0365135
3537,7725;0,0362867
3538,7368;0,0361362
3539,7009;0,0360592
3540,6653;0,0360225
3541,6294;0,0359718
3542,5938;0,0358464
3543,5579;0,0356029
3544,5222;0,0352433
3545,4863;0,0348278
3546,4507;0,0344453
3547,4148;0,0341574
3548,3792;0,0339638
3549,3433;0,033813
3550,3076;0,0336398
3551,2717;0,0334045
3552,2361;0,033116
3553,2002;0,0328245
3554,1646;0,0325854
3555,1287;0,032421
3556,0930;0,0323119
3557,0571;0,0322186
3558,0215;0,0321136
3558,9856;0,0320026
3559,9500;0,0319209
3560,9141;0,0319034
3561,8784;0,0319466
3562,8425;0,0319892
3563,8069;0,0319182
3564,7710;0,0316091
3565,7354;0,0310092
3566,6995;0,0302315
3567,6638;0,0295238
3568,6279;0,0290807
3569,5923;0,0289164
3570,5564;0,0289164
3571,5208;0,0289459
3572,4849;0,0289143
3573,4492;0,0287928
3574,4133;0,0286055
3575,3777;0,0283986
3576,3418;0,0282056
3577,3062;0,0280326
3578,2703;0,0278729
3579,2346;0,0277336
3580,1987;0,0276432
3581,1631;0,0276319
3582,1272;0,0276977
3583,0916;0,0277871
3584,0557;0,0278005
3585,0200;0,0276257
3585,9841;0,0272107
3586,9485;0,0266466
3587,9126;0,0261501
3588,8770;0,0258983
3589,8411;0,0259008
3590,8054;0,0260359
3591,7695;0,0261536
3592,7339;0,0261472
3593,6980;0,0259894
3594,6624;0,0257343
3595,6265;0,0254707
3596,5908;0,0252507
3597,5549;0,02506
3598,5193;0,0248548
3599,4834;0,0246208
3600,4478;0,0243995
3601,4119;0,0242578
3602,3762;0,0242265
3603,3403;0,0242694
3604,3047;0,0243008
3605,2688;0,0242282
3606,2332;0,0239979
3607,1973;0,0236266
3608,1616;0,023196
3609,1257;0,0228016
3610,0901;0,0224976
3611,0542;0,0222897
3612,0186;0,0221654
3612,9827;0,022115
3613,9470;0,0221233
3614,9111;0,0221497
3615,8755;0,0221226
3616,8396;0,0219639
3617,8040;0,0216416
3618,7681;0,0212247
3619,7324;0,020879
3620,6965;0,0207645
3621,6609;0,0209261
3622,6250;0,021288
3623,5894;0,0217155
3624,5535;0,0220589
3625,5178;0,0221619
3626,4819;0,0218788
3627,4463;0,0211659
3628,4104;0,0202237
3629,3748;0,0194371
3630,3389;0,0190383
3631,3032;0,018955
3632,2673;0,0189849
3633,2317;0,0189735
3634,1958;0,0188664
3635,1602;0,0186893
3636,1243;0,0185005
3637,0886;0,0183422
3638,0527;0,0182206
3639,0171;0,0181229
3639,9812;0,0180485
3640,9456;0,0180233
3641,9097;0,0180841
3642,8740;0,0182461
3643,8381;0,0184776
3644,8025;0,0186887
3645,7666;0,0187254
3646,7310;0,0183859
3647,6951;0,0175425
3648,6594;0,0163991
3649,6235;0,0154857
3650,5879;0,0151387
3651,5520;0,0152478
3652,5164;0,0155214
3653,4805;0,015721
3654,4448;0,0157233
3655,4089;0,0155303
3656,3733;0,0152574
3657,3374;0,0150556
3658,3018;0,0149985
3659,2659;0,0150491
3660,2302;0,0151249
3661,1943;0,0151797
3662,1587;0,0152339
3663,1228;0,0153448
3664,0872;0,0155442
3665,0513;0,0157956
3666,0156;0,0159991
3666,9797;0,0160375
3667,9441;0,0158521
3668,9082;0,0155225
3669,8726;0,0152492
3670,8367;0,0151797
3671,8010;0,0152676
3672,7651;0,0153196
3673,7295;0,0151348
3674,6936;0,014649
3675,6580;0,0140358
3676,6221;0,0135968
3677,5864;0,0134873
3678,5505;0,0136373
3679,5149;0,0139021
3680,4790;0,0141874
3681,4434;0,0144719
3682,4075;0,0147725
3683,3718;0,0150972
3684,3359;0,0154141
3685,3003;0,0156474
3686,2644;0,015696
3687,2288;0,0154788
3688,1929;0,0150183
3689,1572;0,0145024
3690,1213;0,0141815
3691,0857;0,0141609
3692,0498;0,0143658
3693,0142;0,0146659
3693,9783;0,014969
3694,9426;0,0152354
3695,9067;0,0154559
3696,8711;0,0156258
3697,8352;0,0157286
3698,7996;0,0157383
3699,7637;0,0156406
3700,7280;0,0154632
3701,6921;0,0152879
3702,6565;0,0152164
3703,6206;0,0153085
3704,5850;0,0155505
3705,5491;0,0158707
3706,5134;0,0161644
3707,4775;0,016304
3708,4419;0,0161511
3709,4060;0,0156167
3710,3704;0,0147864
3711,3345;0,0139686
3712,2988;0,0134918
3713,2629;0,0134591
3714,2273;0,0137584
3715,1914;0,0142153
3716,1558;0,0146888
3717,1199;0,0150962
3718,0842;0,0154094
3719,0483;0,0156428
3720,0127;0,0158301
3720,9768;0,0159923
3721,9412;0,0161189
3722,9053;0,0161807
3723,8696;0,0161682
3724,8337;0,0161201
3725,7981;0,0161091
3726,7622;0,0161934
3727,7266;0,0163799
3728,6907;0,0166289
3729,6550;0,0168788
3730,6191;0,0170629
3731,5835;0,0171076
3732,5476;0,0169284
3733,5120;0,0164624
3734,4761;0,0157615
3735,4404;0,01505
3736,4045;0,0145982
3737,3689;0,0145253
3738,3330;0,0147653
3739,2974;0,0151583
3740,2615;0,0155244
3741,2258;0,0156926
3742,1899;0,0155367
3743,1543;0,0150673
3744,1184;0,014518
3745,0828;0,0142145
3746,0469;0,0142758
3747,0112;0,0145347
3747,9753;0,0147005
3748,9397;0,014524
3749,9038;0,0139497
3750,8682;0,0132379
3751,8323;0,0128002
3752,7966;0,012813
3753,7607;0,0131389
3754,7251;0,0135395
3755,6892;0,0138249
3756,6536;0,0138971
3757,6177;0,013766
3758,5820;0,0135473
3759,5461;0,0133963
3760,5105;0,0134027
3761,4746;0,013551
3762,4390;0,0137625
3763,4031;0,0139551
3764,3674;0,0140735
3765,3315;0,0140948
3766,2959;0,0140189
3767,2600;0,0138569
3768,2244;0,0136317
3769,1885;0,0133887
3770,1528;0,0132003
3771,1169;0,0131393
3772,0813;0,0132366
3773,0454;0,0134617
3774,0098;0,0137384
3774,9739;0,0139759
3775,9382;0,0140967
3776,9023;0,0140656
3777,8667;0,013913
3778,8308;0,0137299
3779,7952;0,0136117
3780,7593;0,0135952
3781,7236;0,0136488
3782,6877;0,0137118
3783,6521;0,0137369
3784,6162;0,0137099
3785,5806;0,013649
3786,5447;0,01359
3787,5090;0,0135685
3788,4731;0,0136074
3789,4375;0,0137103
3790,4016;0,0138604
3791,3660;0,0140257
3792,3301;0,0141721
3793,2944;0,0142815
3794,2585;0,0143648
3795,2229;0,0144536
3796,1870;0,0145677
3797,1514;0,0146791
3798,1155;0,0147086
3799,0798;0,0145704
3800,0439;0,0142516
3801,0083;0,0138655
3801,9724;0,0135861
3802,9368;0,0134958
3803,9009;0,0135226
3804,8652;0,0135233
3805,8293;0,0134079
3806,7937;0,0132203
3807,7578;0,0131176
3808,7222;0,013239
3809,6863;0,0135898
3810,6506;0,014055
3811,6147;0,0144824
3812,5791;0,0147466
3813,5432;0,0147915
3814,5076;0,0146641
3815,4717;0,0144976
3816,4360;0,0144072
3817,4001;0,0143858
3818,3645;0,0143206
3819,3286;0,014108
3820,2930;0,0137663
3821,2571;0,0134472
3822,2214;0,0133068
3823,1855;0,013376
3824,1499;0,0135725
3825,1140;0,0137915
3826,0784;0,0139666
3827,0425;0,014082
3828,0068;0,0141557
3828,9709;0,0142163
3829,9353;0,0142855
3830,8994;0,0143747
3831,8638;0,0144885
3832,8279;0,014621
3833,7922;0,0147462
3834,7563;0,0148136
3835,7207;0,014763
3836,6848;0,0145629
3837,6492;0,0142517
3838,6133;0,0139318
3839,5776;0,0136997
3840,5417;0,0135799
3841,5061;0,0135353
3842,4702;0,0135261
3843,4346;0,013554
3844,3987;0,0136618
3845,3630;0,0138989
3846,3271;0,0142833
3847,2915;0,0147845
3848,2556;0,0153266
3849,2200;0,0157902
3850,1841;0,0160004
3851,1484;0,0157382
3852,1125;0,014888
3853,0769;0,0137329
3854,0410;0,0128855
3855,0054;0,0126715
3855,9695;0,0129494
3856,9338;0,01345
3857,8979;0,0139808
3858,8623;0,0144302
3859,8264;0,0147312
3860,7908;0,0148491
3861,7549;0,0147971
3862,7192;0,0146546
3863,6833;0,0145401
3864,6477;0,0145358
3865,6118;0,0146374
3866,5762;0,014771
3867,5403;0,0148433
3868,5046;0,0147846
3869,4688;0,0145791
3870,4331;0,0142786
3871,3972;0,0139832
3872,3616;0,013793
3873,3257;0,0137636
3874,2900;0,0138923
3875,2542;0,0141303
3876,2185;0,0144036
3877,1826;0,0146353
3878,1470;0,0147705
3879,1111;0,0147978
3880,0754;0,0147533
3881,0396;0,0146873
3882,0039;0,0146204
3882,9680;0,0145353
3883,9324;0,0144193
3884,8965;0,0143054
3885,8608;0,0142596
3886,8250;0,0143175
3887,7893;0,0144385
3888,7534;0,0145234
3889,7178;0,0144797
3890,6819;0,0142975
3891,6462;0,0140856
3892,6104;0,0140055
3893,5747;0,0141431
3894,5388;0,0144567
3895,5032;0,014833
3896,4673;0,0151582
3897,4316;0,0153567
3898,3958;0,0154028
3899,3601;0,0153142
3900,3242;0,0151233
3901,2886;0,0148505
3902,2527;0,0145125
3903,2170;0,0141566
3904,1812;0,0138641
3905,1455;0,0137024
3906,1096;0,0136811
3907,0740;0,0137567
3908,0381;0,0138716
3909,0024;0,0139874
3909,9666;0,0140974
3910,9309;0,0142186
3911,8950;0,0143697
3912,8594;0,0145472
3913,8235;0,0147155
3914,7878;0,0148184
3915,7520;0,0148114
3916,7163;0,0146987
3917,6804;0,0145441
3918,6448;0,0144329
3919,6089;0,0144115
3920,5732;0,0144618
3921,5374;0,0145225
3922,5017;0,0145341
3923,4658;0,0144801
3924,4302;0,0144003
3925,3943;0,0143627
3926,3586;0,0144114
3927,3228;0,0145345
3928,2871;0,0146729
3929,2512;0,0147526
3930,2156;0,0147235
3931,1797;0,0145884
3932,1440;0,0144026
3933,1082;0,0142402
3934,0725;0,0141521
3935,0366;0,0141521
3936,0010;0,014227
3936,9651;0,0143508
3937,9294;0,0144904
3938,8936;0,0146087
3939,8579;0,0146736
3940,8220;0,014673
3941,7864;0,0146278
3942,7505;0,0145846
3943,7148;0,0145859
3944,6790;0,0146394
3945,6433;0,014712
3946,6074;0,0147511
3947,5718;0,0147167
3948,5359;0,0146074
3949,5002;0,0144628
3950,4644;0,0143376
3951,4287;0,0142679
3952,3928;0,0142565
3953,3572;0,0142836
3954,3213;0,0143263
3955,2856;0,0143712
3956,2498;0,0144142
3957,2141;0,0144525
3958,1782;0,014479
3959,1426;0,0144831
3960,1067;0,0144596
3961,0710;0,0144156
3962,0352;0,0143697
3962,9995;0,0143427
3963,9636;0,0143455
3964,9280;0,0143744
3965,8921;0,0144147
3966,8564;0,0144506
3967,8206;0,0144729
3968,7849;0,0144821
3969,7490;0,0144848
3970,7134;0,0144871
3971,6775;0,0144898
3972,6418;0,0144891
3973,6060;0,0144808
3974,5703;0,0144653
3975,5344;0,0144483
3976,4988;0,0144366
3977,4629;0,0144337
3978,4272;0,0144369
3979,3914;0,0144399
3980,3557;0,0144373
3981,3198;0,0144296
3982,2842;0,0144228
3983,2483;0,0144246
3984,2126;0,0144396
3985,1768;0,0144656
3986,1411;0,0144953
3987,1052;0,0145201
3988,0696;0,0145342
3989,0337;0,0145366
3989,9980;0,0145296
3990,9622;0,0145158
3991,9265;0,0144961
3992,8906;0,0144707
3993,8550;0,0144412
3994,8191;0,014413
3995,7834;0,0143939
3996,7476;0,0143908
3997,7119;0,0144052
3998,6760;0,0144323
3999,6404;0,0144628
4000,6045;0,0144773

##### Extended Information
[Comments]
Sample name
Comment
Username
Division
Organization;UNIVERSIDAD INDUSTRIAL DE SANTANDER

[Detailed Information]
Creation date;18/03/2025 12:19 p.m.

Data array type;Linear data array
Horizontal axis;Wavenumber [cm-1]
Vertical axis;Abs
Start;399,193 cm-1
End;4000,6 cm-1
Data interval;0,964233 cm-1
Data points;3736    

[Measurement Information]
Model name;FT/IR-4X1typeA
Serial No.;A035162111

Accessory;ATR PRO 4X
Accessory S/N;A021162126
Incident angle;45 deg

Measurement date;18/03/2025 12:17 p.m.

Light source;Standard
Detector;TGS
Accumulation;40
Resolution;4 cm-1
Zero filling;On
Apodization;Cosine
Gain;Auto (8)
Aperture;Auto (7 mm)
Scan speed;Auto (2 mm/sec)
Filter;Auto (12800 Hz)

