TITLE;
DATA TYPE;INFRARED SPECTRUM
ORIGIN;JASCO
OWNER;
DATE;25/03/18
TIME;12:14:54
SPECTROMETER/DATA SYSTEM;
LOCALE;9226
RESOLUTION;
DELTAX;0,964233
XUNITS;1/CM
YUNITS;ABSORBANCE
FIRSTX;  399,1927
LASTX; 4000,6047
NPOINTS;    3736
FIRSTY;     0,17912
MAXY;     0,20915
MINY;     0,00873
XYDATA
399,1927;0,179124
400,1569;0,175262
401,1211;0,172257
402,0854;0,170675
403,0496;0,170462
404,0138;0,171272
404,9781;0,172618
405,9423;0,173946
406,9065;0,174767
407,8708;0,174807
408,8350;0,174098
409,7992;0,172974
410,7635;0,171971
411,7277;0,171637
412,6919;0,172279
413,6562;0,173838
414,6204;0,175969
415,5846;0,178193
416,5489;0,179986
417,5131;0,180865
418,4773;0,180648
419,4416;0,179783
420,4058;0,179066
421,3700;0,178929
422,3343;0,179291
423,2985;0,1799
424,2627;0,180564
425,2270;0,181203
426,1912;0,181802
427,1554;0,182351
428,1197;0,182815
429,0839;0,183147
430,0481;0,183337
431,0124;0,183438
431,9766;0,183548
432,9408;0,183757
433,9051;0,184098
434,8693;0,184532
435,8335;0,184989
436,7978;0,185397
437,7620;0,185697
438,7262;0,185815
439,6905;0,185652
440,6547;0,185121
441,6189;0,184222
442,5832;0,183114
443,5474;0,182088
444,5116;0,181414
445,4759;0,181177
446,4401;0,181253
447,4043;0,181429
448,3686;0,181544
449,3328;0,181565
450,2970;0,181557
451,2613;0,181594
452,2255;0,181673
453,1897;0,181691
454,1540;0,181502
455,1182;0,180996
456,0824;0,180171
457,0467;0,179175
458,0109;0,178275
458,9751;0,177724
459,9394;0,177627
460,9036;0,177916
461,8678;0,178428
462,8321;0,178975
463,7963;0,179363
464,7605;0,179419
465,7248;0,179043
466,6890;0,178265
467,6532;0,177238
468,6175;0,176184
469,5817;0,175322
470,5459;0,174827
471,5102;0,174808
472,4744;0,175279
473,4386;0,176133
474,4029;0,17717
475,3671;0,178165
476,3313;0,178923
477,2956;0,179322
478,2598;0,179326
479,2240;0,179
480,1883;0,178495
481,1525;0,178
482,1167;0,177694
483,0810;0,177697
484,0452;0,178037
485,0094;0,17864
485,9737;0,179362
486,9379;0,180046
487,9021;0,180585
488,8664;0,180944
489,8306;0,181152
490,7948;0,181269
491,7591;0,181341
492,7233;0,181383
493,6875;0,181387
494,6518;0,181361
495,6160;0,181352
496,5802;0,181435
497,5445;0,181668
498,5087;0,182045
499,4729;0,182485
500,4372;0,182861
501,4014;0,183056
502,3656;0,183037
503,3299;0,182879
504,2941;0,182718
505,2583;0,182689
506,2226;0,182869
507,1868;0,183264
508,1510;0,183814
509,1153;0,184422
510,0795;0,184994
511,0437;0,185473
512,0080;0,185864
512,9722;0,186218
513,9365;0,186592
514,9007;0,187009
515,8649;0,187418
516,8292;0,187707
517,7934;0,187758
518,7576;0,187542
519,7219;0,187146
520,6861;0,186728
521,6503;0,186428
522,6146;0,186307
523,5788;0,186344
524,5430;0,186459
525,5073;0,186555
526,4715;0,18656
527,4357;0,186445
528,4000;0,186219
529,3642;0,185909
530,3284;0,185542
531,2927;0,18515
532,2569;0,184779
533,2211;0,184475
534,1854;0,184266
535,1496;0,184141
536,1138;0,184051
537,0781;0,183935
538,0423;0,183752
539,0065;0,183512
539,9708;0,183272
540,9350;0,183111
541,8992;0,183097
542,8635;0,183261
543,8277;0,183592
544,7919;0,184046
545,7562;0,184567
546,7204;0,185105
547,6846;0,185632
548,6489;0,186139
549,6131;0,186631
550,5773;0,18712
551,5416;0,187621
552,5058;0,188147
553,4700;0,1887
554,4343;0,189254
555,3985;0,189743
556,3627;0,190058
557,3270;0,190071
558,2912;0,189665
559,2554;0,188787
560,2197;0,187471
561,1839;0,185848
562,1481;0,184109
563,1124;0,182453
564,0766;0,181028
565,0408;0,179889
566,0051;0,179003
566,9693;0,178289
567,9335;0,177659
568,8978;0,177061
569,8620;0,176486
570,8262;0,17595
571,7905;0,175479
572,7547;0,17509
573,7189;0,174793
574,6832;0,17459
575,6474;0,174465
576,6116;0,174377
577,5759;0,174264
578,5401;0,174071
579,5043;0,173775
580,4686;0,173407
581,4328;0,173035
582,3970;0,172742
583,3613;0,172575
584,3255;0,172531
585,2897;0,17256
586,2540;0,172602
587,2182;0,172612
588,1824;0,172578
589,1467;0,172513
590,1109;0,172435
591,0751;0,172351
592,0394;0,172247
593,0036;0,172094
593,9678;0,171859
594,9321;0,171518
595,8963;0,171073
596,8605;0,170552
597,8248;0,170012
598,7890;0,16952
599,7532;0,169125
600,7175;0,168842
601,6817;0,168635
602,6459;0,168443
603,6102;0,168205
604,5744;0,167885
605,5386;0,167477
606,5029;0,16699
607,4671;0,166424
608,4313;0,165774
609,3956;0,165036
610,3598;0,164241
611,3240;0,163459
612,2883;0,162776
613,2525;0,162252
614,2167;0,161872
615,1810;0,161527
616,1452;0,16105
617,1094;0,160287
618,0737;0,15918
619,0379;0,157798
620,0021;0,156283
620,9664;0,154778
621,9306;0,153373
622,8948;0,152108
623,8591;0,150998
624,8233;0,15005
625,7875;0,149288
626,7518;0,148705
627,7160;0,148256
628,6802;0,147864
629,6445;0,147447
630,6087;0,146942
631,5729;0,146332
632,5372;0,14564
633,5014;0,144924
634,4656;0,144254
635,4299;0,143685
636,3941;0,143236
637,3583;0,142888
638,3226;0,142587
639,2868;0,142275
640,2510;0,141912
641,2153;0,141498
642,1795;0,141066
643,1437;0,140665
644,1080;0,140327
645,0722;0,140048
646,0364;0,139795
647,0007;0,139523
647,9649;0,13921
648,9291;0,138877
649,8934;0,138583
650,8576;0,138396
651,8218;0,138356
652,7861;0,138458
653,7503;0,138657
654,7145;0,138904
655,6788;0,139162
656,6430;0,139421
657,6072;0,139683
658,5715;0,139923
659,5357;0,140082
660,4999;0,140082
661,4642;0,139888
662,4284;0,139544
663,3926;0,139147
664,3569;0,138804
665,3211;0,138607
666,2853;0,138592
667,2496;0,138592
668,2138;0,138135
669,1780;0,136901
670,1423;0,135235
671,1065;0,133605
672,0707;0,132107
673,0350;0,13063
673,9992;0,129078
674,9634;0,127446
675,9277;0,125802
676,8919;0,124233
677,8561;0,122788
678,8204;0,121457
679,7846;0,120218
680,7488;0,119063
681,7131;0,118013
682,6773;0,117096
683,6415;0,116329
684,6058;0,115709
685,5700;0,115214
686,5342;0,114807
687,4985;0,114439
688,4627;0,114061
689,4269;0,113643
690,3912;0,113181
691,3554;0,112697
692,3196;0,112217
693,2839;0,111758
694,2481;0,111322
695,2123;0,110902
696,1766;0,110492
697,1408;0,110095
698,1050;0,109708
699,0693;0,109329
700,0335;0,108947
700,9977;0,108553
701,9620;0,108137
702,9262;0,107691
703,8904;0,107206
704,8547;0,106673
705,8189;0,106087
706,7831;0,105452
707,7474;0,104786
708,7116;0,10411
709,6758;0,103443
710,6401;0,102784
711,6043;0,102118
712,5685;0,101429
713,5328;0,100719
714,4970;0,100019
715,4612;0,0992011
716,4255;0,0986556
717,3897;0,0981685
718,3539;0,0976557
719,3182;0,0970105
720,2824;0,0961637
721,2466;0,0951312
722,2109;0,0940082
723,1751;0,0929142
724,1393;0,0919331
725,1036;0,0910876
726,0678;0,0903487
727,0320;0,0896653
727,9963;0,0889919
728,9605;0,0883043
729,9247;0,0876013
730,8890;0,0868977
731,8532;0,0862155
732,8174;0,0855758
733,7817;0,0849914
734,7459;0,0844609
735,7101;0,0839691
736,6744;0,0834943
737,6386;0,0830205
738,6028;0,0825455
739,5671;0,0820798
740,5313;0,0816387
741,4955;0,0812311
742,4598;0,0808552
743,4240;0,0804999
744,3882;0,0801516
745,3525;0,0797991
746,3167;0,0794354
747,2809;0,0790575
748,2452;0,0786658
749,2094;0,0782636
750,1736;0,0778556
751,1379;0,0774453
752,1021;0,077031
753,0663;0,0766066
754,0306;0,076166
754,9948;0,0757104
755,9590;0,0752516
756,9233;0,0748084
757,8875;0,0743961
758,8517;0,0740181
759,8160;0,0736647
760,7802;0,0733213
761,7444;0,0729805
762,7087;0,0726481
763,6729;0,0723392
764,6371;0,0720662
765,6014;0,0718272
766,5656;0,0716034
767,5298;0,0713667
768,4941;0,0710933
769,4583;0,0707754
770,4225;0,0704249
771,3868;0,0700677
772,3510;0,0697331
773,3152;0,0694427
774,2795;0,069203
775,2437;0,0690046
776,2079;0,068826
777,1722;0,0686418
778,1364;0,0684317
779,1006;0,0681856
780,0649;0,0679039
781,0291;0,0675929
781,9933;0,0672584
782,9576;0,0669022
783,9218;0,0665235
784,8860;0,066126
785,8503;0,0657238
786,8145;0,0653428
787,7787;0,0650135
788,7430;0,0647569
789,7072;0,0645719
790,6714;0,0644318
791,6357;0,0642947
792,5999;0,0641224
793,5641;0,0639
794,5284;0,0636417
795,4926;0,0633818
796,4568;0,0631548
797,4211;0,062978
798,3853;0,062845
799,3495;0,0627338
800,3138;0,0626214
801,2780;0,0624947
802,2422;0,0623534
803,2065;0,0622051
804,1707;0,0620576
805,1349;0,0619156
806,0992;0,0617809
807,0634;0,0616553
808,0276;0,0615422
808,9919;0,0614451
809,9561;0,0613649
810,9203;0,0612974
811,8846;0,0612333
812,8488;0,0611616
813,8130;0,0610742
814,7773;0,0609711
815,7415;0,0608618
816,7057;0,0607622
817,6700;0,0606873
818,6342;0,0606437
819,5984;0,0606263
820,5627;0,0606201
821,5269;0,0606073
822,4911;0,0605745
823,4554;0,0605152
824,4196;0,0604286
825,3839;0,060316
826,3481;0,0601792
827,3123;0,0600227
828,2766;0,0598566
829,2408;0,0596966
830,2050;0,0595586
831,1693;0,0594503
832,1335;0,0593641
833,0977;0,0592777
834,0620;0,0591611
835,0262;0,0589891
835,9904;0,0587507
836,9547;0,0584542
837,9189;0,0581241
838,8831;0,0577936
839,8474;0,0574953
840,8116;0,0572528
841,7758;0,057076
842,7401;0,0569598
843,7043;0,0568864
844,6685;0,0568311
845,6328;0,0567684
846,5970;0,0566781
847,5612;0,0565495
848,5255;0,0563831
849,4897;0,0561904
850,4539;0,0559907
851,4182;0,0558067
852,3824;0,0556589
853,3466;0,0555593
854,3109;0,0555086
855,2751;0,0554958
856,2393;0,0555031
857,2036;0,0555127
858,1678;0,0555123
859,1320;0,0554997
860,0963;0,0554815
861,0605;0,0554706
862,0247;0,0554805
862,9890;0,0555218
863,9532;0,0555996
864,9174;0,0557144
865,8817;0,055865
866,8459;0,056051
867,8101;0,0562734
868,7744;0,056532
869,7386;0,0568199
870,7028;0,0571204
871,6671;0,0574101
872,6313;0,0576673
873,5955;0,0578833
874,5598;0,0580684
875,5240;0,0582479
876,4882;0,0584494
877,4525;0,058689
878,4167;0,0589664
879,3809;0,0592712
880,3452;0,0595977
881,3094;0,0599556
882,2736;0,0603705
883,2379;0,0608717
884,2021;0,0614766
885,1663;0,0621808
886,1306;0,0629604
887,0948;0,0637839
888,0590;0,0646248
889,0233;0,065468
889,9875;0,0663057
890,9517;0,0671289
891,9160;0,0679182
892,8802;0,0686428
893,8444;0,0692663
894,8087;0,0697568
895,7729;0,0700952
896,7371;0,0702763
897,7014;0,0703038
898,6656;0,0701836
899,6298;0,0699202
900,5941;0,0695201
901,5583;0,0690007
902,5225;0,0683966
903,4868;0,0677582
904,4510;0,0671409
905,4152;0,06659
906,3795;0,0661287
907,3437;0,0657567
908,3079;0,0654583
909,2722;0,065215
910,2364;0,065015
911,2007;0,0648565
912,1649;0,0647454
913,1292;0,0646909
914,0934;0,0647006
915,0576;0,064778
916,0219;0,0649207
916,9861;0,0651205
917,9503;0,0653652
918,9146;0,0656428
919,8788;0,065945
920,8430;0,066268
921,8073;0,0666088
922,7715;0,0669611
923,7357;0,0673127
924,7000;0,0676493
925,6642;0,0679606
926,6284;0,0682463
927,5927;0,068516
928,5569;0,0687825
929,5211;0,0690544
930,4854;0,0693313
931,4496;0,0696071
932,4138;0,0698781
933,3781;0,0701505
934,3423;0,0704425
935,3065;0,0707799
936,2708;0,0711865
937,2350;0,0716769
938,1992;0,0722548
939,1635;0,0729154
940,1277;0,0736509
941,0919;0,0744543
942,0562;0,0753199
943,0204;0,076243
943,9846;0,0772199
944,9489;0,0782496
945,9131;0,0793351
946,8773;0,0804823
947,8416;0,0816954
948,8058;0,0829722
949,7700;0,0843021
950,7343;0,085671
951,6985;0,0870681
952,6627;0,0884924
953,6270;0,0899522
954,5912;0,0914594
955,5554;0,0930217
956,5197;0,0946375
957,4839;0,0962981
958,4481;0,0979927
959,4124;0,0997133
960,3766;0,101456
961,3408;0,103218
962,3051;0,104994
963,2693;0,106778
964,2335;0,108561
965,1978;0,11034
966,1620;0,112116
967,1262;0,113897
968,0905;0,115694
969,0547;0,117529
970,0189;0,119427
970,9832;0,121421
971,9474;0,12355
972,9116;0,125846
973,8759;0,128332
974,8401;0,131014
975,8043;0,133883
976,7686;0,136911
977,7328;0,140059
978,6970;0,143268
979,6613;0,146462
980,6255;0,149548
981,5897;0,15243
982,5540;0,155027
983,5182;0,157289
984,4824;0,159213
985,4467;0,160831
986,4109;0,162205
987,3751;0,163403
988,3394;0,164484
989,3036;0,165492
990,2678;0,166453
991,2321;0,167373
992,1963;0,168244
993,1605;0,169056
994,1248;0,169797
995,0890;0,170465
996,0532;0,171067
997,0175;0,171616
997,9817;0,172129
998,9459;0,172622
999,9102;0,173117
1000,8744;0,173637
1001,8386;0,174215
1002,8029;0,174888
1003,7671;0,17569
1004,7313;0,176642
1005,6956;0,177754
1006,6598;0,179024
1007,6240;0,180446
1008,5883;0,182016
1009,5525;0,183729
1010,5167;0,185578
1011,4810;0,187541
1012,4452;0,189577
1013,4094;0,191625
1014,3737;0,193612
1015,3379;0,195472
1016,3021;0,19716
1017,2664;0,198662
1018,2306;0,199988
1019,1948;0,201169
1020,1591;0,202236
1021,1233;0,203217
1022,0875;0,204133
1023,0518;0,204995
1024,0160;0,205813
1024,9802;0,20659
1025,9445;0,207322
1026,9087;0,207988
1027,8729;0,208553
1028,8372;0,208963
1029,8014;0,20915
1030,7656;0,209041
1031,7299;0,208566
1032,6941;0,207677
1033,6583;0,206361
1034,6226;0,204657
1035,5868;0,202656
1036,5510;0,200499
1037,5153;0,198348
1038,4795;0,19636
1039,4437;0,19466
1040,4080;0,19332
1041,3722;0,192357
1042,3364;0,191743
1043,3007;0,191413
1044,2649;0,191285
1045,2291;0,19127
1046,1934;0,191283
1047,1576;0,191248
1048,1218;0,191104
1049,0861;0,190803
1050,0503;0,19031
1051,0145;0,189604
1051,9788;0,188671
1052,9430;0,187515
1053,9072;0,186149
1054,8715;0,184594
1055,8357;0,182856
1056,7999;0,180917
1057,7642;0,178735
1058,7284;0,176257
1059,6926;0,173458
1060,6569;0,170364
1061,6211;0,167068
1062,5853;0,163704
1063,5496;0,160411
1064,5138;0,157299
1065,4780;0,154422
1066,4423;0,151789
1067,4065;0,149379
1068,3707;0,147159
1069,3350;0,1451
1070,2992;0,143172
1071,2634;0,141338
1072,2277;0,139555
1073,1919;0,137774
1074,1561;0,13595
1075,1204;0,134057
1076,0846;0,132092
1077,0488;0,130081
1078,0131;0,12807
1078,9773;0,126118
1079,9415;0,124285
1080,9058;0,122622
1081,8700;0,121162
1082,8342;0,119916
1083,7985;0,118875
1084,7627;0,118013
1085,7269;0,117298
1086,6912;0,116699
1087,6554;0,116195
1088,6196;0,115778
1089,5839;0,115453
1090,5481;0,115226
1091,5123;0,115103
1092,4766;0,11508
1093,4408;0,115146
1094,4050;0,115287
1095,3693;0,115486
1096,3335;0,115725
1097,2977;0,115985
1098,2620;0,116247
1099,2262;0,116492
1100,1904;0,116704
1101,1547;0,116869
1102,1189;0,116971
1103,0831;0,116997
1104,0474;0,116932
1105,0116;0,116774
1105,9758;0,116533
1106,9401;0,116228
1107,9043;0,115868
1108,8685;0,115436
1109,8328;0,114883
1110,7970;0,114141
1111,7612;0,113147
1112,7255;0,111884
1113,6897;0,110391
1114,6539;0,108761
1115,6182;0,107107
1116,5824;0,105533
1117,5466;0,104099
1118,5109;0,10282
1119,4751;0,101667
1120,4393;0,100579
1121,4036;0,0994821
1122,3678;0,0982997
1123,3320;0,0969653
1124,2963;0,0954363
1125,2605;0,0937037
1126,2247;0,0917945
1127,1890;0,0897624
1128,1532;0,0876707
1129,1174;0,0855735
1130,0817;0,0835047
1131,0459;0,0814798
1132,0101;0,0795065
1132,9744;0,0775988
1133,9386;0,0757845
1134,9028;0,0741052
1135,8671;0,0726079
1136,8313;0,0713353
1137,7955;0,0703173
1138,7598;0,0695679
1139,7240;0,0690845
1140,6882;0,0688502
1141,6525;0,0688362
1142,6167;0,0690052
1143,5809;0,0693169
1144,5452;0,0697326
1145,5094;0,0702212
1146,4736;0,0707625
1147,4379;0,0713476
1148,4021;0,0719762
1149,3663;0,072651
1150,3306;0,07337
1151,2948;0,0741197
1152,2590;0,0748728
1153,2233;0,0755917
1154,1875;0,076235
1155,1517;0,076764
1156,1160;0,0771445
1157,0802;0,0773421
1158,0444;0,0773155
1159,0087;0,0770125
1159,9729;0,0763743
1160,9371;0,075347
1161,9014;0,0738978
1162,8656;0,0720274
1163,8298;0,0697757
1164,7941;0,0672192
1165,7583;0,0644617
1166,7225;0,061621
1167,6868;0,0588144
1168,6510;0,0561434
1169,6152;0,0536811
1170,5795;0,0514654
1171,5437;0,0495008
1172,5079;0,0477689
1173,4722;0,0462421
1174,4364;0,0448966
1175,4006;0,0437178
1176,3649;0,0426984
1177,3291;0,0418312
1178,2933;0,0411031
1179,2576;0,040494
1180,2218;0,0399802
1181,1860;0,039542
1182,1503;0,0391689
1183,1145;0,0388605
1184,0787;0,0386226
1185,0430;0,0384618
1186,0072;0,0383816
1186,9714;0,038382
1187,9357;0,038462
1188,8999;0,0386218
1189,8641;0,0388628
1190,8284;0,0391855
1191,7926;0,0395858
1192,7568;0,0400547
1193,7211;0,0405794
1194,6853;0,0411471
1195,6495;0,0417477
1196,6138;0,0423734
1197,5780;0,0430167
1198,5422;0,0436679
1199,5065;0,0442745
1200,4707;0,0449069
1201,4349;0,0455093
1202,3992;0,0460743
1203,3634;0,0465979
1204,3276;0,0470773
1205,2919;0,0475091
1206,2561;0,0478907
1207,2203;0,0482249
1208,1846;0,0485252
1209,1488;0,0488185
1210,1130;0,049142
1211,0773;0,0495343
1212,0415;0,0500238
1213,0057;0,0506202
1213,9700;0,0513124
1214,9342;0,0520743
1215,8984;0,0528744
1216,8627;0,0536855
1217,8269;0,0544893
1218,7911;0,0552776
1219,7554;0,0560482
1220,7196;0,0567997
1221,6838;0,0575281
1222,6481;0,0582259
1223,6123;0,058885
1224,5765;0,0595003
1225,5408;0,0600729
1226,5050;0,060609
1227,4692;0,0611162
1228,4335;0,0615981
1229,3977;0,0620513
1230,3619;0,0624661
1231,3262;0,0628302
1232,2904;0,0631343
1233,2546;0,0633745
1234,2189;0,0635535
1235,1831;0,0636778
1236,1473;0,0637557
1237,1116;0,0637959
1238,0758;0,0638064
1239,0400;0,063794
1240,0043;0,0637623
1240,9685;0,0637105
1241,9327;0,0636331
1242,8970;0,0635216
1243,8612;0,0633675
1244,8254;0,0631662
1245,7897;0,0629185
1246,7539;0,0626305
1247,7181;0,0623107
1248,6824;0,0619676
1249,6466;0,061608
1250,6108;0,0612377
1251,5751;0,0608633
1252,5393;0,0604935
1253,5035;0,060138
1254,4678;0,059804
1255,4320;0,0594916
1256,3962;0,0591919
1257,3605;0,0588893
1258,3247;0,0585671
1259,2889;0,0582143
1260,2532;0,057829
1261,2174;0,0574172
1262,1816;0,0569875
1263,1459;0,0565456
1264,1101;0,0560918
1265,0743;0,0556221
1266,0386;0,0551307
1267,0028;0,0546133
1267,9670;0,0540686
1268,9313;0,0534989
1269,8955;0,0529099
1270,8597;0,0523101
1271,8240;0,0517085
1272,7882;0,0511136
1273,7524;0,0505321
1274,7167;0,0499692
1275,6809;0,049429
1276,6451;0,0489135
1277,6094;0,0484198
1278,5736;0,047939
1279,5378;0,0474579
1280,5021;0,046965
1281,4663;0,0464576
1282,4305;0,0459451
1283,3948;0,0454465
1284,3590;0,0449825
1285,3232;0,0445686
1286,2875;0,0442113
1287,2517;0,0439103
1288,2159;0,043663
1289,1802;0,0434689
1290,1444;0,0433305
1291,1086;0,0432526
1292,0729;0,0432395
1293,0371;0,0432948
1294,0013;0,0434201
1294,9656;0,043615
1295,9298;0,0438756
1296,8940;0,0441956
1297,8583;0,0445678
1298,8225;0,0449871
1299,7867;0,0454521
1300,7510;0,0459644
1301,7152;0,0465259
1302,6794;0,0471362
1303,6437;0,0477911
1304,6079;0,0484844
1305,5721;0,0492085
1306,5364;0,0499561
1307,5006;0,0507209
1308,4648;0,0514977
1309,4291;0,0522807
1310,3933;0,0530608
1311,3575;0,0538221
1312,3218;0,0545399
1313,2860;0,0551824
1314,2502;0,0557155
1315,2145;0,0561076
1316,1787;0,056334
1317,1429;0,0563814
1318,1072;0,0562552
1319,0714;0,055985
1320,0356;0,0556222
1320,9999;0,0552249
1321,9641;0,0548408
1322,9283;0,0544975
1323,8926;0,054205
1324,8568;0,0539638
1325,8210;0,0537723
1326,7853;0,0536291
1327,7495;0,0535305
1328,7137;0,0534666
1329,6780;0,0534189
1330,6422;0,0533641
1331,6064;0,053281
1332,5707;0,053157
1333,5349;0,0529895
1334,4991;0,0527788
1335,4634;0,0525176
1336,4276;0,0521841
1337,3918;0,0517483
1338,3561;0,0511929
1339,3203;0,0505404
1340,2845;0,0498564
1341,2488;0,0492166
1342,2130;0,0486678
1343,1772;0,0482192
1344,1415;0,0478594
1345,1057;0,0475759
1346,0699;0,0473644
1347,0342;0,0472283
1347,9984;0,0471736
1348,9626;0,0472025
1349,9269;0,0473106
1350,8911;0,0474861
1351,8553;0,0477126
1352,8196;0,0479751
1353,7838;0,0482667
1354,7480;0,0485921
1355,7123;0,0489633
1356,6765;0,0493885
1357,6407;0,0498624
1358,6050;0,0503639
1359,5692;0,0508608
1360,5334;0,0513167
1361,4977;0,0517034
1362,4619;0,052018
1363,4261;0,0522876
1364,3904;0,0525488
1365,3546;0,0528202
1366,3188;0,0530956
1367,2831;0,0533548
1368,2473;0,0535755
1369,2115;0,0537383
1370,1758;0,053823
1371,1400;0,053803
1372,1042;0,0536459
1373,0685;0,05333
1374,0327;0,0528689
1374,9969;0,0523204
1375,9612;0,0517513
1376,9254;0,0511874
1377,8896;0,0506002
1378,8539;0,049943
1379,8181;0,0491995
1380,7823;0,0484063
1381,7466;0,0476309
1382,7108;0,0469214
1383,6750;0,0462713
1384,6393;0,0456269
1385,6035;0,0449324
1386,5677;0,044189
1387,5320;0,0434807
1388,4962;0,0429213
1389,4604;0,0425652
1390,4247;0,0423817
1391,3889;0,0422983
1392,3531;0,0422481
1393,3174;0,042192
1394,2816;0,0421199
1395,2458;0,0420426
1396,2101;0,0419796
1397,1743;0,0419505
1398,1385;0,041972
1399,1028;0,0420582
1400,0670;0,0422147
1401,0313;0,0424326
1401,9955;0,0426895
1402,9597;0,0429587
1403,9240;0,0432228
1404,8882;0,0434832
1405,8524;0,0437582
1406,8167;0,0440683
1407,7809;0,0444211
1408,7451;0,0448109
1409,7094;0,0452319
1410,6736;0,0456903
1411,6378;0,0462004
1412,6021;0,0467702
1413,5663;0,0473872
1414,5305;0,0480188
1415,4948;0,0486207
1416,4590;0,0491443
1417,4232;0,0495459
1418,3875;0,0498132
1419,3517;0,0499904
1420,3159;0,0501416
1421,2802;0,0502819
1422,2444;0,0503697
1423,2086;0,0503545
1424,1729;0,0502184
1425,1371;0,0499782
1426,1013;0,049655
1427,0656;0,0492428
1428,0298;0,0487122
1428,9940;0,0480536
1429,9583;0,0473217
1430,9225;0,0466191
1431,8867;0,0460183
1432,8510;0,0455008
1433,8152;0,0449672
1434,7794;0,0443017
1435,7437;0,0434688
1436,7079;0,0425946
1437,6721;0,0419047
1438,6364;0,0415289
1439,6006;0,0414234
1440,5648;0,0414708
1441,5291;0,0415819
1442,4933;0,0417235
1443,4575;0,0418984
1444,4218;0,0421131
1445,3860;0,0423569
1446,3502;0,0426032
1447,3145;0,0428306
1448,2787;0,043044
1449,2429;0,0432744
1450,2072;0,0435521
1451,1714;0,0438786
1452,1356;0,0442233
1453,0999;0,0445353
1454,0641;0,0447443
1455,0283;0,0447443
1455,9926;0,0444053
1456,9568;0,0437378
1457,9210;0,0430708
1458,8853;0,0427468
1459,8495;0,0427614
1460,8137;0,0429045
1461,7780;0,0429672
1462,7422;0,0427911
1463,7064;0,0422854
1464,6707;0,0414891
1465,6349;0,040597
1466,5991;0,0398231
1467,5634;0,0392323
1468,5276;0,038736
1469,4918;0,0381789
1470,4561;0,0373953
1471,4203;0,0362489
1472,3845;0,0347313
1473,3488;0,0330693
1474,3130;0,031602
1475,2772;0,0304988
1476,2415;0,0297116
1477,2057;0,0291239
1478,1699;0,0286469
1479,1342;0,0282306
1480,0984;0,0278508
1481,0626;0,0275033
1482,0269;0,0272036
1482,9911;0,0269785
1483,9553;0,0268479
1484,9196;0,0268085
1485,8838;0,026832
1486,8480;0,0268727
1487,8123;0,0268848
1488,7765;0,0268616
1489,7407;0,0268687
1490,7050;0,0269989
1491,6692;0,0272847
1492,6334;0,0276917
1493,5977;0,0281695
1494,5619;0,0286836
1495,5261;0,0292169
1496,4904;0,0297594
1497,4546;0,0303107
1498,4188;0,0308897
1499,3831;0,0315162
1500,3473;0,0321779
1501,3115;0,0328317
1502,2758;0,0334302
1503,2400;0,0339389
1504,2042;0,0343289
1505,1685;0,0345379
1506,1327;0,0344321
1507,0969;0,0339511
1508,0612;0,0333623
1509,0254;0,0329819
1509,9896;0,032828
1510,9539;0,0327712
1511,9181;0,0327047
1512,8823;0,0325699
1513,8466;0,0323404
1514,8108;0,0320128
1515,7750;0,0316075
1516,7393;0,0311593
1517,7035;0,0306918
1518,6677;0,0301974
1519,6320;0,0296533
1520,5962;0,0290679
1521,5604;0,0285109
1522,5247;0,0280735
1523,4889;0,0277926
1524,4531;0,0276369
1525,4174;0,0275585
1526,3816;0,0275399
1527,3458;0,0275934
1528,3101;0,0277284
1529,2743;0,0279266
1530,2385;0,0281494
1531,2028;0,028361
1532,1670;0,0285514
1533,1312;0,0287487
1534,0955;0,0290011
1535,0597;0,02933
1536,0239;0,0297083
1536,9882;0,0300816
1537,9524;0,0303896
1538,9166;0,0305538
1539,8809;0,030474
1540,8451;0,0301561
1541,8093;0,0298341
1542,7736;0,029705
1543,7378;0,0297359
1544,7020;0,0298224
1545,6663;0,0299102
1546,6305;0,0299923
1547,5947;0,0300716
1548,5590;0,0301382
1549,5232;0,0301749
1550,4874;0,0301791
1551,4517;0,0301785
1552,4159;0,0302189
1553,3801;0,0303276
1554,3444;0,0304851
1555,3086;0,0306192
1556,2728;0,0305989
1557,2371;0,0302329
1558,2013;0,0294419
1559,1655;0,0286213
1560,1298;0,0283202
1561,0940;0,0285587
1562,0582;0,0290533
1563,0225;0,0295882
1563,9867;0,0300649
1564,9509;0,0304496
1565,9152;0,0307349
1566,8794;0,0309281
1567,8436;0,0310609
1568,8079;0,0312001
1569,7721;0,0314249
1570,7363;0,03177
1571,7006;0,032202
1572,6648;0,0326529
1573,6290;0,0330618
1574,5933;0,0333937
1575,5575;0,0336517
1576,5217;0,0338931
1577,4860;0,0342063
1578,4502;0,0346346
1579,4144;0,0351481
1580,3787;0,0356915
1581,3429;0,0362255
1582,3071;0,036738
1583,2714;0,0372386
1584,2356;0,0377493
1585,1998;0,0382905
1586,1641;0,0388694
1587,1283;0,0394753
1588,0925;0,0400831
1589,0568;0,04066
1590,0210;0,041173
1590,9852;0,0415928
1591,9495;0,0418942
1592,9137;0,0420586
1593,8779;0,0420815
1594,8422;0,0419811
1595,8064;0,0417967
1596,7706;0,041574
1597,7349;0,0413469
1598,6991;0,0411292
1599,6633;0,0409193
1600,6276;0,0407112
1601,5918;0,0405053
1602,5560;0,0403132
1603,5203;0,040152
1604,4845;0,0400316
1605,4487;0,0399445
1606,4130;0,0398698
1607,3772;0,0397908
1608,3414;0,0397168
1609,3057;0,0396883
1610,2699;0,0397495
1611,2341;0,0399092
1612,1984;0,0401275
1613,1626;0,040335
1614,1268;0,0404625
1615,0911;0,0404771
1616,0553;0,0404285
1617,0195;0,0404497
1617,9838;0,0406472
1618,9480;0,0410038
1619,9122;0,0414202
1620,8765;0,0418001
1621,8407;0,0420905
1622,8049;0,0422895
1623,7692;0,0424378
1624,7334;0,0425865
1625,6976;0,0427618
1626,6619;0,0429632
1627,6261;0,0431906
1628,5903;0,0434588
1629,5546;0,0437813
1630,5188;0,0441445
1631,4830;0,0445022
1632,4473;0,0447847
1633,4115;0,0449091
1634,3757;0,0448021
1635,3400;0,0444829
1636,3042;0,0441488
1637,2684;0,0440299
1638,2327;0,0441658
1639,1969;0,0444505
1640,1611;0,0447782
1641,1254;0,0450913
1642,0896;0,0453596
1643,0538;0,0455498
1644,0181;0,0456056
1644,9823;0,0454642
1645,9465;0,0451386
1646,9108;0,0447981
1647,8750;0,044648
1648,8392;0,0447159
1649,8035;0,0448467
1650,7677;0,0447983
1651,7319;0,0442833
1652,6962;0,0431425
1653,6604;0,0417852
1654,6246;0,0409528
1655,5889;0,040787
1656,5531;0,0409443
1657,5173;0,0411155
1658,4816;0,0411365
1659,4458;0,0409262
1660,4100;0,0404503
1661,3743;0,0397477
1662,3385;0,0389679
1663,3027;0,0383079
1664,2670;0,0378684
1665,2312;0,0376004
1666,1954;0,0373643
1667,1597;0,0370011
1668,1239;0,0363969
1669,0881;0,035566
1670,0524;0,0346864
1671,0166;0,0339597
1671,9808;0,0334239
1672,9451;0,0329597
1673,9093;0,0324313
1674,8735;0,031807
1675,8378;0,0311924
1676,8020;0,0307436
1677,7662;0,03053
1678,7305;0,0304923
1679,6947;0,0304988
1680,6589;0,0303944
1681,6232;0,0300084
1682,5874;0,0291955
1683,5516;0,0280139
1684,5159;0,0268548
1685,4801;0,0260986
1686,4443;0,0257501
1687,4086;0,025597
1688,3728;0,0254649
1689,3370;0,0252896
1690,3013;0,0250851
1691,2655;0,0248902
1692,2297;0,024728
1693,1940;0,0245911
1694,1582;0,0244479
1695,1224;0,0242559
1696,0867;0,0239746
1697,0509;0,0235784
1698,0151;0,0230773
1698,9794;0,022543
1699,9436;0,0221045
1700,9078;0,0218741
1701,8721;0,021868
1702,8363;0,022008
1703,8005;0,0221868
1704,7648;0,0223275
1705,7290;0,0224148
1706,6932;0,0224937
1707,6575;0,0226319
1708,6217;0,0228706
1709,5859;0,0232072
1710,5502;0,0236132
1711,5144;0,0240568
1712,4786;0,0245088
1713,4429;0,0249316
1714,4071;0,0252658
1715,3713;0,0254324
1716,3356;0,0253943
1717,2998;0,0252554
1718,2640;0,0252213
1719,2283;0,0254036
1720,1925;0,025758
1721,1567;0,0261799
1722,1210;0,026584
1723,0852;0,0269274
1724,0494;0,0272074
1725,0137;0,0274524
1725,9779;0,0277034
1726,9421;0,0279907
1727,9064;0,0283167
1728,8706;0,0286504
1729,8348;0,0289287
1730,7991;0,0290606
1731,7633;0,0289465
1732,7275;0,0285483
1733,6918;0,0279905
1734,6560;0,027518
1735,6202;0,0272738
1736,5845;0,0272016
1737,5487;0,0271538
1738,5129;0,027006
1739,4772;0,0267073
1740,4414;0,0262887
1741,4056;0,0258365
1742,3699;0,025429
1743,3341;0,025089
1744,2983;0,0247893
1745,2626;0,0244847
1746,2268;0,0241266
1747,1910;0,0236575
1748,1553;0,0230182
1749,1195;0,0221979
1750,0837;0,0212924
1751,0480;0,020467
1752,0122;0,0198319
1752,9764;0,0193789
1753,9407;0,0190265
1754,9049;0,0186927
1755,8691;0,0183381
1756,8334;0,0179689
1757,7976;0,0176071
1758,7618;0,0172528
1759,7261;0,0168743
1760,6903;0,0164421
1761,6545;0,0159729
1762,6188;0,0155354
1763,5830;0,0152023
1764,5472;0,0149984
1765,5115;0,0148931
1766,4757;0,0148297
1767,4399;0,0147548
1768,4042;0,0146304
1769,3684;0,0144312
1770,3326;0,0141429
1771,2969;0,0137787
1772,2611;0,0134025
1773,2253;0,0131112
1774,1896;0,0129671
1775,1538;0,012957
1776,1180;0,0130168
1777,0823;0,0130776
1778,0465;0,0130942
1779,0107;0,013055
1779,9750;0,0129771
1780,9392;0,0128874
1781,9034;0,0128021
1782,8677;0,0127235
1783,8319;0,0126552
1784,7961;0,0126157
1785,7604;0,0126317
1786,7246;0,0127147
1787,6888;0,012845
1788,6531;0,0129733
1789,6173;0,013036
1790,5815;0,0129798
1791,5458;0,0128016
1792,5100;0,012578
1793,4742;0,0124229
1794,4385;0,0123952
1795,4027;0,0124688
1796,3669;0,012577
1797,3312;0,0126586
1798,2954;0,0126786
1799,2596;0,0126319
1800,2239;0,0125409
1801,1881;0,0124432
1802,1523;0,0123726
1803,1166;0,0123451
1804,0808;0,01236
1805,0450;0,0124062
1806,0093;0,0124678
1806,9735;0,0125252
1807,9377;0,0125572
1808,9020;0,0125464
1809,8662;0,0124892
1810,8304;0,0124022
1811,7947;0,0123156
1812,7589;0,0122553
1813,7231;0,0122295
1814,6874;0,0122294
1815,6516;0,0122389
1816,6158;0,012247
1817,5801;0,0122548
1818,5443;0,012274
1819,5085;0,0123159
1820,4728;0,0123806
1821,4370;0,0124537
1822,4012;0,012514
1823,3655;0,0125453
1824,3297;0,0125453
1825,2939;0,0125242
1826,2582;0,0124904
1827,2224;0,0124384
1828,1866;0,0123524
1829,1509;0,0122277
1830,1151;0,0120923
1831,0793;0,0119978
1832,0436;0,0119819
1833,0078;0,0120404
1833,9720;0,0121356
1834,9363;0,0122236
1835,9005;0,0122783
1836,8647;0,0123042
1837,8290;0,0123299
1838,7932;0,0123831
1839,7574;0,0124668
1840,7217;0,0125559
1841,6859;0,0126096
1842,6501;0,0125911
1843,6144;0,0124927
1844,5786;0,0123517
1845,5428;0,0122288
1846,5071;0,0121597
1847,4713;0,0121362
1848,4355;0,0121289
1849,3998;0,0121157
1850,3640;0,0120937
1851,3282;0,0120735
1852,2925;0,0120663
1853,2567;0,0120749
1854,2209;0,0120942
1855,1852;0,0121175
1856,1494;0,012142
1857,1136;0,0121675
1858,0779;0,0121913
1859,0421;0,012207
1860,0063;0,0122109
1860,9706;0,0122105
1861,9348;0,0122254
1862,8990;0,0122759
1863,8633;0,0123666
1864,8275;0,0124766
1865,7917;0,0125608
1866,7560;0,0125666
1867,7202;0,0124663
1868,6844;0,012292
1869,6487;0,0121255
1870,6129;0,0120368
1871,5771;0,0120362
1872,5414;0,0120846
1873,5056;0,0121304
1874,4698;0,0121393
1875,4341;0,0121072
1876,3983;0,0120585
1877,3625;0,0120287
1878,3268;0,012043
1879,2910;0,012103
1880,2552;0,0121889
1881,2195;0,0122735
1882,1837;0,0123364
1883,1479;0,0123713
1884,1122;0,0123843
1885,0764;0,0123841
1886,0406;0,012375
1887,0049;0,0123552
1887,9691;0,0123227
1888,9333;0,012282
1889,8976;0,0122462
1890,8618;0,0122297
1891,8260;0,0122382
1892,7903;0,0122658
1893,7545;0,0123005
1894,7188;0,0123319
1895,6830;0,0123556
1896,6472;0,0123701
1897,6115;0,0123722
1898,5757;0,0123547
1899,5399;0,0123115
1900,5042;0,0122464
1901,4684;0,0121778
1902,4326;0,0121334
1903,3969;0,0121357
1904,3611;0,012188
1905,3253;0,0122723
1906,2896;0,0123591
1907,2538;0,0124219
1908,2180;0,0124474
1909,1823;0,0124373
1910,1465;0,0124018
1911,1107;0,0123509
1912,0750;0,0122893
1913,0392;0,0122186
1914,0034;0,0121425
1914,9677;0,0120727
1915,9319;0,0120285
1916,8961;0,0120314
1917,8604;0,0120923
1918,8246;0,0122015
1919,7888;0,0123286
1920,7531;0,012433
1921,7173;0,0124789
1922,6815;0,0124481
1923,6458;0,0123491
1924,6100;0,0122144
1925,5742;0,0120857
1926,5385;0,0119948
1927,5027;0,0119541
1928,4669;0,0119593
1929,4312;0,011997
1930,3954;0,0120518
1931,3596;0,0121112
1932,3239;0,0121681
1933,2881;0,0122207
1934,2523;0,012272
1935,2166;0,0123256
1936,1808;0,0123828
1937,1450;0,0124384
1938,1093;0,0124818
1939,0735;0,012501
1940,0377;0,0124887
1941,0020;0,0124474
1941,9662;0,0123909
1942,9304;0,0123374
1943,8947;0,0123004
1944,8589;0,0122824
1945,8231;0,0122774
1946,7874;0,0122791
1947,7516;0,0122864
1948,7158;0,012302
1949,6801;0,0123248
1950,6443;0,0123435
1951,6085;0,0123352
1952,5728;0,0122739
1953,5370;0,0121461
1954,5012;0,0119646
1955,4655;0,0117733
1956,4297;0,0116341
1957,3939;0,011603
1958,3582;0,0117026
1959,3224;0,0119079
1960,2866;0,0121546
1961,2509;0,0123684
1962,2151;0,012498
1963,1793;0,0125307
1964,1436;0,0124829
1965,1078;0,0123769
1966,0720;0,0122249
1967,0363;0,0120306
1968,0005;0,0118044
1968,9647;0,0115782
1969,9290;0,011404
1970,8932;0,0113354
1971,8574;0,0114044
1972,8217;0,0116036
1973,7859;0,0118817
1974,7501;0,0121595
1975,7144;0,0123641
1976,6786;0,0124669
1977,6428;0,0124983
1978,6071;0,0125217
1979,5713;0,0125829
1980,5355;0,0126761
1981,4998;0,0127488
1982,4640;0,012741
1983,4282;0,0126293
1984,3925;0,0124507
1985,3567;0,0122879
1986,3209;0,012221
1987,2852;0,0122773
1988,2494;0,0124121
1989,2136;0,0125377
1990,1779;0,012581
1991,1421;0,0125347
1992,1063;0,0124642
1993,0706;0,0124603
1994,0348;0,0125714
1994,9990;0,0127691
1995,9633;0,0129655
1996,9275;0,0130642
1997,8917;0,0130115
1998,8560;0,012823
1999,8202;0,0125745
2000,7844;0,0123602
2001,7487;0,0122469
2002,7129;0,0122478
2003,6771;0,0123275
2004,6414;0,0124278
2005,6056;0,0124984
2006,5698;0,0125208
2007,5341;0,0125147
2008,4983;0,0125243
2009,4625;0,0125931
2010,4268;0,0127406
2011,3910;0,0129507
2012,3552;0,0131745
2013,3195;0,0133435
2014,2837;0,0133915
2015,2479;0,0132831
2016,2122;0,0130375
2017,1764;0,0127355
2018,1406;0,0124941
2019,1049;0,0124177
2020,0691;0,0125509
2021,0333;0,0128577
2021,9976;0,0132357
2022,9618;0,0135577
2023,9260;0,0137245
2024,8903;0,0137034
2025,8545;0,0135336
2026,8187;0,0132968
2027,7830;0,0130734
2028,7472;0,0129135
2029,7114;0,0128373
2030,6757;0,0128536
2031,6399;0,0129738
2032,6041;0,0132025
2033,5684;0,0135132
2034,5326;0,0138351
2035,4968;0,0140764
2036,4611;0,0141719
2037,4253;0,0141215
2038,3895;0,0139883
2039,3538;0,0138578
2040,3180;0,0137848
2041,2822;0,0137643
2042,2465;0,0137468
2043,2107;0,0136841
2044,1749;0,0135705
2045,1392;0,0134471
2046,1034;0,0133716
2047,0676;0,0133782
2048,0320;0,0134597
2048,9961;0,0135841
2049,9604;0,0137234
2050,9246;0,0138674
2051,8889;0,0140125
2052,8530;0,0141452
2053,8174;0,0142401
2054,7815;0,0142766
2055,7458;0,0142605
2056,7100;0,0142275
2057,6743;0,0142205
2058,6384;0,0142559
2059,6028;0,0143067
2060,5669;0,0143174
2061,5313;0,0142421
2062,4954;0,0140776
2063,4597;0,0138702
2064,4238;0,0136902
2065,3882;0,0135937
2066,3523;0,0135961
2067,3167;0,0136723
2068,2808;0,0137765
2069,2451;0,0138657
2070,2092;0,013913
2071,1736;0,0139119
2072,1377;0,0138717
2073,1021;0,0138118
2074,0662;0,0137522
2075,0305;0,0137064
2075,9946;0,0136782
2076,9590;0,0136654
2077,9231;0,0136662
2078,8875;0,0136832
2079,8516;0,0137207
2080,8159;0,0137786
2081,7800;0,0138487
2082,7444;0,0139186
2083,7085;0,0139799
2084,6729;0,014033
2085,6370;0,0140837
2086,6013;0,0141348
2087,5654;0,0141789
2088,5298;0,0142016
2089,4939;0,0141913
2090,4583;0,0141493
2091,4224;0,0140921
2092,3867;0,0140445
2093,3508;0,01403
2094,3152;0,0140639
2095,2793;0,0141499
2096,2437;0,0142783
2097,2078;0,0144237
2098,1721;0,0145471
2099,1362;0,0146059
2100,1006;0,0145715
2101,0647;0,0144451
2102,0291;0,0142626
2102,9932;0,0140811
2103,9575;0,0139548
2104,9216;0,0139149
2105,8860;0,0139629
2106,8501;0,0140792
2107,8145;0,0142361
2108,7786;0,0144055
2109,7429;0,0145596
2110,7070;0,0146709
2111,6714;0,0147175
2112,6355;0,0146922
2113,5999;0,0146079
2114,5640;0,0144927
2115,5283;0,0143768
2116,4924;0,0142802
2117,4568;0,0142104
2118,4209;0,0141692
2119,3853;0,0141621
2120,3494;0,0141989
2121,3137;0,0142837
2122,2778;0,0144025
2123,2422;0,0145209
2124,2063;0,0145991
2125,1707;0,0146157
2126,1348;0,0145835
2127,0991;0,0145443
2128,0632;0,0145417
2129,0276;0,0145887
2129,9917;0,0146533
2130,9561;0,0146744
2131,9202;0,0146009
2132,8845;0,0144324
2133,8486;0,0142325
2134,8130;0,0141025
2135,7771;0,0141251
2136,7415;0,014315
2137,7056;0,0146095
2138,6699;0,0149039
2139,6340;0,0151056
2140,5984;0,0151751
2141,5625;0,0151374
2142,5269;0,0150653
2143,4910;0,0150444
2144,4553;0,015135
2145,4194;0,0153429
2146,3838;0,0156094
2147,3479;0,0158309
2148,3123;0,0159042
2149,2764;0,0157824
2150,2407;0,0155108
2151,2048;0,0152171
2152,1692;0,015054
2153,1333;0,0151222
2154,0977;0,0154154
2155,0618;0,015818
2156,0261;0,0161567
2156,9902;0,0162839
2157,9546;0,0161537
2158,9187;0,0158398
2159,8831;0,0154736
2160,8472;0,0151567
2161,8115;0,0149259
2162,7756;0,0147791
2163,7400;0,0147112
2164,7041;0,0147235
2165,6685;0,0148106
2166,6326;0,0149482
2167,5969;0,0150975
2168,5610;0,0152235
2169,5254;0,0153104
2170,4895;0,015362
2171,4539;0,015391
2172,4180;0,0154079
2173,3823;0,015419
2174,3464;0,01543
2175,3108;0,0154492
2176,2749;0,0154815
2177,2393;0,0155204
2178,2034;0,0155476
2179,1677;0,0155461
2180,1318;0,0155179
2181,0962;0,0154914
2182,0603;0,0155053
2183,0247;0,0155788
2183,9888;0,0156886
2184,9531;0,0157752
2185,9172;0,0157778
2186,8816;0,015672
2187,8457;0,015488
2188,8101;0,0152952
2189,7742;0,0151655
2190,7385;0,0151358
2191,7026;0,0151915
2192,6670;0,0152787
2193,6311;0,0153326
2194,5955;0,015308
2195,5596;0,0151943
2196,5239;0,0150138
2197,4880;0,0148071
2198,4524;0,0146179
2199,4165;0,0144822
2200,3809;0,0144242
2201,3450;0,0144539
2202,3093;0,0145632
2203,2734;0,0147231
2204,2378;0,0148864
2205,2019;0,0150024
2206,1663;0,0150369
2207,1304;0,0149889
2208,0947;0,0148913
2209,0588;0,0147933
2210,0232;0,0147341
2210,9873;0,0147237
2211,9517;0,0147433
2212,9158;0,014762
2213,8801;0,0147585
2214,8442;0,0147327
2215,8086;0,0147023
2216,7727;0,0146906
2217,7371;0,0147139
2218,7012;0,0147773
2219,6655;0,0148746
2220,6296;0,0149908
2221,5940;0,015102
2222,5581;0,0151784
2223,5225;0,0151913
2224,4866;0,015125
2225,4509;0,0149865
2226,4150;0,0148071
2227,3794;0,0146322
2228,3435;0,0145059
2229,3079;0,0144563
2230,2720;0,0144877
2231,2363;0,0145826
2232,2004;0,0147094
2233,1648;0,0148331
2234,1289;0,0149259
2235,0933;0,0149757
2236,0574;0,0149886
2237,0217;0,0149838
2237,9858;0,0149804
2238,9502;0,0149851
2239,9143;0,0149875
2240,8787;0,0149685
2241,8428;0,014917
2242,8071;0,0148421
2243,7712;0,0147715
2244,7356;0,014735
2245,6997;0,0147447
2246,6641;0,0147867
2247,6282;0,0148309
2248,5925;0,0148521
2249,5566;0,0148465
2250,5210;0,0148318
2251,4851;0,0148315
2252,4495;0,0148561
2253,4136;0,0148954
2254,3779;0,0149263
2255,3420;0,0149293
2256,3064;0,0148987
2257,2705;0,014843
2258,2349;0,0147746
2259,1990;0,0147033
2260,1633;0,0146353
2261,1274;0,0145787
2262,0918;0,0145478
2263,0559;0,0145583
2264,0203;0,0146174
2264,9844;0,0147148
2265,9487;0,0148228
2266,9128;0,0149061
2267,8772;0,0149391
2268,8413;0,0149166
2269,8057;0,0148558
2270,7698;0,0147856
2271,7341;0,0147319
2272,6982;0,0147048
2273,6626;0,0146977
2274,6267;0,0146948
2275,5911;0,0146851
2276,5552;0,0146712
2277,5195;0,0146671
2278,4836;0,0146884
2279,4480;0,0147405
2280,4121;0,0148142
2281,3765;0,0148917
2282,3406;0,0149575
2283,3049;0,0150066
2284,2690;0,015044
2285,2334;0,0150792
2286,1975;0,0151205
2287,1619;0,0151729
2288,1260;0,0152403
2289,0903;0,0153272
2290,0544;0,0154364
2291,0188;0,0155641
2291,9829;0,0156977
2292,9473;0,0158192
2293,9114;0,0159144
2294,8757;0,0159804
2295,8398;0,0160277
2296,8042;0,0160711
2297,7683;0,0161188
2298,7327;0,0161649
2299,6968;0,0161925
2300,6611;0,0161858
2301,6252;0,0161447
2302,5896;0,01609
2303,5537;0,0160582
2304,5181;0,0160843
2305,4822;0,0161813
2306,4465;0,016327
2307,4106;0,0164666
2308,3750;0,0165332
2309,3391;0,0164796
2310,3035;0,0163046
2311,2676;0,0160577
2312,2319;0,0158162
2313,1960;0,0156461
2314,1604;0,0155705
2315,1245;0,0155646
2316,0889;0,015577
2317,0530;0,0155625
2318,0173;0,015507
2318,9814;0,0154341
2319,9458;0,0153915
2320,9099;0,0154244
2321,8743;0,0155502
2322,8384;0,0157475
2323,8027;0,0159643
2324,7668;0,0161372
2325,7312;0,0162147
2326,6953;0,0161746
2327,6597;0,0160328
2328,6238;0,0158381
2329,5881;0,0156556
2330,5522;0,0155435
2331,5166;0,0155313
2332,4807;0,0156087
2333,4451;0,0157316
2334,4092;0,015844
2335,3735;0,0159054
2336,3376;0,0159125
2337,3020;0,0159027
2338,2661;0,0159331
2339,2305;0,0160398
2340,1946;0,016194
2341,1589;0,0162879
2342,1230;0,0161813
2343,0874;0,0158308
2344,0515;0,0154202
2345,0159;0,0152815
2345,9800;0,0156001
2346,9443;0,016257
2347,9084;0,0169576
2348,8728;0,0174378
2349,8369;0,0175815
2350,8013;0,01744
2351,7654;0,0171836
2352,7297;0,0170027
2353,6938;0,0170027
2354,6582;0,0171706
2355,6223;0,0174324
2356,5867;0,0177114
2357,5508;0,0179315
2358,5151;0,0180124
2359,4792;0,0178978
2360,4436;0,017589
2361,4077;0,0171381
2362,3721;0,016612
2363,3362;0,01607
2364,3005;0,0155628
2365,2646;0,0151289
2366,2290;0,0147797
2367,1931;0,0144936
2368,1575;0,0142319
2369,1216;0,013968
2370,0859;0,0137047
2371,0500;0,0134693
2372,0144;0,013296
2372,9785;0,0132095
2373,9429;0,0132204
2374,9070;0,0133267
2375,8713;0,0135171
2376,8354;0,0137731
2377,7998;0,0140696
2378,7639;0,0143768
2379,7283;0,0146634
2380,6924;0,0149016
2381,6567;0,0150725
2382,6208;0,0151703
2383,5852;0,0152031
2384,5493;0,0151901
2385,5137;0,0151562
2386,4778;0,015124
2387,4421;0,0151082
2388,4063;0,015113
2389,3706;0,0151337
2390,3347;0,0151607
2391,2991;0,0151845
2392,2632;0,0151986
2393,2275;0,0152011
2394,1917;0,015194
2395,1560;0,0151825
2396,1201;0,0151744
2397,0845;0,0151773
2398,0486;0,0151966
2399,0129;0,0152309
2399,9771;0,0152718
2400,9414;0,0153072
2401,9055;0,0153267
2402,8699;0,0153275
2403,8340;0,0153156
2404,7983;0,0153026
2405,7625;0,015299
2406,7268;0,0153082
2407,6909;0,0153262
2408,6553;0,0153467
2409,6194;0,0153658
2410,5837;0,0153855
2411,5479;0,0154101
2412,5122;0,0154419
2413,4763;0,0154768
2414,4407;0,0155066
2415,4048;0,0155245
2416,3691;0,01553
2417,3333;0,01553
2418,2976;0,015534
2419,2617;0,0155485
2420,2261;0,015573
2421,1902;0,0156014
2422,1545;0,0156272
2423,1187;0,0156469
2424,0830;0,0156607
2425,0471;0,0156702
2426,0115;0,0156765
2426,9756;0,0156805
2427,9399;0,0156862
2428,9041;0,0157014
2429,8684;0,0157342
2430,8325;0,0157865
2431,7969;0,0158491
2432,7610;0,0159029
2433,7253;0,0159282
2434,6895;0,0159172
2435,6538;0,0158796
2436,6179;0,0158385
2437,5823;0,0158176
2438,5464;0,0158275
2439,5107;0,0158609
2440,4749;0,0158992
2441,4392;0,0159255
2442,4033;0,0159355
2443,3677;0,015939
2444,3318;0,0159507
2445,2961;0,0159801
2446,2603;0,0160243
2447,2246;0,0160711
2448,1887;0,0161077
2449,1531;0,0161275
2450,1172;0,0161336
2451,0815;0,0161342
2452,0457;0,0161374
2453,0100;0,0161468
2453,9741;0,016161
2454,9385;0,0161766
2455,9026;0,0161906
2456,8669;0,0162022
2457,8311;0,0162123
2458,7954;0,0162223
2459,7595;0,0162336
2460,7239;0,0162467
2461,6880;0,0162614
2462,6523;0,0162776
2463,6165;0,0162958
2464,5808;0,0163172
2465,5449;0,0163431
2466,5093;0,016373
2467,4734;0,0164041
2468,4377;0,0164315
2469,4019;0,0164507
2470,3662;0,0164597
2471,3303;0,0164603
2472,2947;0,016457
2473,2588;0,016455
2474,2231;0,0164572
2475,1873;0,0164644
2476,1516;0,0164764
2477,1157;0,0164925
2478,0801;0,0165128
2479,0442;0,0165362
2480,0085;0,0165594
2480,9727;0,016577
2481,9370;0,0165833
2482,9011;0,016576
2483,8655;0,0165575
2484,8296;0,0165354
2485,7939;0,016519
2486,7581;0,0165163
2487,7224;0,016531
2488,6865;0,0165626
2489,6509;0,0166066
2490,6150;0,0166564
2491,5793;0,0167044
2492,5435;0,0167439
2493,5078;0,0167712
2494,4719;0,0167872
2495,4363;0,0167971
2496,4004;0,0168081
2497,3647;0,0168239
2498,3289;0,0168426
2499,2932;0,0168571
2500,2573;0,0168601
2501,2217;0,0168501
2502,1858;0,0168334
2503,1501;0,0168212
2504,1143;0,0168225
2505,0786;0,0168387
2506,0427;0,0168641
2507,0071;0,0168898
2507,9712;0,0169093
2508,9355;0,0169214
2509,8997;0,0169277
2510,8640;0,01693
2511,8281;0,016929
2512,7925;0,0169261
2513,7566;0,0169259
2514,7209;0,0169352
2515,6851;0,0169584
2516,6494;0,0169918
2517,6135;0,017023
2518,5779;0,0170371
2519,5420;0,0170253
2520,5063;0,0169917
2521,4705;0,0169516
2522,4348;0,0169238
2523,3989;0,0169208
2524,3633;0,0169441
2525,3274;0,016986
2526,2917;0,017035
2527,2559;0,0170804
2528,2202;0,0171141
2529,1843;0,0171301
2530,1487;0,017126
2531,1128;0,017105
2532,0771;0,0170779
2533,0413;0,0170605
2534,0056;0,0170667
2534,9697;0,0171009
2535,9341;0,0171544
2536,8982;0,0172098
2537,8625;0,0172493
2538,8267;0,0172629
2539,7910;0,0172518
2540,7551;0,0172253
2541,7195;0,0171954
2542,6836;0,0171721
2543,6479;0,0171614
2544,6121;0,0171643
2545,5764;0,0171778
2546,5405;0,0171958
2547,5049;0,0172104
2548,4690;0,0172154
2549,4333;0,0172091
2550,3975;0,0171947
2551,3618;0,0171788
2552,3259;0,0171671
2553,2903;0,0171625
2554,2544;0,0171651
2555,2188;0,0171745
2556,1829;0,0171918
2557,1472;0,0172185
2558,1113;0,0172544
2559,0757;0,0172953
2560,0398;0,0173326
2561,0042;0,0173563
2561,9683;0,0173597
2562,9326;0,0173423
2563,8967;0,0173109
2564,8611;0,0172771
2565,8252;0,0172529
2566,7896;0,0172468
2567,7537;0,0172603
2568,7180;0,0172874
2569,6821;0,0173183
2570,6465;0,0173434
2571,6106;0,0173581
2572,5750;0,0173635
2573,5391;0,0173648
2574,5034;0,0173665
2575,4675;0,0173698
2576,4319;0,0173723
2577,3960;0,0173706
2578,3604;0,0173637
2579,3245;0,0173539
2580,2888;0,0173456
2581,2529;0,0173433
2582,2173;0,0173499
2583,1814;0,0173666
2584,1458;0,0173935
2585,1099;0,0174292
2586,0742;0,0174695
2587,0383;0,0175075
2588,0027;0,0175349
2588,9668;0,0175459
2589,9312;0,0175404
2590,8953;0,0175251
2591,8596;0,0175108
2592,8237;0,0175074
2593,7881;0,0175201
2594,7522;0,0175472
2595,7166;0,0175817
2596,6807;0,0176153
2597,6450;0,0176421
2598,6091;0,0176605
2599,5735;0,0176735
2600,5376;0,0176861
2601,5020;0,0177021
2602,4661;0,0177225
2603,4304;0,0177447
2604,3945;0,017765
2605,3589;0,0177807
2606,3230;0,0177918
2607,2874;0,0177998
2608,2515;0,017807
2609,2158;0,0178144
2610,1799;0,0178223
2611,1443;0,017832
2612,1084;0,017846
2613,0728;0,0178676
2614,0369;0,0178978
2615,0012;0,0179341
2615,9653;0,0179712
2616,9297;0,0180033
2617,8938;0,0180273
2618,8582;0,0180441
2619,8223;0,0180569
2620,7866;0,0180683
2621,7507;0,0180791
2622,7151;0,0180884
2623,6792;0,0180958
2624,6436;0,0181033
2625,6077;0,0181143
2626,5720;0,018132
2627,5361;0,0181563
2628,5005;0,0181836
2629,4646;0,0182084
2630,4290;0,0182266
2631,3931;0,0182377
2632,3574;0,0182448
2633,3215;0,0182529
2634,2859;0,018266
2635,2500;0,0182849
2636,2144;0,0183077
2637,1785;0,0183315
2638,1428;0,0183541
2639,1069;0,018375
2640,0713;0,0183948
2641,0354;0,0184139
2641,9998;0,0184323
2642,9639;0,0184496
2643,9282;0,0184656
2644,8923;0,0184807
2645,8567;0,0184959
2646,8208;0,018512
2647,7852;0,0185295
2648,7493;0,0185483
2649,7136;0,0185685
2650,6777;0,0185906
2651,6421;0,0186153
2652,6062;0,0186428
2653,5706;0,0186726
2654,5347;0,0187033
2655,4990;0,018733
2656,4631;0,01876
2657,4275;0,0187831
2658,3916;0,0188023
2659,3560;0,018818
2660,3201;0,0188313
2661,2844;0,0188433
2662,2485;0,0188556
2663,2129;0,0188697
2664,1770;0,0188868
2665,1414;0,0189075
2666,1055;0,0189305
2667,0698;0,0189531
2668,0339;0,0189718
2668,9983;0,0189844
2669,9624;0,0189915
2670,9268;0,0189966
2671,8909;0,0190046
2672,8552;0,0190194
2673,8193;0,0190421
2674,7837;0,0190702
2675,7478;0,0190998
2676,7122;0,0191269
2677,6763;0,01915
2678,6406;0,0191698
2679,6047;0,0191887
2680,5691;0,0192096
2681,5332;0,0192342
2682,4976;0,019263
2683,4617;0,0192951
2684,4260;0,0193291
2685,3901;0,0193637
2686,3545;0,0193983
2687,3186;0,0194327
2688,2830;0,0194661
2689,2471;0,0194971
2690,2114;0,0195237
2691,1755;0,0195445
2692,1399;0,0195603
2693,1040;0,0195738
2694,0684;0,0195886
2695,0325;0,0196072
2695,9968;0,01963
2696,9609;0,0196558
2697,9253;0,0196829
2698,8894;0,0197104
2699,8538;0,0197383
2700,8179;0,0197668
2701,7822;0,019796
2702,7463;0,0198255
2703,7107;0,0198552
2704,6748;0,0198854
2705,6392;0,0199163
2706,6033;0,0199469
2707,5676;0,0199759
2708,5317;0,0200024
2709,4961;0,0200272
2710,4602;0,020053
2711,4246;0,0200829
2712,3887;0,0201177
2713,3530;0,0201553
2714,3171;0,0201916
2715,2815;0,020223
2716,2456;0,0202487
2717,2100;0,0202705
2718,1741;0,0202908
2719,1384;0,0203109
2720,1025;0,0203293
2721,0669;0,0203435
2722,0310;0,0203522
2722,9954;0,0203571
2723,9595;0,0203631
2724,9238;0,0203761
2725,8879;0,0203999
2726,8523;0,0204344
2727,8164;0,0204758
2728,7808;0,0205184
2729,7449;0,0205569
2730,7092;0,020589
2731,6733;0,0206147
2732,6377;0,0206359
2733,6018;0,0206537
2734,5662;0,0206684
2735,5303;0,0206798
2736,4946;0,0206887
2737,4587;0,0206977
2738,4231;0,0207109
2739,3872;0,0207317
2740,3516;0,0207608
2741,3157;0,0207956
2742,2800;0,0208312
2743,2441;0,0208616
2744,2085;0,020882
2745,1726;0,0208901
2746,1370;0,0208867
2747,1011;0,0208763
2748,0654;0,0208669
2749,0295;0,0208684
2749,9939;0,0208886
2750,9580;0,0209297
2751,9224;0,0209861
2752,8865;0,0210464
2753,8508;0,0210978
2754,8149;0,0211323
2755,7793;0,0211492
2756,7434;0,0211544
2757,7078;0,0211569
2758,6719;0,0211643
2759,6362;0,0211808
2760,6003;0,0212069
2761,5647;0,0212404
2762,5288;0,0212776
2763,4932;0,0213142
2764,4573;0,0213463
2765,4216;0,0213728
2766,3857;0,021396
2767,3501;0,0214211
2768,3142;0,021454
2769,2786;0,0214975
2770,2427;0,0215491
2771,2070;0,0216015
2772,1711;0,0216461
2773,1355;0,0216778
2774,0996;0,0216976
2775,0640;0,0217125
2776,0281;0,0217314
2776,9924;0,0217612
2777,9565;0,0218024
2778,9209;0,0218503
2779,8850;0,0218979
2780,8494;0,0219411
2781,8135;0,0219807
2782,7778;0,0220219
2783,7419;0,0220694
2784,7063;0,022124
2785,6704;0,0221814
2786,6348;0,0222355
2787,5989;0,0222833
2788,5632;0,022327
2789,5273;0,022373
2790,4917;0,0224271
2791,4558;0,0224903
2792,4202;0,022558
2793,3843;0,0226235
2794,3486;0,0226826
2795,3127;0,0227364
2796,2771;0,0227904
2797,2412;0,0228508
2798,2056;0,0229204
2799,1697;0,0229968
2800,1340;0,0230739
2801,0981;0,023146
2802,0625;0,0232111
2803,0266;0,0232719
2803,9910;0,0233342
2804,9551;0,0234029
2805,9194;0,0234796
2806,8835;0,0235611
2807,8479;0,0236428
2808,8120;0,0237215
2809,7764;0,023798
2810,7405;0,0238767
2811,7048;0,0239623
2812,6689;0,0240572
2813,6333;0,0241596
2814,5974;0,0242651
2815,5618;0,0243698
2816,5259;0,0244726
2817,4902;0,0245754
2818,4543;0,0246818
2819,4187;0,0247943
2820,3828;0,0249135
2821,3472;0,0250375
2822,3113;0,0251634
2823,2756;0,0252893
2824,2397;0,0254149
2825,2041;0,0255424
2826,1682;0,0256751
2827,1326;0,0258172
2828,0967;0,0259723
2829,0610;0,0261427
2830,0251;0,0263296
2830,9895;0,0265315
2831,9536;0,026744
2832,9180;0,02696
2833,8821;0,0271719
2834,8464;0,0273757
2835,8105;0,0275759
2836,7749;0,0277859
2837,7390;0,0280252
2838,7034;0,0283118
2839,6675;0,028655
2840,6318;0,0290531
2841,5959;0,0294968
2842,5603;0,029976
2843,5244;0,030484
2844,4888;0,0310156
2845,4529;0,0315592
2846,4172;0,0320889
2847,3813;0,0325629
2848,3457;0,0329318
2849,3098;0,0331543
2850,2742;0,0332129
2851,2383;0,0331208
2852,2026;0,0329182
2853,1667;0,032658
2854,1311;0,0323906
2855,0952;0,0321517
2856,0596;0,0319597
2857,0237;0,0318192
2857,9880;0,0317288
2858,9521;0,0316867
2859,9165;0,0316921
2860,8806;0,0317435
2861,8450;0,0318355
2862,8091;0,0319581
2863,7734;0,0320992
2864,7375;0,032248
2865,7019;0,0323978
2866,6660;0,0325447
2867,6304;0,0326858
2868,5945;0,0328164
2869,5588;0,0329311
2870,5229;0,0330267
2871,4873;0,0331053
2872,4514;0,0331742
2873,4158;0,0332432
2874,3799;0,0333195
2875,3442;0,0334042
2876,3083;0,0334931
2877,2727;0,0335802
2878,2368;0,0336622
2879,2012;0,033741
2880,1653;0,0338223
2881,1296;0,0339118
2882,0938;0,0340119
2883,0581;0,0341199
2884,0222;0,0342293
2884,9866;0,0343329
2885,9507;0,034427
2886,9150;0,034513
2887,8792;0,0345959
2888,8435;0,0346813
2889,8076;0,0347722
2890,7720;0,0348671
2891,7361;0,0349621
2892,7004;0,035054
2893,6646;0,0351423
2894,6289;0,0352299
2895,5930;0,0353207
2896,5574;0,0354163
2897,5215;0,0355147
2898,4858;0,0356109
2899,4500;0,0356996
2900,4143;0,0357779
2901,3784;0,0358467
2902,3428;0,0359109
2903,3069;0,0359773
2904,2712;0,0360533
2905,2354;0,0361457
2906,1997;0,0362608
2907,1638;0,036406
2908,1282;0,0365902
2909,0923;0,036823
2910,0566;0,0371107
2911,0208;0,0374513
2911,9851;0,0378303
2912,9492;0,0382191
2913,9136;0,0385785
2914,8777;0,0388659
2915,8420;0,0390438
2916,8062;0,0390879
2917,7705;0,0389921
2918,7346;0,0387688
2919,6990;0,0384454
2920,6631;0,0380563
2921,6274;0,0376353
2922,5916;0,0372082
2923,5559;0,0367909
2924,5200;0,0363904
2925,4844;0,0360097
2926,4485;0,0356506
2927,4128;0,0353156
2928,3770;0,0350074
2929,3413;0,0347266
2930,3054;0,0344718
2931,2698;0,0342391
2932,2339;0,0340235
2933,1982;0,0338199
2934,1624;0,0336234
2935,1267;0,0334308
2936,0908;0,0332407
2937,0552;0,0330534
2938,0193;0,0328693
2938,9836;0,0326875
2939,9478;0,032504
2940,9121;0,0323136
2941,8762;0,0321116
2942,8406;0,031897
2943,8047;0,0316734
2944,7690;0,0314474
2945,7332;0,0312264
2946,6975;0,0310165
2947,6616;0,0308216
2948,6260;0,0306427
2949,5901;0,0304791
2950,5544;0,030328
2951,5186;0,0301858
2952,4829;0,0300485
2953,4470;0,0299133
2954,4114;0,0297786
2955,3755;0,0296438
2956,3398;0,0295086
2957,3040;0,0293722
2958,2683;0,0292345
2959,2324;0,0290963
2960,1968;0,02896
2961,1609;0,028828
2962,1252;0,0287009
2963,0894;0,0285769
2964,0537;0,0284522
2965,0178;0,0283239
2965,9822;0,0281918
2966,9463;0,0280589
2967,9106;0,0279285
2968,8748;0,027802
2969,8391;0,0276766
2970,8032;0,0275474
2971,7676;0,0274108
2972,7317;0,0272687
2973,6960;0,0271282
2974,6602;0,0269988
2975,6245;0,0268859
2976,5886;0,0267882
2977,5530;0,0266977
2978,5171;0,0266049
2979,4814;0,0265051
2980,4456;0,0264008
2981,4099;0,0262998
2982,3740;0,0262102
2983,3384;0,0261359
2984,3025;0,0260753
2985,2668;0,026024
2986,2310;0,0259782
2987,1953;0,025937
2988,1594;0,0259016
2989,1238;0,0258732
2990,0879;0,0258513
2991,0522;0,0258335
2992,0164;0,0258168
2992,9807;0,0257996
2993,9448;0,0257823
2994,9092;0,0257673
2995,8733;0,0257579
2996,8376;0,0257569
2997,8018;0,0257659
2998,7661;0,0257841
2999,7302;0,0258097
3000,6946;0,0258398
3001,6587;0,0258725
3002,6230;0,0259071
3003,5872;0,0259438
3004,5515;0,0259822
3005,5156;0,0260205
3006,4800;0,0260556
3007,4441;0,0260847
3008,4084;0,0261071
3009,3726;0,0261252
3010,3369;0,0261447
3011,3010;0,026172
3012,2654;0,0262109
3013,2295;0,0262612
3014,1938;0,0263179
3015,1580;0,0263747
3016,1223;0,0264275
3017,0864;0,0264772
3018,0508;0,0265291
3019,0149;0,0265904
3019,9792;0,0266646
3020,9434;0,0267494
3021,9077;0,0268375
3022,8718;0,0269205
3023,8362;0,0269951
3024,8003;0,0270645
3025,7646;0,0271368
3026,7288;0,0272188
3027,6931;0,0273113
3028,6572;0,0274076
3029,6216;0,0274967
3030,5857;0,0275697
3031,5500;0,0276245
3032,5142;0,0276675
3033,4785;0,02771
3034,4426;0,0277626
3035,4070;0,027831
3036,3711;0,0279144
3037,3354;0,0280073
3038,2996;0,0281029
3039,2639;0,0281961
3040,2280;0,0282853
3041,1924;0,0283729
3042,1565;0,028463
3043,1208;0,0285589
3044,0850;0,0286611
3045,0493;0,028766
3046,0134;0,0288685
3046,9778;0,0289651
3047,9419;0,0290567
3048,9063;0,0291476
3049,8704;0,0292429
3050,8347;0,0293444
3051,7988;0,0294494
3052,7632;0,0295533
3053,7273;0,0296539
3054,6917;0,0297533
3055,6558;0,0298567
3056,6201;0,0299673
3057,5842;0,0300829
3058,5486;0,030197
3059,5127;0,030303
3060,4771;0,0303994
3061,4412;0,0304905
3062,4055;0,0305829
3063,3696;0,0306807
3064,3340;0,030782
3065,2981;0,0308814
3066,2625;0,0309741
3067,2266;0,0310604
3068,1909;0,0311459
3069,1550;0,0312383
3070,1194;0,0313432
3071,0835;0,0314609
3072,0479;0,0315862
3073,0120;0,0317109
3073,9763;0,0318265
3074,9404;0,0319279
3075,9048;0,0320147
3076,8689;0,0320916
3077,8333;0,0321662
3078,7974;0,032245
3079,7617;0,032331
3080,7258;0,0324224
3081,6902;0,0325147
3082,6543;0,0326041
3083,6187;0,0326903
3084,5828;0,0327766
3085,5471;0,0328682
3086,5112;0,0329696
3087,4756;0,0330824
3088,4397;0,0332054
3089,4041;0,0333349
3090,3682;0,0334657
3091,3325;0,033593
3092,2966;0,033713
3093,2610;0,0338241
3094,2251;0,0339273
3095,1895;0,0340246
3096,1536;0,0341182
3097,1179;0,0342083
3098,0820;0,0342946
3099,0464;0,0343773
3100,0105;0,0344597
3100,9749;0,0345484
3101,9390;0,03465
3102,9033;0,0347675
3103,8674;0,0348975
3104,8318;0,0350307
3105,7959;0,0351572
3106,7603;0,0352712
3107,7244;0,0353749
3108,6887;0,0354766
3109,6528;0,0355862
3110,6172;0,0357093
3111,5813;0,0358445
3112,5457;0,0359851
3113,5098;0,0361234
3114,4741;0,0362544
3115,4382;0,0363777
3116,4026;0,0364954
3117,3667;0,0366095
3118,3311;0,0367201
3119,2952;0,0368259
3120,2595;0,0369261
3121,2236;0,0370223
3122,1880;0,0371197
3123,1521;0,0372254
3124,1165;0,0373468
3125,0806;0,0374881
3126,0449;0,0376481
3127,0090;0,0378188
3127,9734;0,0379876
3128,9375;0,038142
3129,9019;0,038275
3130,8660;0,0383892
3131,8303;0,0384952
3132,7944;0,038607
3133,7588;0,0387339
3134,7229;0,0388763
3135,6873;0,0390269
3136,6514;0,0391761
3137,6157;0,0393176
3138,5798;0,0394516
3139,5442;0,0395823
3140,5083;0,0397144
3141,4727;0,0398506
3142,4368;0,0399915
3143,4011;0,0401376
3144,3652;0,0402895
3145,3296;0,0404468
3146,2937;0,0406062
3147,2581;0,040761
3148,2222;0,0409048
3149,1865;0,0410354
3150,1506;0,0411578
3151,1150;0,0412817
3152,0791;0,0414159
3153,0435;0,0415629
3154,0076;0,0417177
3154,9719;0,0418717
3155,9360;0,042019
3156,9004;0,0421605
3157,8645;0,0423031
3158,8289;0,0424547
3159,7930;0,0426191
3160,7573;0,0427936
3161,7214;0,0429713
3162,6858;0,0431446
3163,6499;0,0433089
3164,6143;0,0434631
3165,5784;0,0436087
3166,5427;0,0437485
3167,5068;0,043886
3168,4712;0,0440262
3169,4353;0,0441444
3170,3997;0,0443056
3171,3638;0,0444805
3172,3281;0,0446647
3173,2922;0,0448494
3174,2566;0,045025
3175,2207;0,0451856
3176,1851;0,0453311
3177,1492;0,0454678
3178,1135;0,0456043
3179,0776;0,0457474
3180,0420;0,0458985
3181,0061;0,0460533
3181,9705;0,0462053
3182,9346;0,0463501
3183,8989;0,0464874
3184,8630;0,046622
3185,8274;0,04676
3186,7915;0,0469058
3187,7559;0,04706
3188,7200;0,0472202
3189,6843;0,0473832
3190,6484;0,0475459
3191,6128;0,0477061
3192,5769;0,0478607
3193,5413;0,0480061
3194,5054;0,0481397
3195,4697;0,0482625
3196,4338;0,0483799
3197,3982;0,0485002
3198,3623;0,0486301
3199,3267;0,0487718
3200,2908;0,0489222
3201,2551;0,0490756
3202,2192;0,0492284
3203,1836;0,0493798
3204,1477;0,0495314
3205,1121;0,0496837
3206,0762;0,0498347
3207,0405;0,0499808
3208,0046;0,0501189
3208,9690;0,0502493
3209,9331;0,0503758
3210,8975;0,0505038
3211,8616;0,0506376
3212,8259;0,0507783
3213,7900;0,0509233
3214,7544;0,051068
3215,7185;0,0512069
3216,6829;0,0513366
3217,6470;0,0514571
3218,6113;0,0515724
3219,5754;0,0516889
3220,5398;0,0518121
3221,5039;0,0519442
3222,4683;0,0520836
3223,4324;0,0522277
3224,3967;0,0523759
3225,3608;0,0525311
3226,3252;0,0526964
3227,2893;0,0528701
3228,2537;0,0530427
3229,2178;0,0531996
3230,1821;0,0533296
3231,1462;0,0534324
3232,1106;0,0535214
3233,0747;0,053617
3234,0391;0,0537362
3235,0032;0,0538834
3235,9675;0,0540502
3236,9316;0,0542217
3237,8960;0,0543863
3238,8601;0,0545405
3239,8245;0,0546871
3240,7886;0,0548294
3241,7529;0,0549663
3242,7170;0,0550932
3243,6814;0,0552066
3244,6455;0,055309
3245,6099;0,0554106
3246,5740;0,0555245
3247,5383;0,055661
3248,5024;0,0558233
3249,4668;0,0560068
3250,4309;0,0562016
3251,3953;0,0563959
3252,3594;0,0565793
3253,3237;0,0567465
3254,2878;0,0568993
3255,2522;0,057046
3256,2163;0,0571975
3257,1807;0,0573608
3258,1448;0,0575335
3259,1091;0,0577046
3260,0732;0,0578609
3261,0376;0,057996
3262,0017;0,0581152
3262,9661;0,0582329
3263,9302;0,0583638
3264,8945;0,0585145
3265,8586;0,0586798
3266,8230;0,0588479
3267,7871;0,0590075
3268,7515;0,0591525
3269,7156;0,0592806
3270,6799;0,05939
3271,6440;0,0594767
3272,6084;0,0595374
3273,5725;0,0595746
3274,5369;0,0595991
3275,5010;0,0596264
3276,4653;0,0596694
3277,4294;0,0597318
3278,3938;0,0598079
3279,3579;0,0598872
3280,3223;0,0599615
3281,2864;0,0600276
3282,2507;0,060087
3283,2148;0,0601416
3284,1792;0,0601912
3285,1433;0,0602328
3286,1077;0,0602632
3287,0718;0,0602799
3288,0361;0,0602833
3289,0002;0,060276
3289,9646;0,0602632
3290,9287;0,0602512
3291,8931;0,0602462
3292,8572;0,0602514
3293,8215;0,0602653
3294,7856;0,0602822
3295,7500;0,060295
3296,7141;0,0602995
3297,6785;0,0602963
3298,6426;0,0602902
3299,6069;0,060286
3300,5710;0,0602851
3301,5354;0,0602843
3302,4995;0,0602775
3303,4639;0,0602598
3304,4280;0,0602305
3305,3923;0,0601936
3306,3564;0,0601563
3307,3208;0,0601256
3308,2849;0,0601052
3309,2493;0,0600941
3310,2134;0,0600882
3311,1777;0,0600831
3312,1418;0,0600778
3313,1062;0,0600765
3314,0703;0,0600868
3315,0347;0,0601157
3315,9988;0,0601654
3316,9631;0,0602311
3317,9272;0,0603029
3318,8916;0,0603702
3319,8557;0,0604267
3320,8201;0,060472
3321,7842;0,0605104
3322,7485;0,0605476
3323,7126;0,0605878
3324,6770;0,060633
3325,6411;0,0606839
3326,6055;0,060742
3327,5696;0,0608083
3328,5339;0,0608832
3329,4980;0,0609634
3330,4624;0,061042
3331,4265;0,0611092
3332,3909;0,0611549
3333,3550;0,0611719
3334,3193;0,0611578
3335,2834;0,0611161
3336,2478;0,0610546
3337,2119;0,0609827
3338,1763;0,0609081
3339,1404;0,060834
3340,1047;0,060759
3341,0688;0,0606796
3342,0332;0,0605928
3342,9973;0,0604985
3343,9617;0,0603989
3344,9258;0,0602967
3345,8901;0,060192
3346,8542;0,0600821
3347,8186;0,0599626
3348,7827;0,0598307
3349,7471;0,0596866
3350,7112;0,0595337
3351,6755;0,0593767
3352,6396;0,0592198
3353,6040;0,059066
3354,5681;0,0589178
3355,5325;0,0587775
3356,4966;0,058647
3357,4609;0,0585262
3358,4250;0,0584119
3359,3894;0,0582989
3360,3535;0,058182
3361,3179;0,0580586
3362,2820;0,0579301
3363,2463;0,0578001
3364,2104;0,0576724
3365,1748;0,0575481
3366,1389;0,0574254
3367,1033;0,0573002
3368,0674;0,0571693
3369,0317;0,0570313
3369,9958;0,0568871
3370,9602;0,0567389
3371,9243;0,0565897
3372,8887;0,0564425
3373,8528;0,0563006
3374,8171;0,056168
3375,7813;0,0560478
3376,7456;0,0559403
3377,7097;0,0558418
3378,6741;0,0557436
3379,6382;0,0556352
3380,6025;0,0555086
3381,5667;0,0553628
3382,5310;0,055206
3383,4951;0,0550532
3384,4595;0,0549203
3385,4236;0,0548164
3386,3879;0,0547393
3387,3521;0,054676
3388,3164;0,0546091
3389,2805;0,0545243
3390,2449;0,0544162
3391,2090;0,0542892
3392,1733;0,0541537
3393,1375;0,05402
3394,1018;0,0538929
3395,0659;0,053771
3396,0303;0,0536487
3396,9944;0,0535203
3397,9587;0,0533831
3398,9229;0,053238
3399,8872;0,0530887
3400,8513;0,0529399
3401,8157;0,0527955
3402,7798;0,0526578
3403,7441;0,0525263
3404,7083;0,0523988
3405,6726;0,052272
3406,6367;0,0521434
3407,6011;0,0520105
3408,5652;0,0518705
3409,5295;0,0517198
3410,4937;0,0515553
3411,4580;0,0513776
3412,4221;0,0511934
3413,3865;0,0510139
3414,3506;0,0508491
3415,3149;0,0507011
3416,2791;0,0505615
3417,2434;0,0504145
3418,2075;0,0502459
3419,1719;0,0500506
3420,1360;0,0498362
3421,1003;0,049618
3422,0645;0,0494096
3423,0288;0,0492164
3423,9929;0,0490351
3424,9573;0,0488583
3425,9214;0,0486807
3426,8857;0,0485015
3427,8499;0,0483228
3428,8142;0,0481465
3429,7783;0,0479722
3430,7427;0,0477974
3431,7068;0,0476198
3432,6711;0,0474404
3433,6353;0,0472637
3434,5996;0,0470953
3435,5637;0,0469375
3436,5281;0,0467863
3437,4922;0,0466332
3438,4565;0,0464691
3439,4207;0,0462907
3440,3850;0,0461013
3441,3491;0,0459068
3442,3135;0,045709
3443,2776;0,0455028
3444,2419;0,045279
3445,2061;0,0450339
3446,1704;0,0447757
3447,1345;0,044524
3448,0989;0,0442982
3449,0630;0,0441061
3450,0273;0,0439397
3450,9915;0,0437824
3451,9558;0,0436199
3452,9199;0,0434474
3453,8843;0,0432699
3454,8484;0,0430958
3455,8127;0,0429291
3456,7769;0,0427655
3457,7412;0,0425936
3458,7053;0,0424017
3459,6697;0,0421847
3460,6338;0,0419488
3461,5981;0,0417091
3462,5623;0,0414831
3463,5266;0,0412804
3464,4907;0,0410975
3465,4551;0,0409201
3466,4192;0,0407327
3467,3835;0,0405285
3468,3477;0,0403128
3469,3120;0,0400971
3470,2761;0,0398882
3471,2405;0,0396836
3472,2046;0,039475
3473,1689;0,0392599
3474,1331;0,039048
3475,0974;0,0388577
3476,0615;0,0387021
3477,0259;0,0385768
3477,9900;0,0384592
3478,9543;0,0383208
3479,9185;0,0381445
3480,8828;0,0379342
3481,8469;0,0377113
3482,8113;0,0374981
3483,7754;0,0373019
3484,7397;0,0371131
3485,7039;0,036915
3486,6682;0,0366987
3487,6323;0,0364702
3488,5967;0,0362477
3489,5608;0,0360494
3490,5251;0,0358817
3491,4893;0,0357355
3492,4536;0,0355933
3493,4177;0,0354403
3494,3821;0,0352755
3495,3462;0,0351129
3496,3105;0,0349723
3497,2747;0,0348619
3498,2390;0,0347675
3499,2031;0,0346548
3500,1675;0,0344877
3501,1316;0,034251
3502,0959;0,0339666
3503,0601;0,0336865
3504,0244;0,0334601
3504,9885;0,0333006
3505,9529;0,0331788
3506,9170;0,0330456
3507,8813;0,0328639
3508,8455;0,03263
3509,8098;0,032374
3510,7739;0,0321375
3511,7383;0,0319449
3512,7024;0,031792
3513,6667;0,0316571
3514,6309;0,031522
3515,5952;0,0313858
3516,5593;0,031262
3517,5237;0,0311639
3518,4878;0,0310903
3519,4521;0,0310223
3520,4163;0,0309329
3521,3806;0,0308015
3522,3447;0,0306241
3523,3091;0,0304108
3524,2732;0,0301748
3525,2375;0,0299226
3526,2017;0,0296548
3527,1660;0,0293767
3528,1301;0,029108
3529,0945;0,0288774
3530,0586;0,0287063
3531,0229;0,0285921
3531,9871;0,0285065
3532,9514;0,0284091
3533,9155;0,0282663
3534,8799;0,0280685
3535,8440;0,0278361
3536,8083;0,0276126
3537,7725;0,0274432
3538,7368;0,0273537
3539,7009;0,0273388
3540,6653;0,0273645
3541,6294;0,0273765
3542,5938;0,0273156
3543,5579;0,0271399
3544,5222;0,026851
3545,4863;0,0265044
3546,4507;0,0261821
3547,4148;0,0259411
3548,3792;0,025782
3549,3433;0,0256607
3550,3076;0,0255225
3551,2717;0,0253369
3552,2361;0,0251152
3553,2002;0,0249007
3554,1646;0,0247357
3555,1287;0,0246308
3556,0930;0,0245623
3557,0571;0,0244949
3558,0215;0,0244109
3558,9856;0,0243268
3559,9500;0,0242853
3560,9141;0,0243223
3561,8784;0,0244308
3562,8425;0,0245437
3563,8069;0,0245437
3564,7710;0,0243024
3565,7354;0,0237633
3566,6995;0,023036
3567,6638;0,0223668
3568,6279;0,0219533
3569,5923;0,0218152
3570,5564;0,0218432
3571,5208;0,0219061
3572,4849;0,0219144
3573,4492;0,0218384
3574,4133;0,0216992
3575,3777;0,0215395
3576,3418;0,0213905
3577,3062;0,0212584
3578,2703;0,0211401
3579,2346;0,0210464
3580,1987;0,0210077
3581,1631;0,0210514
3582,1272;0,0211701
3583,0916;0,0213046
3584,0557;0,0213528
3585,0200;0,0212064
3585,9841;0,0208225
3586,9485;0,0203009
3587,9126;0,0198571
3588,8770;0,0196564
3589,8411;0,0196965
3590,8054;0,019852
3591,7695;0,0199775
3592,7339;0,0199761
3593,6980;0,0198313
3594,6624;0,0196048
3595,6265;0,0193865
3596,5908;0,019225
3597,5549;0,0191025
3598,5193;0,0189723
3599,4834;0,0188155
3600,4478;0,0186646
3601,4119;0,018575
3602,3762;0,0185717
3603,3403;0,0186221
3604,3047;0,0186529
3605,2688;0,0185891
3606,2332;0,018391
3607,1973;0,0180773
3608,1616;0,0177154
3609,1257;0,0173776
3610,0901;0,0171031
3611,0542;0,0169007
3612,0186;0,0167757
3612,9827;0,0167378
3613,9470;0,0167819
3614,9111;0,0168617
3615,8755;0,0168898
3616,8396;0,0167712
3617,8040;0,0164657
3618,7681;0,016049
3619,7324;0,0157038
3620,6965;0,0156042
3621,6609;0,0157974
3622,6250;0,0162012
3623,5894;0,0166735
3624,5535;0,01706
3625,5178;0,0172026
3626,4819;0,0169546
3627,4463;0,0162709
3628,4104;0,0153508
3629,3748;0,0145811
3630,3389;0,0141999
3631,3032;0,0141423
3632,2673;0,0142101
3633,2317;0,0142473
3634,1958;0,0141917
3635,1602;0,0140573
3636,1243;0,0138921
3637,0886;0,0137358
3638,0527;0,0136027
3639,0171;0,0134953
3639,9812;0,0134292
3640,9456;0,0134392
3641,9097;0,0135601
3642,8740;0,0137951
3643,8381;0,0140956
3644,8025;0,014356
3645,7666;0,0144113
3646,7310;0,0140583
3647,6951;0,0131876
3648,6594;0,0120385
3649,6235;0,0111618
3650,5879;0,010877
3651,5520;0,0110455
3652,5164;0,0113599
3653,4805;0,0115788
3654,4448;0,0115816
3655,4089;0,0113766
3656,3733;0,0110874
3657,3374;0,010872
3658,3018;0,0108069
3659,2659;0,0108538
3660,2302;0,0109293
3661,1943;0,0109875
3662,1587;0,0110513
3663,1228;0,0111804
3664,0872;0,0114074
3665,0513;0,0116943
3666,0156;0,0119392
3666,9797;0,0120227
3667,9441;0,0118828
3668,9082;0,0115946
3669,8726;0,0113521
3670,8367;0,0112988
3671,8010;0,011388
3672,7651;0,011429
3673,7295;0,0112258
3674,6936;0,0107228
3675,6580;0,0101037
3676,6221;0,00967384
3677,5864;0,00958294
3678,5505;0,00975313
3679,5149;0,0100354
3680,4790;0,0103356
3681,4434;0,010635
3682,4075;0,0109536
3683,3718;0,0113014
3684,3359;0,0116466
3685,3003;0,0119109
3686,2644;0,0119875
3687,2288;0,0117867
3688,1929;0,0113217
3689,1572;0,0107788
3690,1213;0,0104184
3691,0857;0,0103615
3692,0498;0,0105435
3693,0142;0,0108373
3693,9783;0,0111497
3694,9426;0,0114367
3695,9067;0,0116827
3696,8711;0,0118752
3697,8352;0,0119906
3698,7996;0,0119991
3699,7637;0,0118874
3700,7280;0,0116895
3701,6921;0,0114964
3702,6565;0,0114167
3703,6206;0,0115117
3704,5850;0,0117657
3705,5491;0,0121046
3706,5134;0,0124233
3707,4775;0,0125948
3708,4419;0,0124804
3709,4060;0,011985
3710,3704;0,0111805
3711,3345;0,010361
3712,2988;0,0098536
3713,2629;0,00977426
3714,2273;0,010028
3715,1914;0,0104529
3716,1558;0,010915
3717,1199;0,0113327
3718,0842;0,0116728
3719,0483;0,0119399
3720,0127;0,0121569
3720,9768;0,0123393
3721,9412;0,0124789
3722,9053;0,0125529
3723,8696;0,0125556
3724,8337;0,0125214
3725,7981;0,0125144
3726,7622;0,0125871
3727,7266;0,0127483
3728,6907;0,0129665
3729,6550;0,0131897
3730,6191;0,0133582
3731,5835;0,0133998
3732,5476;0,0132247
3733,5120;0,0127595
3734,4761;0,0120488
3735,4404;0,0113207
3736,4045;0,0108572
3737,3689;0,0107845
3738,3330;0,0110349
3739,2974;0,0114423
3740,2615;0,0118213
3741,2258;0,0119997
3742,1899;0,0118551
3743,1543;0,0114068
3744,1184;0,0108928
3745,0828;0,010629
3746,0469;0,0107142
3747,0112;0,0109653
3747,9753;0,0110865
3748,9397;0,0108371
3749,9038;0,0101867
3750,8682;0,00942945
3751,8323;0,00899122
3752,7966;0,00903115
3753,7607;0,00938631
3754,7251;0,00980257
3755,6892;0,0100862
3756,6536;0,0101418
3757,6177;0,00998602
3758,5820;0,00974366
3759,5461;0,00957668
3760,5105;0,00957704
3761,4746;0,00972656
3762,4390;0,00994289
3763,4031;0,0101406
3764,3674;0,0102632
3765,3315;0,0102881
3766,2959;0,010216
3767,2600;0,0100583
3768,2244;0,00983445
3769,1885;0,00958568
3770,1528;0,00938251
3771,1169;0,00930162
3772,0813;0,00938165
3773,0454;0,00959844
3774,0098;0,00987716
3774,9739;0,0101225
3775,9382;0,0102495
3776,9023;0,0102147
3777,8667;0,0100458
3778,8308;0,00983842
3779,7952;0,00969784
3780,7593;0,00966766
3781,7236;0,00971622
3782,6877;0,00977794
3783,6521;0,00980018
3784,6162;0,00976724
3785,5806;0,00970047
3786,5447;0,00964146
3787,5090;0,00963055
3788,4731;0,0096909
3789,4375;0,00982183
3790,4016;0,00999957
3791,3660;0,0101854
3792,3301;0,0103414
3793,2944;0,0104502
3794,2585;0,0105272
3795,2229;0,0106101
3796,1870;0,010722
3797,1514;0,0108341
3798,1155;0,0108632
3799,0798;0,0107205
3800,0439;0,0103942
3801,0083;0,0100019
3801,9724;0,00971966
3802,9368;0,00962641
3803,9009;0,00964429
3804,8652;0,00962788
3805,8293;0,00949182
3806,7937;0,00929005
3807,7578;0,00918823
3808,7222;0,00932478
3809,6863;0,00969607
3810,6506;0,0101773
3811,6147;0,0106107
3812,5791;0,0108713
3813,5432;0,0109087
3814,5076;0,0107781
3815,4717;0,0106187
3816,4360;0,0105428
3817,4001;0,0105333
3818,3645;0,0104667
3819,3286;0,0102349
3820,2930;0,00986137
3821,2571;0,00951075
3822,2214;0,00935146
3823,1855;0,0094173
3824,1499;0,0096203
3825,1140;0,00984758
3826,0784;0,0100271
3827,0425;0,0101417
3828,0068;0,0102143
3828,9709;0,0102808
3829,9353;0,0103684
3830,8994;0,010488
3831,8638;0,0106352
3832,8279;0,0107914
3833,7922;0,0109205
3834,7563;0,0109692
3835,7207;0,0108838
3836,6848;0,0106451
3837,6492;0,0103034
3838,6133;0,00996614
3839,5776;0,00972712
3840,5417;0,00960523
3841,5061;0,00956023
3842,4702;0,009553
3843,4346;0,00958749
3844,3987;0,0097085
3845,3630;0,00996582
3846,3271;0,0103753
3847,2915;0,0109025
3848,2556;0,0114664
3849,2200;0,0119407
3850,1841;0,0121442
3851,1484;0,0118549
3852,1125;0,0109655
3853,0769;0,00978047
3854,0410;0,00892794
3855,0054;0,00872596
3855,9695;0,00901673
3856,9338;0,00952286
3857,8979;0,010051
3858,8623;0,0104916
3859,8264;0,010779
3860,7908;0,0108782
3861,7549;0,0108021
3862,7192;0,0106329
3863,6833;0,0104958
3864,6477;0,0104811
3865,6118;0,0105879
3866,5762;0,0107403
3867,5403;0,0108382
3868,5046;0,0108036
3869,4688;0,0106132
3870,4331;0,0103159
3871,3972;0,0100146
3872,3616;0,00981443
3873,3257;0,00977404
3874,2900;0,00989111
3875,2542;0,0101158
3876,2185;0,0103742
3877,1826;0,0105919
3878,1470;0,0107183
3879,1111;0,0107462
3880,0754;0,0107113
3881,0396;0,0106592
3882,0039;0,0106026
3882,9680;0,0105197
3883,9324;0,0103983
3884,8965;0,0102757
3885,8608;0,0102214
3886,8250;0,010272
3887,7893;0,0103855
3888,7534;0,0104624
3889,7178;0,010413
3890,6819;0,0102329
3891,6462;0,0100349
3892,6104;0,00997892
3893,5747;0,0101443
3894,5388;0,010483
3895,5032;0,0108788
3896,4673;0,0112176
3897,4316;0,0114235
3898,3958;0,0114692
3899,3601;0,0113687
3900,3242;0,0111515
3901,2886;0,0108388
3902,2527;0,0104539
3903,2170;0,010055
3904,1812;0,00973368
3905,1455;0,00956365
3906,1096;0,00955338
3907,0740;0,00965351
3908,0381;0,00979757
3909,0024;0,00993738
3909,9666;0,0100577
3910,9309;0,0101712
3911,8950;0,0102992
3912,8594;0,010447
3913,8235;0,010591
3914,7878;0,0106843
3915,7520;0,0106843
3916,7163;0,0105883
3917,6804;0,0104486
3918,6448;0,0103417
3919,6089;0,0103146
3920,5732;0,0103561
3921,5374;0,0104138
3922,5017;0,0104336
3923,4658;0,0103977
3924,4302;0,0103395
3925,3943;0,0103184
3926,3586;0,0103725
3927,3228;0,0104892
3928,2871;0,0106118
3929,2512;0,010671
3930,2156;0,0106218
3931,1797;0,0104712
3932,1440;0,0102773
3933,1082;0,0101148
3934,0725;0,0100333
3935,0366;0,0100442
3936,0010;0,0101315
3936,9651;0,0102665
3937,9294;0,0104131
3938,8936;0,0105314
3939,8579;0,0105868
3940,8220;0,0105668
3941,7864;0,0104952
3942,7505;0,0104245
3943,7148;0,0104036
3944,6790;0,0104445
3945,6433;0,0105147
3946,6074;0,0105592
3947,5718;0,0105351
3948,5359;0,0104392
3949,5002;0,0103106
3950,4644;0,0102038
3951,4287;0,0101521
3952,3928;0,0101534
3953,3572;0,0101819
3954,3213;0,0102117
3955,2856;0,0102318
3956,2498;0,0102462
3957,2141;0,0102636
3958,1782;0,0102848
3959,1426;0,0103006
3960,1067;0,0102997
3961,0710;0,0102792
3962,0352;0,0102492
3962,9995;0,0102267
3963,9636;0,0102248
3964,9280;0,0102443
3965,8921;0,0102751
3966,8564;0,0103033
3967,8206;0,0103202
3968,7849;0,0103254
3969,7490;0,0103246
3970,7134;0,0103231
3971,6775;0,0103209
3972,6418;0,0103138
3973,6060;0,0102978
3974,5703;0,0102747
3975,5344;0,0102523
3976,4988;0,0102399
3977,4629;0,0102417
3978,4272;0,0102539
3979,3914;0,0102673
3980,3557;0,0102733
3981,3198;0,0102693
3982,2842;0,0102599
3983,2483;0,010254
3984,2126;0,0102587
3985,1768;0,010276
3986,1411;0,0103024
3987,1052;0,0103319
3988,0696;0,010359
3989,0337;0,0103795
3989,9980;0,0103898
3990,9622;0,0103856
3991,9265;0,0103633
3992,8906;0,0103225
3993,8550;0,0102703
3994,8191;0,0102207
3995,7834;0,0101892
3996,7476;0,0101851
3997,7119;0,0102053
3998,6760;0,0102361
3999,6404;0,0102609
4000,6045;0,0102616

##### Extended Information
[Comments]
Sample name
Comment
Username
Division
Organization;UNIVERSIDAD INDUSTRIAL DE SANTANDER

[Detailed Information]
Creation date;18/03/2025 12:14 p.m.

Data array type;Linear data array
Horizontal axis;Wavenumber [cm-1]
Vertical axis;Abs
Start;399,193 cm-1
End;4000,6 cm-1
Data interval;0,964233 cm-1
Data points;3736    

[Measurement Information]
Model name;FT/IR-4X1typeA
Serial No.;A035162111

Accessory;ATR PRO 4X
Accessory S/N;A021162126
Incident angle;45 deg

Measurement date;18/03/2025 12:14 p.m.

Light source;Standard
Detector;TGS
Accumulation;40
Resolution;4 cm-1
Zero filling;On
Apodization;Cosine
Gain;Auto (8)
Aperture;Auto (7 mm)
Scan speed;Auto (2 mm/sec)
Filter;Auto (12800 Hz)

