TITLE;
DATA TYPE;INFRARED SPECTRUM
ORIGIN;JASCO
OWNER;
DATE;25/03/18
TIME;14:04:58
SPECTROMETER/DATA SYSTEM;
LOCALE;9226
RESOLUTION;
DELTAX;0,964233
XUNITS;1/CM
YUNITS;ABSORBANCE
FIRSTX;  399,1927
LASTX; 4000,6047
NPOINTS;    3736
FIRSTY;     0,14677
MAXY;     0,19823
MINY;     0,00827
XYDATA
399,1927;0,146768
400,1569;0,145918
401,1211;0,145109
402,0854;0,144372
403,0496;0,143848
404,0138;0,143684
404,9781;0,143896
405,9423;0,144307
406,9065;0,144626
407,8708;0,144628
408,8350;0,1443
409,7992;0,143824
410,7635;0,143462
411,7277;0,143422
412,6919;0,143798
413,6562;0,144597
414,6204;0,145813
415,5846;0,147441
416,5489;0,149393
417,5131;0,151342
418,4773;0,152706
419,4416;0,153096
420,4058;0,152816
421,3700;0,152495
422,3343;0,152449
423,2985;0,152588
424,2627;0,152629
425,2270;0,152341
426,1912;0,151699
427,1554;0,150899
428,1197;0,15021
429,0839;0,149807
430,0481;0,149709
431,0124;0,149828
431,9766;0,15007
432,9408;0,150412
433,9051;0,150895
434,8693;0,151558
435,8335;0,152365
436,7978;0,153191
437,7620;0,15388
438,7262;0,154317
439,6905;0,154455
440,6547;0,154313
441,6189;0,153964
442,5832;0,153534
443,5474;0,15318
444,5116;0,153015
445,4759;0,153044
446,4401;0,153148
447,4043;0,15315
448,3686;0,152908
449,3328;0,152401
450,2970;0,151763
451,2613;0,151251
452,2255;0,15114
453,1897;0,151591
454,1540;0,152584
455,1182;0,153903
456,0824;0,155176
457,0467;0,155979
458,0109;0,156032
458,9751;0,155382
459,9394;0,154368
460,9036;0,153372
461,8678;0,152624
462,8321;0,152177
463,7963;0,151985
464,7605;0,151982
465,7248;0,152125
466,6890;0,152405
467,6532;0,152823
468,6175;0,153347
469,5817;0,15389
470,5459;0,154317
471,5102;0,154484
472,4744;0,154325
473,4386;0,153901
474,4029;0,153367
475,3671;0,152874
476,3313;0,152501
477,2956;0,152253
478,2598;0,1521
479,2240;0,152016
480,1883;0,152004
481,1525;0,152097
482,1167;0,152332
483,0810;0,152717
484,0452;0,153201
485,0094;0,153684
485,9737;0,154057
486,9379;0,154263
487,9021;0,154317
488,8664;0,154285
489,8306;0,154232
490,7948;0,154183
491,7591;0,154102
492,7233;0,153922
493,6875;0,153617
494,6518;0,153248
495,6160;0,152958
496,5802;0,152906
497,5445;0,153187
498,5087;0,153781
499,4729;0,15456
500,4372;0,155336
501,4014;0,155936
502,3656;0,156275
503,3299;0,156372
504,2941;0,156301
505,2583;0,156133
506,2226;0,15591
507,1868;0,155671
508,1510;0,155483
509,1153;0,155434
510,0795;0,155597
511,0437;0,155988
512,0080;0,15656
512,9722;0,157229
513,9365;0,15792
514,9007;0,158581
515,8649;0,159176
516,8292;0,159661
517,7934;0,159973
518,7576;0,16006
519,7219;0,159917
520,6861;0,159602
521,6503;0,159204
522,6146;0,158803
523,5788;0,15845
524,5430;0,158168
525,5073;0,157963
526,4715;0,157826
527,4357;0,157737
528,4000;0,157661
529,3642;0,157552
530,3284;0,157368
531,2927;0,15709
532,2569;0,156732
533,2211;0,156343
534,1854;0,155984
535,1496;0,155702
536,1138;0,155506
537,0781;0,155381
538,0423;0,155307
539,0065;0,155275
539,9708;0,155284
540,9350;0,155327
541,8992;0,155384
542,8635;0,155418
543,8277;0,155404
544,7919;0,155348
545,7562;0,155298
546,7204;0,155322
547,6846;0,155481
548,6489;0,155792
549,6131;0,156224
550,5773;0,156713
551,5416;0,157193
552,5058;0,157607
553,4700;0,157923
554,4343;0,158123
555,3985;0,158202
556,3627;0,158166
557,3270;0,158027
558,2912;0,157796
559,2554;0,157475
560,2197;0,157053
561,1839;0,156513
562,1481;0,155848
563,1124;0,155076
564,0766;0,154242
565,0408;0,153405
566,0051;0,152616
566,9693;0,151901
567,9335;0,151261
568,8978;0,150679
569,8620;0,150135
570,8262;0,149623
571,7905;0,149152
572,7547;0,148744
573,7189;0,148424
574,6832;0,148213
575,6474;0,14811
576,6116;0,148092
577,5759;0,148114
578,5401;0,148125
579,5043;0,148084
580,4686;0,147974
581,4328;0,147806
582,3970;0,147608
583,3613;0,147423
584,3255;0,147284
585,2897;0,147212
586,2540;0,147211
587,2182;0,147271
588,1824;0,14737
589,1467;0,147476
590,1109;0,147553
591,0751;0,147562
592,0394;0,147472
593,0036;0,147273
593,9678;0,146976
594,9321;0,14661
595,8963;0,146213
596,8605;0,145825
597,8248;0,145483
598,7890;0,145206
599,7532;0,144993
600,7175;0,144812
601,6817;0,144621
602,6459;0,144388
603,6102;0,144104
604,5744;0,143787
605,5386;0,143457
606,5029;0,143121
607,4671;0,142767
608,4313;0,142371
609,3956;0,141927
610,3598;0,141449
611,3240;0,140968
612,2883;0,140507
613,2525;0,140064
614,2167;0,139613
615,1810;0,139123
616,1452;0,138574
617,1094;0,137965
618,0737;0,137302
619,0379;0,136585
620,0021;0,135805
620,9664;0,134958
621,9306;0,134058
622,8948;0,133142
623,8591;0,13226
624,8233;0,131449
625,7875;0,130724
626,7518;0,130071
627,7160;0,129466
628,6802;0,128894
629,6445;0,128356
630,6087;0,127853
631,5729;0,127374
632,5372;0,126891
633,5014;0,126373
634,4656;0,125804
635,4299;0,125192
636,3941;0,124566
637,3583;0,12396
638,3226;0,1234
639,2868;0,122895
640,2510;0,122447
641,2153;0,122042
642,1795;0,121662
643,1437;0,121273
644,1080;0,120845
645,0722;0,120356
646,0364;0,119817
647,0007;0,119268
647,9649;0,118771
648,9291;0,118381
649,8934;0,118117
650,8576;0,117952
651,8218;0,117833
652,7861;0,117721
653,7503;0,11761
654,7145;0,117533
655,6788;0,117529
656,6430;0,11761
657,6072;0,117744
658,5715;0,117873
659,5357;0,117945
660,4999;0,117945
661,4642;0,117893
662,4284;0,117806
663,3926;0,117659
664,3569;0,117367
665,3211;0,116791
666,2853;0,115761
667,2496;0,114211
668,2138;0,112453
669,1780;0,11115
670,1423;0,110579
671,1065;0,110384
672,0707;0,110113
673,0350;0,109525
673,9992;0,10857
674,9634;0,107335
675,9277;0,105989
676,8919;0,1047
677,8561;0,103556
678,8204;0,102562
679,7846;0,101693
680,7488;0,100936
681,7131;0,100284
682,6773;0,0997173
683,6415;0,0992062
684,6058;0,0987333
685,5700;0,0983119
686,5342;0,0979739
687,4985;0,0977338
688,4627;0,0975653
689,4269;0,0974091
690,3912;0,0972122
691,3554;0,0969623
692,3196;0,0966926
693,2839;0,0964576
694,2481;0,0962977
695,2123;0,0962175
696,1766;0,0961852
697,1408;0,0961501
698,1050;0,0960661
699,0693;0,0959102
700,0335;0,0956875
700,9977;0,0954222
701,9620;0,0951411
702,9262;0,0948569
703,8904;0,0945627
704,8547;0,0942414
705,8189;0,093882
706,7831;0,0934918
707,7474;0,0930941
708,7116;0,0927109
709,6758;0,0923446
710,6401;0,0919727
711,6043;0,0915614
712,5685;0,0910888
713,5328;0,0905603
714,4970;0,0900034
715,4612;0,0894077
716,4255;0,088867
717,3897;0,088323
718,3539;0,0877535
719,3182;0,0871526
720,2824;0,0865418
721,2466;0,0859568
722,2109;0,0854186
723,1751;0,0849167
724,1393;0,0844164
725,1036;0,0838832
726,0678;0,0833031
727,0320;0,0826874
727,9963;0,0820605
728,9605;0,0814429
729,9247;0,0808425
730,8890;0,080259
731,8532;0,0796953
732,8174;0,0791626
733,7817;0,0786745
734,7459;0,0782375
735,7101;0,077845
736,6744;0,0774812
737,6386;0,0771296
738,6028;0,0767808
739,5671;0,0764332
740,5313;0,0760902
741,4955;0,0757542
742,4598;0,0754239
743,4240;0,0750934
744,3882;0,0747541
745,3525;0,0743976
746,3167;0,0740193
747,2809;0,0736211
748,2452;0,0732111
749,2094;0,0727997
750,1736;0,0723949
751,1379;0,071998
752,1021;0,0716062
753,0663;0,0712164
754,0306;0,07083
754,9948;0,0704538
755,9590;0,0700963
756,9233;0,0697625
757,8875;0,069451
758,8517;0,0691548
759,8160;0,0688653
760,7802;0,0685758
761,7444;0,0682843
762,7087;0,0679931
763,6729;0,0677073
764,6371;0,0674322
765,6014;0,0671708
766,5656;0,0669229
767,5298;0,0666846
768,4941;0,0664507
769,4583;0,0662175
770,4225;0,0659847
771,3868;0,0657561
772,3510;0,0655369
773,3152;0,0653317
774,2795;0,0651432
775,2437;0,0649719
776,2079;0,0648172
777,1722;0,0646762
778,1364;0,0645418
779,1006;0,0644017
780,0649;0,0642388
781,0291;0,0640365
781,9933;0,0637842
782,9576;0,0634809
783,9218;0,0631353
784,8860;0,0627618
785,8503;0,0623765
786,8145;0,0619944
787,7787;0,0616281
788,7430;0,0612887
789,7072;0,0609848
790,6714;0,0607222
791,6357;0,060503
792,5999;0,0603251
793,5641;0,0601822
794,5284;0,0600623
795,4926;0,0599492
796,4568;0,0598258
797,4211;0,0596808
798,3853;0,0595147
799,3495;0,0593411
800,3138;0,0591798
801,2780;0,0590457
802,2422;0,0589402
803,2065;0,0588503
804,1707;0,058757
805,1349;0,0586465
806,0992;0,058517
807,0634;0,0583794
808,0276;0,0582495
808,9919;0,0581398
809,9561;0,0580534
810,9203;0,0579823
811,8846;0,05791
812,8488;0,0578184
813,8130;0,0576956
814,7773;0,0575433
815,7415;0,0573778
816,7057;0,0572241
817,6700;0,0571033
818,6342;0,0570225
819,5984;0,0569717
820,5627;0,0569315
821,5269;0,0568853
822,4911;0,0568274
823,4554;0,0567624
824,4196;0,056697
825,3839;0,0566325
826,3481;0,056563
827,3123;0,0564808
828,2766;0,0563832
829,2408;0,0562737
830,2050;0,0561582
831,1693;0,0560398
832,1335;0,0559154
833,0977;0,0557794
834,0620;0,0556271
835,0262;0,0554565
835,9904;0,0552666
836,9547;0,0550555
837,9189;0,0548209
838,8831;0,054565
839,8474;0,0542986
840,8116;0,0540404
841,7758;0,053811
842,7401;0,0536237
843,7043;0,053479
844,6685;0,0533661
845,6328;0,0532697
846,5970;0,053178
847,5612;0,0530873
848,5255;0,0530013
849,4897;0,0529265
850,4539;0,052867
851,4182;0,0528202
852,3824;0,0527771
853,3466;0,0527253
854,3109;0,0526536
855,2751;0,0525575
856,2393;0,0524408
857,2036;0,0523144
858,1678;0,0521915
859,1320;0,0520844
860,0963;0,052002
861,0605;0,0519509
862,0247;0,0519359
862,9890;0,0519593
863,9532;0,0520181
864,9174;0,0521028
865,8817;0,0522003
866,8459;0,0522999
867,8101;0,0523999
868,7744;0,0525088
869,7386;0,0526396
870,7028;0,0528018
871,6671;0,0529944
872,6313;0,0532065
873,5955;0,0534224
874,5598;0,0536277
875,5240;0,0538132
876,4882;0,053976
877,4525;0,0541196
878,4167;0,0542547
879,3809;0,0544004
880,3452;0,0545808
881,3094;0,054818
882,2736;0,0551239
883,2379;0,0554963
884,2021;0,0559229
885,1663;0,0563911
886,1306;0,0568955
887,0948;0,0574397
888,0590;0,0580297
889,0233;0,0586648
889,9875;0,0593333
890,9517;0,0600139
891,9160;0,0606797
892,8802;0,0613023
893,8444;0,0618512
894,8087;0,062294
895,7729;0,0625994
896,7371;0,0627453
897,7014;0,0627261
898,6656;0,0625567
899,6298;0,0622664
900,5941;0,0618891
901,5583;0,0614531
902,5225;0,0609771
903,4868;0,060474
904,4510;0,0599562
905,4152;0,0594412
906,3795;0,0589515
907,3437;0,0585109
908,3079;0,0581386
909,2722;0,0578455
910,2364;0,0576318
911,2007;0,0574886
912,1649;0,0574021
913,1292;0,057359
914,0934;0,0573522
915,0576;0,0573828
916,0219;0,0574582
916,9861;0,0575863
917,9503;0,0577686
918,9146;0,0579973
919,8788;0,0582567
920,8430;0,0585283
921,8073;0,0587973
922,7715;0,0590554
923,7357;0,0592999
924,7000;0,0595312
925,6642;0,059749
926,6284;0,0599521
927,5927;0,0601395
928,5569;0,0603124
929,5211;0,0604751
930,4854;0,0606338
931,4496;0,0607958
932,4138;0,060969
933,3781;0,061163
934,3423;0,0613902
935,3065;0,061664
936,2708;0,0619948
937,2350;0,0623851
938,1992;0,0628278
939,1635;0,0633114
940,1277;0,063828
941,0919;0,0643808
942,0562;0,0649833
943,0204;0,0656514
943,9846;0,0663922
944,9489;0,0671989
945,9131;0,068055
946,8773;0,0689466
947,8416;0,069872
948,8058;0,0708419
949,7700;0,0718699
950,7343;0,0729604
951,6985;0,0741043
952,6627;0,0752851
953,6270;0,0764899
954,5912;0,0777186
955,5554;0,0789826
956,5197;0,0802955
957,4839;0,0816641
958,4481;0,0830833
959,4124;0,0845385
960,3766;0,0860113
961,3408;0,0874841
962,3051;0,0889435
963,2693;0,0903829
964,2335;0,0918058
965,1978;0,0932253
966,1620;0,0946617
967,1262;0,0961349
968,0905;0,0976599
969,0547;0,0992456
970,0189;0,100902
970,9832;0,102644
971,9474;0,104496
972,9116;0,106484
973,8759;0,108626
974,8401;0,110933
975,8043;0,113409
976,7686;0,116056
977,7328;0,118875
978,6970;0,121853
979,6613;0,12495
980,6255;0,128094
981,5897;0,13119
982,5540;0,134141
983,5182;0,136872
984,4824;0,139346
985,4467;0,141557
986,4109;0,143522
987,3751;0,145264
988,3394;0,146807
989,3036;0,148169
990,2678;0,149369
991,2321;0,150428
992,1963;0,151365
993,1605;0,152199
994,1248;0,152951
995,0890;0,153644
996,0532;0,1543
997,0175;0,154938
997,9817;0,15557
998,9459;0,156206
999,9102;0,156858
1000,8744;0,15755
1001,8386;0,158315
1002,8029;0,159191
1003,7671;0,160207
1004,7313;0,161379
1005,6956;0,162706
1006,6598;0,16418
1007,6240;0,165798
1008,5883;0,167557
1009,5525;0,169454
1010,5167;0,17147
1011,4810;0,173568
1012,4452;0,175696
1013,4094;0,177803
1014,3737;0,179843
1015,3379;0,181784
1016,3021;0,183606
1017,2664;0,18529
1018,2306;0,186829
1019,1948;0,188223
1020,1591;0,189488
1021,1233;0,190651
1022,0875;0,191738
1023,0518;0,192767
1024,0160;0,193745
1024,9802;0,194667
1025,9445;0,195526
1026,9087;0,196314
1027,8729;0,197018
1028,8372;0,197609
1029,8014;0,198034
1030,7656;0,198226
1031,7299;0,198112
1032,6941;0,197638
1033,6583;0,19678
1034,6226;0,195559
1035,5868;0,194042
1036,5510;0,192334
1037,5153;0,190572
1038,4795;0,188903
1039,4437;0,187456
1040,4080;0,186324
1041,3722;0,185545
1042,3364;0,185101
1043,3007;0,184929
1044,2649;0,184942
1045,2291;0,185048
1046,1934;0,185167
1047,1576;0,185237
1048,1218;0,18521
1049,0861;0,185043
1050,0503;0,184701
1051,0145;0,184151
1051,9788;0,183374
1052,9430;0,182372
1053,9072;0,18117
1054,8715;0,179801
1055,8357;0,178286
1056,7999;0,176611
1057,7642;0,174728
1058,7284;0,172577
1059,6926;0,170121
1060,6569;0,167378
1061,6211;0,164428
1062,5853;0,161395
1063,5496;0,158405
1064,5138;0,155558
1065,4780;0,152906
1066,4423;0,150459
1067,4065;0,1482
1068,3707;0,146098
1069,3350;0,144121
1070,2992;0,142239
1071,2634;0,140424
1072,2277;0,138651
1073,1919;0,136894
1074,1561;0,135129
1075,1204;0,133336
1076,0846;0,131505
1077,0488;0,129642
1078,0131;0,127773
1078,9773;0,125943
1079,9415;0,124208
1080,9058;0,122621
1081,8700;0,121219
1082,8342;0,120013
1083,7985;0,118996
1084,7627;0,118142
1085,7269;0,117423
1086,6912;0,116815
1087,6554;0,116305
1088,6196;0,115886
1089,5839;0,115557
1090,5481;0,115314
1091,5123;0,115148
1092,4766;0,115048
1093,4408;0,115002
1094,4050;0,115002
1095,3693;0,11505
1096,3335;0,115152
1097,2977;0,115313
1098,2620;0,115535
1099,2262;0,115809
1100,1904;0,116112
1101,1547;0,116414
1102,1189;0,116676
1103,0831;0,116861
1104,0474;0,116947
1105,0116;0,116925
1105,9758;0,116802
1106,9401;0,116597
1107,9043;0,116323
1108,8685;0,115976
1109,8328;0,115535
1110,7970;0,114961
1111,7612;0,114218
1112,7255;0,113291
1113,6897;0,112198
1114,6539;0,110994
1115,6182;0,109754
1116,5824;0,108549
1117,5466;0,107428
1118,5109;0,106396
1119,4751;0,105421
1120,4393;0,104442
1121,4036;0,103389
1122,3678;0,102201
1123,3320;0,100838
1124,2963;0,0992856
1125,2605;0,0975497
1126,2247;0,0956536
1127,1890;0,093629
1128,1532;0,0915115
1129,1174;0,0893378
1130,0817;0,0871448
1131,0459;0,084969
1132,0101;0,0828456
1132,9744;0,0808087
1133,9386;0,078892
1134,9028;0,0771301
1135,8671;0,0755587
1136,8313;0,0742123
1137,7955;0,0731189
1138,7598;0,0722938
1139,7240;0,0717348
1140,6882;0,0714215
1141,6525;0,0713196
1142,6167;0,0713885
1143,5809;0,0715895
1144,5452;0,0718925
1145,5094;0,0722781
1146,4736;0,0727369
1147,4379;0,0732641
1148,4021;0,0738535
1149,3663;0,0744911
1150,3306;0,0751527
1151,2948;0,0758049
1152,2590;0,0764105
1153,2233;0,0769346
1154,1875;0,0773473
1155,1517;0,0776237
1156,1160;0,0777385
1157,0802;0,0776613
1158,0444;0,0773537
1159,0087;0,0767719
1159,9729;0,0758737
1160,9371;0,0746274
1161,9014;0,0730219
1162,8656;0,0710725
1163,8298;0,0688244
1164,7941;0,0663492
1165,7583;0,0637385
1166,7225;0,0610924
1167,6868;0,0585067
1168,6510;0,056061
1169,6152;0,0538103
1170,5795;0,0517827
1171,5437;0,0499828
1172,5079;0,0484005
1173,4722;0,0470186
1174,4364;0,0458193
1175,4006;0,0447864
1176,3649;0,043905
1177,3291;0,0431596
1178,2933;0,0425344
1179,2576;0,0420134
1180,2218;0,0415822
1181,1860;0,0412282
1182,1503;0,0409412
1183,1145;0,0407127
1184,0787;0,0405366
1185,0430;0,0404102
1186,0072;0,0403348
1186,9714;0,0403156
1187,9357;0,0403589
1188,8999;0,040469
1189,8641;0,0406465
1190,8284;0,040888
1191,7926;0,0411893
1192,7568;0,0415483
1193,7211;0,041966
1194,6853;0,0424436
1195,6495;0,0429781
1196,6138;0,043558
1197,5780;0,0441624
1198,5422;0,044767
1199,5065;0,0450218
1200,4707;0,045614
1201,4349;0,0461795
1202,3992;0,0467266
1203,3634;0,0472641
1204,3276;0,0477959
1205,2919;0,0483198
1206,2561;0,0488313
1207,2203;0,0493298
1208,1846;0,0498229
1209,1488;0,0503263
1210,1130;0,0508585
1211,0773;0,0514354
1212,0415;0,0520656
1213,0057;0,0527492
1213,9700;0,0534799
1214,9342;0,0542478
1215,8984;0,0550427
1216,8627;0,0558517
1217,8269;0,0566594
1218,7911;0,0574522
1219,7554;0,0582177
1220,7196;0,0589459
1221,6838;0,0596293
1222,6481;0,060262
1223,6123;0,0608393
1224,5765;0,0613576
1225,5408;0,0618161
1226,5050;0,0622179
1227,4692;0,0625701
1228,4335;0,062882
1229,3977;0,0631613
1230,3619;0,0634113
1231,3262;0,0636302
1232,2904;0,0638131
1233,2546;0,063956
1234,2189;0,0640591
1235,1831;0,0641285
1236,1473;0,0641729
1237,1116;0,0642001
1238,0758;0,0642133
1239,0400;0,0642098
1240,0043;0,0641841
1240,9685;0,0641304
1241,9327;0,0640456
1242,8970;0,063928
1243,8612;0,0637762
1244,8254;0,0635876
1245,7897;0,0633601
1246,7539;0,063096
1247,7181;0,0628041
1248,6824;0,0624984
1249,6466;0,0621937
1250,6108;0,0618999
1251,5751;0,0616201
1252,5393;0,0613531
1253,5035;0,0610975
1254,4678;0,0608543
1255,4320;0,0606243
1256,3962;0,0604032
1257,3605;0,0601784
1258,3247;0,0599319
1259,2889;0,0596484
1260,2532;0,0593228
1261,2174;0,0589625
1262,1816;0,0585815
1263,1459;0,058191
1264,1101;0,0577935
1265,0743;0,0573829
1266,0386;0,0569494
1267,0028;0,0564833
1267,9670;0,0559767
1268,9313;0,0554234
1269,8955;0,0548202
1270,8597;0,0541694
1271,8240;0,0534816
1272,7882;0,0527755
1273,7524;0,0520726
1274,7167;0,0513918
1275,6809;0,0507454
1276,6451;0,0501387
1277,6094;0,0495713
1278,5736;0,0490377
1279,5378;0,0485287
1280,5021;0,0480335
1281,4663;0,0475433
1282,4305;0,047056
1283,3948;0,0465784
1284,3590;0,0461236
1285,3232;0,0457067
1286,2875;0,0453385
1287,2517;0,0450235
1288,2159;0,0447612
1289,1802;0,0445504
1290,1444;0,0443922
1291,1086;0,0442901
1292,0729;0,0442479
1293,0371;0,0442671
1294,0013;0,0443464
1294,9656;0,0444826
1295,9298;0,0446722
1296,8940;0,0449128
1297,8583;0,045203
1298,8225;0,0455423
1299,7867;0,0459298
1300,7510;0,0463631
1301,7152;0,046842
1302,6794;0,0473631
1303,6437;0,0479208
1304,6079;0,0485109
1305,5721;0,0491307
1306,5364;0,0497797
1307,5006;0,0504601
1308,4648;0,0511751
1309,4291;0,0519244
1310,3933;0,0526996
1311,3575;0,0534818
1312,3218;0,0542434
1313,2860;0,0549546
1314,2502;0,0555897
1315,2145;0,0561256
1316,1787;0,0565364
1317,1429;0,0567908
1318,1072;0,0568612
1319,0714;0,0567437
1320,0356;0,0564736
1320,9999;0,056119
1321,9641;0,055753
1322,9283;0,0554276
1323,8926;0,0551628
1324,8568;0,0549535
1325,8210;0,0547819
1326,7853;0,0546293
1327,7495;0,054481
1328,7137;0,0543262
1329,6780;0,0541548
1330,6422;0,0539599
1331,6064;0,0537431
1332,5707;0,0535157
1333,5349;0,053299
1334,4991;0,0531104
1335,4634;0,0529488
1336,4276;0,0527792
1337,3918;0,0525256
1338,3561;0,052095
1339,3203;0,0514457
1340,2845;0,0506463
1341,2488;0,049843
1342,2130;0,04916
1343,1772;0,0486431
1344,1415;0,0482786
1345,1057;0,048033
1346,0699;0,0478766
1347,0342;0,0477871
1347,9984;0,0477521
1348,9626;0,0477697
1349,9269;0,0478465
1350,8911;0,0479898
1351,8553;0,0481983
1352,8196;0,048459
1353,7838;0,0487524
1354,7480;0,0490632
1355,7123;0,04939
1356,6765;0,0497442
1357,6407;0,0501394
1358,6050;0,0505822
1359,5692;0,0510643
1360,5334;0,0515483
1361,4977;0,0519632
1362,4619;0,0522505
1363,4261;0,0524332
1364,3904;0,0526017
1365,3546;0,0528263
1366,3188;0,0531106
1367,2831;0,0534149
1368,2473;0,0536951
1369,2115;0,0539228
1370,1758;0,0540871
1371,1400;0,0541818
1372,1042;0,0541882
1373,0685;0,054068
1374,0327;0,0537844
1374,9969;0,0533461
1375,9612;0,0528152
1376,9254;0,0522501
1377,8896;0,051657
1378,8539;0,0510105
1379,8181;0,0503067
1380,7823;0,0495871
1381,7466;0,0489121
1382,7108;0,0483109
1383,6750;0,0477593
1384,6393;0,0472008
1385,6035;0,0465851
1386,5677;0,04591
1387,5320;0,0452564
1388,4962;0,0447559
1389,4604;0,0444793
1390,4247;0,0443829
1391,3889;0,0443787
1392,3531;0,0444227
1393,3174;0,0445251
1394,2816;0,0446928
1395,2458;0,0448777
1396,2101;0,0449961
1397,1743;0,0449998
1398,1385;0,0449217
1399,1028;0,0448548
1400,0670;0,0448878
1401,0313;0,0450526
1401,9955;0,0453173
1402,9597;0,0456212
1403,9240;0,0459154
1404,8882;0,0461899
1405,8524;0,0464777
1406,8167;0,0468266
1407,7809;0,0472554
1408,7451;0,047743
1409,7094;0,0482624
1410,6736;0,0488146
1411,6378;0,049425
1412,6021;0,0501042
1413,5663;0,0508131
1414,5305;0,0514712
1415,4948;0,0520033
1416,4590;0,0523692
1417,4232;0,0525505
1418,3875;0,0525647
1419,3517;0,0525399
1420,3159;0,0526572
1421,2802;0,0529407
1422,2444;0,0532188
1423,2086;0,0532926
1424,1729;0,0530793
1425,1371;0,0526287
1426,1013;0,0520448
1427,0656;0,0513981
1428,0298;0,0506982
1428,9940;0,049932
1429,9583;0,0491181
1430,9225;0,0483077
1431,8867;0,047519
1432,8510;0,0466918
1433,8152;0,0457331
1434,7794;0,0446014
1435,7437;0,0433725
1436,7079;0,0422761
1437,6721;0,0416154
1438,6364;0,0415176
1439,6006;0,0418162
1440,5648;0,0422294
1441,5291;0,0425748
1442,4933;0,042829
1443,4575;0,0430653
1444,4218;0,043359
1445,3860;0,0437269
1446,3502;0,0441323
1447,3145;0,0445375
1448,2787;0,0449571
1449,2429;0,0454513
1450,2072;0,046046
1451,1714;0,0466626
1452,1356;0,0471501
1453,0999;0,047398
1454,0641;0,0474333
1455,0283;0,0473873
1455,9926;0,0472429
1456,9568;0,0467133
1457,9210;0,0459145
1458,8853;0,0455328
1459,8495;0,0457659
1460,8137;0,0461973
1461,7780;0,0463895
1462,7422;0,0461455
1463,7064;0,0454773
1464,6707;0,0445394
1465,6349;0,043587
1466,5991;0,0428289
1467,5634;0,0422485
1468,5276;0,0416555
1469,4918;0,0408824
1470,4561;0,0398785
1471,4203;0,0386324
1472,3845;0,0370717
1473,3488;0,035219
1474,3130;0,0334121
1475,2772;0,0320326
1476,2415;0,0311537
1477,2057;0,0306218
1478,1699;0,0302645
1479,1342;0,0299731
1480,0984;0,0296995
1481,0626;0,0294417
1482,0269;0,0292359
1482,9911;0,0291356
1483,9553;0,0291819
1484,9196;0,0293924
1485,8838;0,0297721
1486,8480;0,0302959
1487,8123;0,0308247
1488,7765;0,0311008
1489,7407;0,0310342
1490,7050;0,0309017
1491,6692;0,0310032
1492,6334;0,0313673
1493,5977;0,0318803
1494,5619;0,0324845
1495,5261;0,0332058
1496,4904;0,0340472
1497,4546;0,0349358
1498,4188;0,0358444
1499,3831;0,0368276
1500,3473;0,0378347
1501,3115;0,0386545
1502,2758;0,0390812
1503,2400;0,0391038
1504,2042;0,0390103
1505,1685;0,0392784
1506,1327;0,0399751
1507,0969;0,0402332
1508,0612;0,039604
1509,0254;0,0389022
1509,9896;0,0386073
1510,9539;0,0385192
1511,9181;0,0383836
1512,8823;0,0381332
1513,8466;0,037823
1514,8108;0,0375004
1515,7750;0,037132
1516,7393;0,0366355
1517,7035;0,0359689
1518,6677;0,035175
1519,6320;0,0343555
1520,5962;0,0336178
1521,5604;0,033043
1522,5247;0,0326629
1523,4889;0,0324283
1524,4531;0,0322278
1525,4174;0,0319778
1526,3816;0,0316952
1527,3458;0,0314673
1528,3101;0,0313516
1529,2743;0,0313275
1530,2385;0,0313489
1531,2028;0,0314127
1532,1670;0,031552
1533,1312;0,0317726
1534,0955;0,0320265
1535,0597;0,0322256
1536,0239;0,0322775
1536,9882;0,0322006
1537,9524;0,0322612
1538,9166;0,0328891
1539,8809;0,0340633
1540,8451;0,0347896
1541,8093;0,0344079
1542,7736;0,0335928
1543,7378;0,0329922
1544,7020;0,0326793
1545,6663;0,0325671
1546,6305;0,0326024
1547,5947;0,0327366
1548,5590;0,0328962
1549,5232;0,0330145
1550,4874;0,0330797
1551,4517;0,0331399
1552,4159;0,03324
1553,3801;0,0333444
1554,3444;0,0333383
1555,3086;0,0331233
1556,2728;0,0326864
1557,2371;0,0319456
1558,2013;0,0305847
1559,1655;0,0289468
1560,1298;0,0284184
1561,0940;0,0293967
1562,0582;0,0310694
1563,0225;0,0326361
1563,9867;0,0337328
1564,9509;0,0343299
1565,9152;0,034568
1566,8794;0,034632
1567,8436;0,0346692
1568,8079;0,0347696
1569,7721;0,0350032
1570,7363;0,0354056
1571,7006;0,0359125
1572,6648;0,0363981
1573,6290;0,0367976
1574,5933;0,037147
1575,5575;0,0374903
1576,5217;0,0378354
1577,4860;0,0382711
1578,4502;0,0389153
1579,4144;0,0397224
1580,3787;0,0405398
1581,3429;0,0412762
1582,3071;0,0419462
1583,2714;0,0426152
1584,2356;0,0433317
1585,1998;0,0441038
1586,1641;0,0449094
1587,1283;0,0457176
1588,0925;0,0464992
1589,0568;0,0472264
1590,0210;0,04787
1590,9852;0,0483983
1591,9495;0,0487774
1592,9137;0,0489729
1593,8779;0,0489621
1594,8422;0,0487542
1595,8064;0,0484033
1596,7706;0,0479942
1597,7349;0,0476073
1598,6991;0,047287
1599,6633;0,0470334
1600,6276;0,0468168
1601,5918;0,0466054
1602,5560;0,0463925
1603,5203;0,0462002
1604,4845;0,0460539
1605,4487;0,0459492
1606,4130;0,0458469
1607,3772;0,0457024
1608,3414;0,0455122
1609,3057;0,045336
1610,2699;0,0452523
1611,2341;0,0452733
1612,1984;0,0453218
1613,1626;0,0453029
1614,1268;0,0451852
1615,0911;0,0450091
1616,0553;0,0448535
1617,0195;0,0448562
1617,9838;0,0451651
1618,9480;0,0457504
1619,9122;0,046398
1620,8765;0,0469028
1621,8407;0,0471889
1622,8049;0,0472912
1623,7692;0,0472946
1624,7334;0,0472855
1625,6976;0,0473109
1626,6619;0,0473738
1627,6261;0,0474778
1628,5903;0,0476471
1629,5546;0,0478808
1630,5188;0,0481062
1631,4830;0,0482176
1632,4473;0,0481838
1633,4115;0,0481065
1634,3757;0,0481023
1635,3400;0,0480844
1636,3042;0,0479147
1637,2684;0,0477889
1638,2327;0,0479566
1639,1969;0,0483614
1640,1611;0,0487917
1641,1254;0,0490862
1642,0896;0,0491918
1643,0538;0,0491649
1644,0181;0,0491512
1644,9823;0,0492773
1645,9465;0,0494752
1646,9108;0,0495341
1647,8750;0,0493658
1648,8392;0,0489479
1649,8035;0,0481775
1650,7677;0,0469944
1651,7319;0,0454622
1652,6962;0,0436572
1653,6604;0,0419493
1654,6246;0,0412497
1655,5889;0,0417826
1656,5531;0,0427994
1657,5173;0,043561
1658,4816;0,0437576
1659,4458;0,043418
1660,4100;0,0427216
1661,3743;0,0418595
1662,3385;0,0410042
1663,3027;0,0403201
1664,2670;0,0398827
1665,2312;0,0396192
1666,1954;0,0393929
1667,1597;0,0391041
1668,1239;0,0386926
1669,0881;0,0381036
1670,0524;0,037344
1671,0166;0,0365232
1671,9808;0,0357133
1672,9451;0,0348635
1673,9093;0,0339283
1674,8735;0,0330208
1675,8378;0,0324045
1676,8020;0,0322895
1677,7662;0,0326136
1678,7305;0,0330629
1679,6947;0,0332908
1680,6589;0,0330977
1681,6232;0,0324505
1682,5874;0,0313692
1683,5516;0,029916
1684,5159;0,0284929
1685,4801;0,0277101
1686,4443;0,0276736
1687,4086;0,0279744
1688,3728;0,0281862
1689,3370;0,0281085
1690,3013;0,0277446
1691,2655;0,0272045
1692,2297;0,0266322
1693,1940;0,026173
1694,1582;0,0259402
1695,1224;0,0259401
1696,0867;0,0259878
1697,0509;0,0257384
1698,0151;0,0249354
1698,9794;0,0237304
1699,9436;0,0226973
1700,9078;0,0223871
1701,8721;0,0228793
1702,8363;0,0238038
1703,8005;0,0246699
1704,7648;0,0251413
1705,7290;0,0251532
1706,6932;0,0248998
1707,6575;0,0246883
1708,6217;0,0247286
1709,5859;0,0250357
1710,5502;0,0254999
1711,5144;0,0260042
1712,4786;0,0264844
1713,4429;0,0269192
1714,4071;0,02726
1715,3713;0,0273262
1716,3356;0,0268389
1717,2998;0,025837
1718,2640;0,0249287
1719,2283;0,0246596
1720,1925;0,024991
1721,1567;0,0255537
1722,1210;0,026026
1723,0852;0,0262756
1724,0494;0,0263449
1725,0137;0,0263814
1725,9779;0,0265431
1726,9421;0,0269103
1727,9064;0,0274422
1728,8706;0,0279988
1729,8348;0,0284045
1730,7991;0,028507
1731,7633;0,0282058
1732,7275;0,0274988
1733,6918;0,0266201
1734,6560;0,0260327
1735,6202;0,0260166
1736,5845;0,0264066
1737,5487;0,0268378
1738,5129;0,0270572
1739,4772;0,0270207
1740,4414;0,0268399
1741,4056;0,0266745
1742,3699;0,0266269
1743,3341;0,0266927
1744,2983;0,0267902
1745,2626;0,0268208
1746,2268;0,0266919
1747,1910;0,0262924
1748,1553;0,0254824
1749,1195;0,0241958
1750,0837;0,0226229
1751,0480;0,021183
1752,0122;0,020199
1752,9764;0,0196808
1753,9407;0,0194284
1754,9049;0,0192296
1755,8691;0,0189664
1756,8334;0,0186184
1757,7976;0,0182137
1758,7618;0,0177737
1759,7261;0,0172926
1760,6903;0,0167641
1761,6545;0,0162236
1762,6188;0,0157542
1763,5830;0,0154319
1764,5472;0,015267
1765,5115;0,0152101
1766,4757;0,0152038
1767,4399;0,015222
1768,4042;0,0152617
1769,3684;0,0153016
1770,3326;0,0152622
1771,2969;0,0150337
1772,2611;0,0146046
1773,2253;0,0141499
1774,1896;0,0138915
1775,1538;0,0138887
1776,1180;0,0140301
1777,0823;0,0141685
1778,0465;0,0142173
1779,0107;0,0141609
1779,9750;0,0140186
1780,9392;0,0138139
1781,9034;0,0135665
1782,8677;0,013305
1783,8319;0,0130822
1784,7961;0,0129689
1785,7604;0,0130137
1786,7246;0,0132012
1787,6888;0,0134547
1788,6531;0,0136864
1789,6173;0,0138419
1790,5815;0,0138965
1791,5458;0,0138336
1792,5100;0,013688
1793,4742;0,0135853
1794,4385;0,0136312
1795,4027;0,013792
1796,3669;0,013945
1797,3312;0,0139914
1798,2954;0,0139036
1799,2596;0,0137067
1800,2239;0,0134484
1801,1881;0,0131861
1802,1523;0,0129768
1803,1166;0,0128571
1804,0808;0,012832
1805,0450;0,012885
1806,0093;0,0129931
1806,9735;0,0131309
1807,9377;0,0132647
1808,9020;0,0133498
1809,8662;0,0133452
1810,8304;0,0132426
1811,7947;0,0130792
1812,7589;0,0129099
1813,7231;0,0127684
1814,6874;0,0126586
1815,6516;0,0125741
1816,6158;0,0125166
1817,5801;0,0124994
1818,5443;0,0125362
1819,5085;0,0126266
1820,4728;0,0127485
1821,4370;0,0128687
1822,4012;0,0129626
1823,3655;0,013026
1824,3297;0,0130761
1825,2939;0,0131384
1826,2582;0,0132215
1827,2224;0,0132947
1828,1866;0,013292
1829,1509;0,0131548
1830,1151;0,0128991
1831,0793;0,0126349
1832,0436;0,0124819
1833,0078;0,0124696
1833,9720;0,0125386
1834,9363;0,0126142
1835,9005;0,0126606
1836,8647;0,012689
1837,8290;0,0127308
1838,7932;0,0127983
1839,7574;0,0128672
1840,7217;0,0129016
1841,6859;0,0128889
1842,6501;0,0128403
1843,6144;0,0127655
1844,5786;0,0126797
1845,5428;0,0126239
1846,5071;0,0126239
1847,4713;0,0126432
1848,4355;0,0126166
1849,3998;0,0125151
1850,3640;0,0123669
1851,3282;0,0122311
1852,2925;0,0121538
1853,2567;0,0121442
1854,2209;0,0121824
1855,1852;0,0122422
1856,1494;0,0123076
1857,1136;0,0123726
1858,0779;0,0124315
1859,0421;0,0124757
1860,0063;0,012504
1860,9706;0,0125356
1861,9348;0,012609
1862,8990;0,012762
1863,8633;0,0130099
1864,8275;0,0133346
1865,7917;0,0136773
1866,7560;0,013925
1867,7202;0,0139305
1868,6844;0,0136203
1869,6487;0,0131049
1870,6129;0,0126061
1871,5771;0,0122742
1872,5414;0,0121231
1873,5056;0,0120948
1874,4698;0,0121302
1875,4341;0,0121926
1876,3983;0,0122625
1877,3625;0,0123285
1878,3268;0,0123857
1879,2910;0,0124341
1880,2552;0,0124775
1881,2195;0,0125207
1882,1837;0,0125667
1883,1479;0,0126147
1884,1122;0,0126609
1885,0764;0,0127019
1886,0406;0,0127364
1887,0049;0,0127635
1887,9691;0,0127768
1888,9333;0,0127652
1889,8976;0,0127255
1890,8618;0,012672
1891,8260;0,0126276
1892,7903;0,012606
1893,7545;0,0126049
1894,7188;0,0126099
1895,6830;0,0126033
1896,6472;0,0125747
1897,6115;0,0125285
1898,5757;0,0124795
1899,5399;0,0124436
1900,5042;0,0124316
1901,4684;0,0124484
1902,4326;0,0124951
1903,3969;0,0125705
1904,3611;0,0126705
1905,3253;0,0127841
1906,2896;0,012891
1907,2538;0,0129643
1908,2180;0,0129815
1909,1823;0,0129398
1910,1465;0,0128655
1911,1107;0,0128003
1912,0750;0,0127715
1913,0392;0,0127736
1914,0034;0,0127783
1914,9677;0,0127609
1915,9319;0,0127191
1916,8961;0,0126777
1917,8604;0,0126782
1918,8246;0,012755
1919,7888;0,0129061
1920,7531;0,0130846
1921,7173;0,0132193
1922,6815;0,0132519
1923,6458;0,0131677
1924,6100;0,0130031
1925,5742;0,0128226
1926,5385;0,012682
1927,5027;0,0126097
1928,4669;0,0126086
1929,4312;0,012665
1930,3954;0,0127517
1931,3596;0,0128327
1932,3239;0,0128706
1933,2881;0,0128406
1934,2523;0,0127452
1935,2166;0,0126178
1936,1808;0,0125079
1937,1450;0,0124555
1938,1093;0,0124712
1939,0735;0,0125367
1940,0377;0,0126206
1941,0020;0,0126955
1941,9662;0,0127483
1942,9304;0,0127831
1943,8947;0,0128122
1944,8589;0,0128398
1945,8231;0,0128545
1946,7874;0,0128404
1947,7516;0,0127926
1948,7158;0,0127208
1949,6801;0,0126396
1950,6443;0,012557
1951,6085;0,012473
1952,5728;0,012388
1953,5370;0,0123125
1954,5012;0,0122672
1955,4655;0,0122707
1956,4297;0,0123255
1957,3939;0,0124108
1958,3582;0,0124884
1959,3224;0,0125202
1960,2866;0,012489
1961,2509;0,0124119
1962,2151;0,0123356
1963,1793;0,0123141
1964,1436;0,0123771
1965,1078;0,0125062
1966,0720;0,0126349
1967,0363;0,0126848
1968,0005;0,0126242
1968,9647;0,0125013
1969,9290;0,0124178
1970,8932;0,0124606
1971,8574;0,0126419
1972,8217;0,0128846
1973,7859;0,0130595
1974,7501;0,0130568
1975,7144;0,012856
1976,6786;0,0125451
1977,6428;0,0122696
1978,6071;0,0121481
1979,5713;0,012215
1980,5355;0,0124229
1981,4998;0,0126816
1982,4640;0,0129015
1983,4282;0,0130238
1984,3925;0,0130381
1985,3567;0,012983
1986,3209;0,0129278
1987,2852;0,0129376
1988,2494;0,0130386
1989,2136;0,0132039
1990,1779;0,0133663
1991,1421;0,0134551
1992,1063;0,0134368
1993,0706;0,0133322
1994,0348;0,0131976
1994,9990;0,0130905
1995,9633;0,0130486
1996,9275;0,0130878
1997,8917;0,0132044
1998,8560;0,0133717
1999,8202;0,0135383
2000,7844;0,0136419
2001,7487;0,0136384
2002,7129;0,013534
2003,6771;0,0133954
2004,6414;0,0133234
2005,6056;0,0133934
2006,5698;0,0135955
2007,5341;0,01382
2008,4983;0,0139149
2009,4625;0,013781
2010,4268;0,0134363
2011,3910;0,0130085
2012,3552;0,0126641
2013,3195;0,0125256
2014,2837;0,0126177
2015,2479;0,0128666
2016,2122;0,0131493
2017,1764;0,0133659
2018,1406;0,0134892
2019,1049;0,013561
2020,0691;0,0136423
2021,0333;0,0137619
2021,9976;0,0138974
2022,9618;0,0139935
2023,9260;0,0139991
2024,8903;0,013899
2025,8545;0,013722
2026,8187;0,013523
2027,7830;0,0133574
2028,7472;0,0132641
2029,7114;0,0132623
2030,6757;0,0133558
2031,6399;0,0135324
2032,6041;0,0137591
2033,5684;0,013983
2034,5326;0,0141489
2035,4968;0,0142263
2036,4611;0,014226
2037,4253;0,0141941
2038,3895;0,0141812
2039,3538;0,0142098
2040,3180;0,01426
2041,2822;0,0142843
2042,2465;0,0142434
2043,2107;0,0141365
2044,1749;0,0140053
2045,1392;0,0139086
2046,1034;0,0138842
2047,0676;0,0139241
2048,0320;0,0139787
2048,9961;0,013991
2049,9604;0,0139335
2050,9246;0,0138235
2051,8889;0,0137092
2052,8530;0,0136434
2053,8174;0,0136596
2054,7815;0,0137566
2055,7458;0,013901
2056,7100;0,0140434
2057,6743;0,0141413
2058,6384;0,0141777
2059,6028;0,0141646
2060,5669;0,0141326
2061,5313;0,0141125
2062,4954;0,0141201
2063,4597;0,014152
2064,4238;0,014193
2065,3882;0,0142299
2066,3523;0,0142594
2067,3167;0,0142855
2068,2808;0,0143085
2069,2451;0,014318
2070,2092;0,0142956
2071,1736;0,0142287
2072,1377;0,0141223
2073,1021;0,0140034
2074,0662;0,013909
2075,0305;0,0138668
2075,9946;0,0138808
2076,9590;0,0139304
2077,9231;0,0139836
2078,8875;0,0140134
2079,8516;0,0140108
2080,8159;0,0139854
2081,7800;0,0139577
2082,7444;0,0139472
2083,7085;0,0139633
2084,6729;0,0140008
2085,6370;0,0140439
2086,6013;0,0140727
2087,5654;0,0140727
2088,5298;0,0140416
2089,4939;0,0139899
2090,4583;0,0139372
2091,4224;0,0139043
2092,3867;0,0139064
2093,3508;0,0139498
2094,3152;0,0140319
2095,2793;0,0141427
2096,2437;0,014267
2097,2078;0,0143861
2098,1721;0,0144813
2099,1362;0,0145364
2100,1006;0,0145433
2101,0647;0,0144935
2102,0291;0,0143971
2102,9932;0,0142725
2103,9575;0,0141475
2104,9216;0,014053
2105,8860;0,0140121
2106,8501;0,0140292
2107,8145;0,0140865
2108,7786;0,0141534
2109,7429;0,0142036
2110,7070;0,014229
2111,6714;0,0142414
2112,6355;0,0142583
2113,5999;0,0142852
2114,5640;0,0143077
2115,5283;0,014301
2116,4924;0,0142489
2117,4568;0,0141602
2118,4209;0,0140679
2119,3853;0,0140137
2120,3494;0,0140268
2121,3137;0,014112
2122,2778;0,014252
2123,2422;0,0144195
2124,2063;0,0145891
2125,1707;0,0147422
2126,1348;0,0148655
2127,0991;0,0149488
2128,0632;0,0149862
2129,0276;0,0149797
2129,9917;0,0149423
2130,9561;0,0148989
2131,9202;0,0148821
2132,8845;0,0149261
2133,8486;0,0150552
2134,8130;0,0152681
2135,7771;0,0155257
2136,7415;0,0157539
2137,7056;0,0158697
2138,6699;0,0158221
2139,6340;0,0156279
2140,5984;0,0153781
2141,5625;0,0152058
2142,5269;0,0152258
2143,4910;0,0154761
2144,4553;0,015894
2145,4194;0,0163419
2146,3838;0,0166712
2147,3479;0,0167907
2148,3123;0,0167034
2149,2764;0,0164939
2150,2407;0,0162783
2151,2048;0,016144
2152,1692;0,0161139
2153,1333;0,0161477
2154,0977;0,0161773
2155,0618;0,0161563
2156,0261;0,0160951
2156,9902;0,0160617
2157,9546;0,0161362
2158,9187;0,0163433
2159,8831;0,0166215
2160,8472;0,0168638
2161,8115;0,0169898
2162,7756;0,0169833
2163,7400;0,0168795
2164,7041;0,0167298
2165,6685;0,0165703
2166,6326;0,0164094
2167,5969;0,0162356
2168,5610;0,0160364
2169,5254;0,0158175
2170,4895;0,0156095
2171,4539;0,0154629
2172,4180;0,0154272
2173,3823;0,0155229
2174,3464;0,0157192
2175,3108;0,0159343
2176,2749;0,0160689
2177,2393;0,0160577
2178,2034;0,015907
2179,1677;0,0156925
2180,1318;0,0155154
2181,0962;0,0154423
2182,0603;0,0154672
2183,0247;0,0155225
2183,9888;0,0155337
2184,9531;0,0154747
2185,9172;0,0153821
2186,8816;0,0153229
2187,8457;0,0153422
2188,8101;0,0154305
2189,7742;0,0155304
2190,7385;0,0155745
2191,7026;0,0155255
2192,6670;0,0153946
2193,6311;0,0152293
2194,5955;0,0150837
2195,5596;0,0149924
2196,5239;0,0149602
2197,4880;0,0149702
2198,4524;0,0150014
2199,4165;0,0150432
2200,3809;0,0150976
2201,3450;0,0151689
2202,3093;0,0152485
2203,2734;0,0153071
2204,2378;0,0153023
2205,2019;0,0152025
2206,1663;0,0150114
2207,1304;0,0147771
2208,0947;0,0145751
2209,0588;0,0144733
2210,0232;0,0144973
2210,9873;0,0146182
2211,9517;0,0147702
2212,9158;0,0148859
2213,8801;0,014928
2214,8442;0,014902
2215,8086;0,0148446
2216,7727;0,0147998
2217,7371;0,0147976
2218,7012;0,0148433
2219,6655;0,0149206
2220,6296;0,0150006
2221,5940;0,0150534
2222,5581;0,0150583
2223,5225;0,0150109
2224,4866;0,0149261
2225,4509;0,0148344
2226,4150;0,0147707
2227,3794;0,0147599
2228,3435;0,0148053
2229,3079;0,0148852
2230,2720;0,0149626
2231,2363;0,0150009
2232,2004;0,014981
2233,1648;0,0149081
2234,1289;0,0148068
2235,0933;0,0147066
2236,0574;0,0146267
2237,0217;0,0145691
2237,9858;0,0145233
2238,9502;0,0144792
2239,9143;0,0144387
2240,8787;0,0144179
2241,8428;0,0144367
2242,8071;0,0145041
2243,7712;0,0146073
2244,7356;0,0147143
2245,6997;0,0147886
2246,6641;0,0148082
2247,6282;0,0147763
2248,5925;0,0147177
2249,5566;0,0146629
2250,5210;0,0146317
2251,4851;0,0146255
2252,4495;0,0146317
2253,4136;0,0146359
2254,3779;0,0146309
2255,3420;0,0146175
2256,3064;0,014598
2257,2705;0,0145714
2258,2349;0,0145345
2259,1990;0,0144888
2260,1633;0,0144451
2261,1274;0,0144201
2262,0918;0,0144258
2263,0559;0,0144588
2264,0203;0,0145004
2264,9844;0,0145277
2265,9487;0,0145289
2266,9128;0,014511
2267,8772;0,0144927
2268,8413;0,0144881
2269,8057;0,0144928
2270,7698;0,0144845
2271,7341;0,0144373
2272,6982;0,0143412
2273,6626;0,0142124
2274,6267;0,0140879
2275,5911;0,0140067
2276,5552;0,0139901
2277,5195;0,0140324
2278,4836;0,0141068
2279,4480;0,0141813
2280,4121;0,0142347
2281,3765;0,0142632
2282,3406;0,0142757
2283,3049;0,0142837
2284,2690;0,0142924
2285,2334;0,0142989
2286,1975;0,0142961
2287,1619;0,0142798
2288,1260;0,0142529
2289,0903;0,0142246
2290,0544;0,0142061
2291,0188;0,0142047
2291,9829;0,014221
2292,9473;0,014249
2293,9114;0,014279
2294,8757;0,0143013
2295,8398;0,0143087
2296,8042;0,0143001
2297,7683;0,0142815
2298,7327;0,0142664
2299,6968;0,0142722
2300,6611;0,0143142
2301,6252;0,0143978
2302,5896;0,014514
2303,5537;0,0146412
2304,5181;0,0147526
2305,4822;0,0148276
2306,4465;0,0148605
2307,4106;0,0148641
2308,3750;0,0148641
2309,3391;0,0148888
2310,3035;0,0149571
2311,2676;0,0150707
2312,2319;0,0152142
2313,1960;0,0153627
2314,1604;0,0154919
2315,1245;0,0155879
2316,0889;0,0156488
2317,0530;0,015682
2318,0173;0,0156973
2318,9814;0,0156996
2319,9458;0,0156851
2320,9099;0,0156413
2321,8743;0,0155551
2322,8384;0,0154228
2323,8027;0,0152583
2324,7668;0,0150911
2325,7312;0,0149559
2326,6953;0,01488
2327,6597;0,0148725
2328,6238;0,014921
2329,5881;0,014996
2330,5522;0,0150628
2331,5166;0,0150984
2332,4807;0,0151011
2333,4451;0,0150853
2334,4092;0,0150647
2335,3735;0,015037
2336,3376;0,0149825
2337,3020;0,0148763
2338,2661;0,014704
2339,2305;0,014469
2340,1946;0,0141893
2341,1589;0,0138968
2342,1230;0,0136476
2343,0874;0,0135162
2344,0515;0,013543
2345,0159;0,0136862
2345,9800;0,0138683
2346,9443;0,0140561
2347,9084;0,0142704
2348,8728;0,0145404
2349,8369;0,0148632
2350,8013;0,0151954
2351,7654;0,0154758
2352,7297;0,0156678
2353,6938;0,0157861
2354,6582;0,0158675
2355,6223;0,0159122
2356,5867;0,0158757
2357,5508;0,0157188
2358,5151;0,01545
2359,4792;0,0151185
2360,4436;0,0147785
2361,4077;0,0144692
2362,3721;0,0142235
2363,3362;0,0140771
2364,3005;0,0140554
2365,2646;0,014152
2366,2290;0,0143248
2367,1931;0,014517
2368,1575;0,0146848
2369,1216;0,0148113
2370,0859;0,014904
2371,0500;0,0149805
2372,0144;0,0150544
2372,9785;0,0151258
2373,9429;0,0151814
2374,9070;0,0152021
2375,8713;0,0151739
2376,8354;0,0150968
2377,7998;0,0149864
2378,7639;0,0148684
2379,7283;0,0147695
2380,6924;0,0147098
2381,6567;0,0146983
2382,6208;0,0147338
2383,5852;0,0148074
2384,5493;0,0149055
2385,5137;0,0150131
2386,4778;0,0151151
2387,4421;0,0151998
2388,4063;0,0152596
2389,3706;0,0152932
2390,3347;0,015305
2391,2991;0,0153042
2392,2632;0,0153019
2393,2275;0,0153087
2394,1917;0,0153318
2395,1560;0,0153731
2396,1201;0,0154281
2397,0845;0,0154873
2398,0486;0,0155392
2399,0129;0,0155759
2399,9771;0,015596
2400,9414;0,0156056
2401,9055;0,0156148
2402,8699;0,0156317
2403,8340;0,0156568
2404,7983;0,0156823
2405,7625;0,0156966
2406,7268;0,0156916
2407,6909;0,015669
2408,6553;0,0156404
2409,6194;0,0156217
2410,5837;0,0156236
2411,5479;0,0156459
2412,5122;0,0156783
2413,4763;0,0157073
2414,4407;0,0157251
2415,4048;0,0157342
2416,3691;0,0157447
2417,3333;0,0157668
2418,2976;0,0158023
2419,2617;0,015843
2420,2261;0,0158748
2421,1902;0,0158869
2422,1545;0,0158781
2423,1187;0,0158582
2424,0830;0,0158417
2425,0471;0,0158396
2426,0115;0,0158538
2426,9756;0,0158771
2427,9399;0,0158999
2428,9041;0,0159176
2429,8684;0,0159339
2430,8325;0,015958
2431,7969;0,0159968
2432,7610;0,0160479
2433,7253;0,0160995
2434,6895;0,0161363
2435,6538;0,0161487
2436,6179;0,0161398
2437,5823;0,0161241
2438,5464;0,0161195
2439,5107;0,0161377
2440,4749;0,0161776
2441,4392;0,0162272
2442,4033;0,0162705
2443,3677;0,0162969
2444,3318;0,0163059
2445,2961;0,0163063
2446,2603;0,0163095
2447,2246;0,0163225
2448,1887;0,0163443
2449,1531;0,016367
2450,1172;0,0163817
2451,0815;0,0163841
2452,0457;0,0163768
2453,0100;0,0163668
2453,9741;0,0163609
2454,9385;0,016362
2455,9026;0,0163688
2456,8669;0,0163786
2457,8311;0,0163908
2458,7954;0,0164071
2459,7595;0,0164294
2460,7239;0,016456
2461,6880;0,0164805
2462,6523;0,0164936
2463,6165;0,016489
2464,5808;0,0164675
2465,5449;0,0164384
2466,5093;0,0164156
2467,4734;0,0164117
2468,4377;0,0164316
2469,4019;0,0164709
2470,3662;0,0165182
2471,3303;0,0165616
2472,2947;0,0165941
2473,2588;0,0166164
2474,2231;0,0166335
2475,1873;0,0166502
2476,1516;0,0166659
2477,1157;0,0166751
2478,0801;0,0166715
2479,0442;0,0166543
2480,0085;0,0166308
2480,9727;0,016614
2481,9370;0,0166154
2482,9011;0,016639
2483,8655;0,0166788
2484,8296;0,0167224
2485,7939;0,0167572
2486,7581;0,0167761
2487,7224;0,0167786
2488,6865;0,01677
2489,6509;0,0167587
2490,6150;0,0167534
2491,5793;0,0167612
2492,5435;0,0167853
2493,5078;0,0168235
2494,4719;0,0168683
2495,4363;0,0169098
2496,4004;0,0169404
2497,3647;0,0169582
2498,3289;0,0169669
2499,2932;0,0169725
2500,2573;0,0169794
2501,2217;0,016988
2502,1858;0,0169969
2503,1501;0,0170054
2504,1143;0,0170145
2505,0786;0,0170255
2506,0427;0,0170375
2507,0071;0,0170472
2507,9712;0,0170513
2508,9355;0,0170514
2509,8997;0,017054
2510,8640;0,0170682
2511,8281;0,0170983
2512,7925;0,0171404
2513,7566;0,0171822
2514,7209;0,0172096
2515,6851;0,0172142
2516,6494;0,0171969
2517,6135;0,017167
2518,5779;0,0171363
2519,5420;0,0171145
2520,5063;0,0171061
2521,4705;0,017111
2522,4348;0,0171263
2523,3989;0,0171472
2524,3633;0,0171688
2525,3274;0,0171867
2526,2917;0,0171987
2527,2559;0,0172058
2528,2202;0,017211
2529,1843;0,017217
2530,1487;0,0172243
2531,1128;0,0172313
2532,0771;0,0172369
2533,0413;0,0172423
2534,0056;0,0172512
2534,9697;0,0172669
2535,9341;0,0172885
2536,8982;0,0173096
2537,8625;0,0173223
2538,8267;0,0173219
2539,7910;0,0173113
2540,7551;0,0172998
2541,7195;0,0172984
2542,6836;0,0173134
2543,6479;0,0173424
2544,6121;0,0173755
2545,5764;0,0174002
2546,5405;0,0174074
2547,5049;0,0173955
2548,4690;0,0173712
2549,4333;0,0173459
2550,3975;0,0173305
2551,3618;0,0173301
2552,3259;0,0173423
2553,2903;0,0173596
2554,2544;0,0173735
2555,2188;0,0173793
2556,1829;0,0173767
2557,1472;0,0173688
2558,1113;0,0173582
2559,0757;0,0173462
2560,0398;0,0173337
2561,0042;0,017323
2561,9683;0,0173183
2562,9326;0,0173229
2563,8967;0,0173372
2564,8611;0,0173567
2565,8252;0,0173754
2566,7896;0,0173897
2567,7537;0,0174015
2568,7180;0,0174173
2569,6821;0,0174436
2570,6465;0,0174811
2571,6106;0,0175237
2572,5750;0,0175599
2573,5391;0,0175792
2574,5034;0,0175772
2575,4675;0,017557
2576,4319;0,0175278
2577,3960;0,0175006
2578,3604;0,0174836
2579,3245;0,0174805
2580,2888;0,0174903
2581,2529;0,0175094
2582,2173;0,0175332
2583,1814;0,017558
2584,1458;0,0175812
2585,1099;0,0176019
2586,0742;0,01762
2587,0383;0,0176354
2588,0027;0,0176476
2588,9668;0,0176548
2589,9312;0,0176557
2590,8953;0,01765
2591,8596;0,0176404
2592,8237;0,0176321
2593,7881;0,0176307
2594,7522;0,0176398
2595,7166;0,0176593
2596,6807;0,0176859
2597,6450;0,0177148
2598,6091;0,0177422
2599,5735;0,0177662
2600,5376;0,0177867
2601,5020;0,0178043
2602,4661;0,0178201
2603,4304;0,017836
2604,3945;0,0178538
2605,3589;0,0178748
2606,3230;0,0178984
2607,2874;0,0179214
2608,2515;0,0179396
2609,2158;0,0179506
2610,1799;0,0179556
2611,1443;0,0179594
2612,1084;0,0179674
2613,0728;0,017982
2614,0369;0,0180012
2615,0012;0,0180197
2615,9653;0,0180324
2616,9297;0,0180382
2617,8938;0,0180402
2618,8582;0,0180444
2619,8223;0,0180563
2620,7866;0,018078
2621,7507;0,0181077
2622,7151;0,0181408
2623,6792;0,0181721
2624,6436;0,0181984
2625,6077;0,0182196
2626,5720;0,0182386
2627,5361;0,0182588
2628,5005;0,0182824
2629,4646;0,0183086
2630,4290;0,0183344
2631,3931;0,0183559
2632,3574;0,0183713
2633,3215;0,0183818
2634,2859;0,0183913
2635,2500;0,0184041
2636,2144;0,0184229
2637,1785;0,0184475
2638,1428;0,0184758
2639,1069;0,0185046
2640,0713;0,0185314
2641,0354;0,0185555
2641,9998;0,0185778
2642,9639;0,0186003
2643,9282;0,0186245
2644,8923;0,0186501
2645,8567;0,0186746
2646,8208;0,018695
2647,7852;0,0187091
2648,7493;0,0187183
2649,7136;0,0187275
2650,6777;0,0187422
2651,6421;0,018766
2652,6062;0,0187979
2653,5706;0,0188326
2654,5347;0,0188635
2655,4990;0,0188862
2656,4631;0,0189002
2657,4275;0,0189088
2658,3916;0,0189171
2659,3560;0,0189301
2660,3201;0,0189514
2661,2844;0,0189821
2662,2485;0,0190207
2663,2129;0,0190632
2664,1770;0,0191039
2665,1414;0,0191376
2666,1055;0,0191613
2667,0698;0,019176
2668,0339;0,0191854
2668,9983;0,0191942
2669,9624;0,0192059
2670,9268;0,0192226
2671,8909;0,0192453
2672,8552;0,0192747
2673,8193;0,019311
2674,7837;0,0193519
2675,7478;0,0193922
2676,7122;0,0194251
2677,6763;0,0194452
2678,6406;0,0194517
2679,6047;0,0194495
2680,5691;0,0194475
2681,5332;0,0194541
2682,4976;0,0194735
2683,4617;0,0195049
2684,4260;0,0195431
2685,3901;0,0195816
2686,3545;0,0196155
2687,3186;0,0196428
2688,2830;0,0196649
2689,2471;0,0196853
2690,2114;0,0197078
2691,1755;0,0197354
2692,1399;0,0197688
2693,1040;0,019807
2694,0684;0,019847
2695,0325;0,0198854
2695,9968;0,0199188
2696,9609;0,0199444
2697,9253;0,0199611
2698,8894;0,0199693
2699,8538;0,0199723
2700,8179;0,0199754
2701,7822;0,0199849
2702,7463;0,0200057
2703,7107;0,0200392
2704,6748;0,0200824
2705,6392;0,0201299
2706,6033;0,0201761
2707,5676;0,0202175
2708,5317;0,0202542
2709,4961;0,0202881
2710,4602;0,0203212
2711,4246;0,020354
2712,3887;0,0203851
2713,3530;0,0204132
2714,3171;0,020438
2715,2815;0,0204609
2716,2456;0,0204847
2717,2100;0,0205117
2718,1741;0,0205433
2719,1384;0,0205796
2720,1025;0,0206196
2721,0669;0,0206606
2722,0310;0,0206985
2722,9954;0,0207278
2723,9595;0,0207444
2724,9238;0,0207477
2725,8879;0,0207433
2726,8523;0,0207413
2727,8164;0,0207522
2728,7808;0,0207817
2729,7449;0,0208276
2730,7092;0,0208816
2731,6733;0,0209332
2732,6377;0,0209751
2733,6018;0,0210049
2734,5662;0,0210241
2735,5303;0,0210352
2736,4946;0,0210408
2737,4587;0,0210436
2738,4231;0,0210477
2739,3872;0,0210587
2740,3516;0,0210815
2741,3157;0,0211169
2742,2800;0,0211607
2743,2441;0,0212049
2744,2085;0,0212415
2745,1726;0,0212665
2746,1370;0,0212811
2747,1011;0,02129
2748,0654;0,021299
2749,0295;0,0213126
2749,9939;0,0213327
2750,9580;0,0213592
2751,9224;0,0213907
2752,8865;0,021425
2753,8508;0,0214599
2754,8149;0,0214936
2755,7793;0,0215254
2756,7434;0,0215561
2757,7078;0,0215869
2758,6719;0,0216189
2759,6362;0,0216513
2760,6003;0,021682
2761,5647;0,021708
2762,5288;0,0217281
2763,4932;0,0217431
2764,4573;0,0217569
2765,4216;0,0217749
2766,3857;0,0218021
2767,3501;0,0218414
2768,3142;0,0218924
2769,2786;0,0219511
2770,2427;0,0220115
2771,2070;0,0220669
2772,1711;0,0221128
2773,1355;0,0221487
2774,0996;0,0221785
2775,0640;0,0222089
2776,0281;0,022247
2776,9924;0,0222966
2777,9565;0,0223566
2778,9209;0,0224215
2779,8850;0,0224841
2780,8494;0,022539
2781,8135;0,0225852
2782,7778;0,0226258
2783,7419;0,022666
2784,7063;0,0227091
2785,6704;0,0227551
2786,6348;0,0228009
2787,5989;0,0228434
2788,5632;0,0228827
2789,5273;0,0229236
2790,4917;0,0229737
2791,4558;0,0230382
2792,4202;0,0231167
2793,3843;0,0232022
2794,3486;0,0232841
2795,3127;0,0233543
2796,2771;0,023411
2797,2412;0,023459
2798,2056;0,023506
2799,1697;0,0235583
2800,1340;0,0236183
2801,0981;0,0236852
2802,0625;0,0237575
2803,0266;0,0238354
2803,9910;0,0239198
2804,9551;0,0240106
2805,9194;0,0241046
2806,8835;0,0241975
2807,8479;0,024286
2808,8120;0,0243708
2809,7764;0,0244558
2810,7405;0,0245456
2811,7048;0,0246423
2812,6689;0,0247434
2813,6333;0,0248448
2814,5974;0,0249434
2815,5618;0,0250402
2816,5259;0,0251399
2817,4902;0,0252483
2818,4543;0,0253688
2819,4187;0,0255012
2820,3828;0,0256417
2821,3472;0,0257858
2822,3113;0,0259298
2823,2756;0,0260732
2824,2397;0,0262175
2825,2041;0,0263659
2826,1682;0,0265213
2827,1326;0,0266857
2828,0967;0,0268605
2829,0610;0,0270468
2830,0251;0,0272466
2830,9895;0,0274618
2831,9536;0,0276927
2832,9180;0,0279368
2833,8821;0,0281881
2834,8464;0,0284399
2835,8105;0,0286883
2836,7749;0,0289352
2837,7390;0,0291889
2838,7034;0,0294612
2839,6675;0,0297638
2840,6318;0,0301055
2841,5959;0,0304914
2842,5603;0,0309226
2843,5244;0,0313952
2844,4888;0,0318983
2845,4529;0,0324116
2846,4172;0,0329063
2847,3813;0,0333488
2848,3457;0,0337089
2849,3098;0,0339665
2850,2742;0,0341163
2851,2383;0,0341676
2852,2026;0,0341399
2853,1667;0,034058
2854,1311;0,0339461
2855,0952;0,0338245
2856,0596;0,0337077
2857,0237;0,0336054
2857,9880;0,0335242
2858,9521;0,0334694
2859,9165;0,033446
2860,8806;0,0334571
2861,8450;0,0335031
2862,8091;0,0335804
2863,7734;0,0336825
2864,7375;0,0338027
2865,7019;0,0339355
2866,6660;0,034077
2867,6304;0,0342229
2868,5945;0,0343663
2869,5588;0,0344978
2870,5229;0,0346082
2871,4873;0,0346928
2872,4514;0,0347543
2873,4158;0,0348016
2874,3799;0,0348459
2875,3442;0,0348951
2876,3083;0,0349506
2877,2727;0,0350091
2878,2368;0,0350658
2879,2012;0,0351191
2880,1653;0,0351721
2881,1296;0,0352303
2882,0938;0,0352989
2883,0581;0,035379
2884,0222;0,0354682
2884,9866;0,0355619
2885,9507;0,035656
2886,9150;0,0357491
2887,8792;0,0358418
2888,8435;0,0359353
2889,8076;0,0360301
2890,7720;0,036125
2891,7361;0,0362187
2892,7004;0,0363112
2893,6646;0,0364053
2894,6289;0,0365061
2895,5930;0,0366182
2896,5574;0,0367425
2897,5215;0,0368742
2898,4858;0,0370041
2899,4500;0,037122
2900,4143;0,0372226
2901,3784;0,0373084
2902,3428;0,0373898
2903,3069;0,0374803
2904,2712;0,0375909
2905,2354;0,0377267
2906,1997;0,037887
2907,1638;0,0380699
2908,1282;0,0382763
2909,0923;0,0385118
2910,0566;0,0387831
2911,0208;0,0390922
2911,9851;0,0394309
2912,9492;0,0397802
2913,9136;0,0401142
2914,8777;0,0404073
2915,8420;0,0406403
2916,8062;0,0408028
2917,7705;0,0408919
2918,7346;0,0409098
2919,6990;0,0408623
2920,6631;0,0407583
2921,6274;0,0406104
2922,5916;0,040432
2923,5559;0,0402336
2924,5200;0,0400187
2925,4844;0,0397847
2926,4485;0,0395279
2927,4128;0,03925
2928,3770;0,038962
2929,3413;0,0386811
2930,3054;0,0384225
2931,2698;0,0381911
2932,2339;0,0379791
2933,1982;0,0377698
2934,1624;0,0375469
2935,1267;0,0373018
2936,0908;0,0370363
2937,0552;0,0367595
2938,0193;0,0364823
2938,9836;0,0362113
2939,9478;0,0359479
2940,9121;0,0356896
2941,8762;0,0354332
2942,8406;0,0351781
2943,8047;0,0349274
2944,7690;0,0346866
2945,7332;0,0344607
2946,6975;0,0342522
2947,6616;0,0340595
2948,6260;0,0338786
2949,5901;0,0337052
2950,5544;0,0335365
2951,5186;0,0333716
2952,4829;0,0332111
2953,4470;0,0330562
2954,4114;0,0329086
2955,3755;0,03277
2956,3398;0,0326413
2957,3040;0,0325205
2958,2683;0,032402
2959,2324;0,0322776
2960,1968;0,0321394
2961,1609;0,0319836
2962,1252;0,0318122
2963,0894;0,0316305
2964,0537;0,0314444
2965,0178;0,0312579
2965,9822;0,0310724
2966,9463;0,0308895
2967,9106;0,0307115
2968,8748;0,0305418
2969,8391;0,0303824
2970,8032;0,0302327
2971,7676;0,0300901
2972,7317;0,0299523
2973,6960;0,0298179
2974,6602;0,0296869
2975,6245;0,0295581
2976,5886;0,0294293
2977,5530;0,0292978
2978,5171;0,0291637
2979,4814;0,0290308
2980,4456;0,0289059
2981,4099;0,0287943
2982,3740;0,0286974
2983,3384;0,028612
2984,3025;0,028533
2985,2668;0,028457
2986,2310;0,0283843
2987,1953;0,0283172
2988,1594;0,0282586
2989,1238;0,0282104
2990,0879;0,0281738
2991,0522;0,0281499
2992,0164;0,0281387
2992,9807;0,0281373
2993,9448;0,0281392
2994,9092;0,0281369
2995,8733;0,028126
2996,8376;0,0281103
2997,8018;0,0281007
2998,7661;0,0281097
2999,7302;0,028144
3000,6946;0,0281994
3001,6587;0,0282629
3002,6230;0,0283201
3003,5872;0,0283639
3004,5515;0,0283984
3005,5156;0,0284353
3006,4800;0,0284855
3007,4441;0,0285521
3008,4084;0,0286274
3009,3726;0,0286973
3010,3369;0,0287483
3011,3010;0,0287736
3012,2654;0,0287758
3013,2295;0,0287644
3014,1938;0,0287508
3015,1580;0,0287449
3016,1223;0,0287532
3017,0864;0,0287795
3018,0508;0,0288251
3019,0149;0,0288891
3019,9792;0,0289681
3020,9434;0,0290563
3021,9077;0,029147
3022,8718;0,0292357
3023,8362;0,0293226
3024,8003;0,029413
3025,7646;0,0295142
3026,7288;0,0296312
3027,6931;0,0297625
3028,6572;0,029899
3029,6216;0,0300266
3030,5857;0,0301317
3031,5500;0,0302069
3032,5142;0,0302536
3033,4785;0,0302813
3034,4426;0,0303027
3035,4070;0,0303296
3036,3711;0,0303695
3037,3354;0,0304256
3038,2996;0,0304968
3039,2639;0,0305796
3040,2280;0,03067
3041,1924;0,0307656
3042,1565;0,0308671
3043,1208;0,030978
3044,0850;0,0311009
3045,0493;0,0312341
3046,0134;0,0313699
3046,9778;0,0314967
3047,9419;0,0316064
3048,9063;0,0317001
3049,8704;0,0317896
3050,8347;0,031891
3051,7988;0,0320149
3052,7632;0,0321594
3053,7273;0,03231
3054,6917;0,0324471
3055,6558;0,0325567
3056,6201;0,0326382
3057,5842;0,0327051
3058,5486;0,032779
3059,5127;0,0328801
3060,4771;0,0330188
3061,4412;0,033192
3062,4055;0,0333827
3063,3696;0,0335652
3064,3340;0,0337135
3065,2981;0,033811
3066,2625;0,0338582
3067,2266;0,0338727
3068,1909;0,0338823
3069,1550;0,033914
3070,1194;0,0339841
3071,0835;0,0340942
3072,0479;0,0342334
3073,0120;0,0343853
3073,9763;0,0345351
3074,9404;0,0346755
3075,9048;0,0348065
3076,8689;0,034932
3077,8333;0,0350552
3078,7974;0,0351738
3079,7617;0,0352812
3080,7258;0,0353698
3081,6902;0,0354374
3082,6543;0,0354906
3083,6187;0,0355419
3084,5828;0,0356034
3085,5471;0,0356802
3086,5112;0,035768
3087,4756;0,0358583
3088,4397;0,0359459
3089,4041;0,0360353
3090,3682;0,0361383
3091,3325;0,0362668
3092,2966;0,0364231
3093,2610;0,0365977
3094,2251;0,0367736
3095,1895;0,0369361
3096,1536;0,0370796
3097,1179;0,037208
3098,0820;0,0373284
3099,0464;0,0374444
3100,0105;0,0375537
3100,9749;0,037652
3101,9390;0,0377391
3102,9033;0,037821
3103,8674;0,0379074
3104,8318;0,0380059
3105,7959;0,0381183
3106,7603;0,0382411
3107,7244;0,0383699
3108,6887;0,0385038
3109,6528;0,0386466
3110,6172;0,0388035
3111,5813;0,038977
3112,5457;0,039163
3113,5098;0,0393512
3114,4741;0,0395293
3115,4382;0,0396873
3116,4026;0,039822
3117,3667;0,0399371
3118,3311;0,0400405
3119,2952;0,0401407
3120,2595;0,0402439
3121,2236;0,040353
3122,1880;0,0404689
3123,1521;0,0405911
3124,1165;0,0407178
3125,0806;0,040847
3126,0449;0,0409767
3127,0090;0,0411067
3127,9734;0,041239
3128,9375;0,041377
3129,9019;0,041522
3130,8660;0,041671
3131,8303;0,0418165
3132,7944;0,0419507
3133,7588;0,0420699
3134,7229;0,042178
3135,6873;0,0422844
3136,6514;0,0423989
3137,6157;0,0425269
3138,5798;0,0426678
3139,5442;0,0428173
3140,5083;0,0429702
3141,4727;0,0431229
3142,4368;0,0432733
3143,4011;0,0434206
3144,3652;0,0435654
3145,3296;0,0437109
3146,2937;0,0438624
3147,2581;0,0440249
3148,2222;0,0441997
3149,1865;0,044382
3150,1506;0,0445631
3151,1150;0,044735
3152,0791;0,044895
3153,0435;0,0450471
3154,0076;0,0451984
3154,9719;0,045355
3155,9360;0,0455186
3156,9004;0,0456879
3157,8645;0,0458612
3158,8289;0,0460384
3159,7930;0,0462201
3160,7573;0,0464049
3161,7214;0,0465886
3162,6858;0,0467647
3163,6499;0,0469287
3164,6143;0,0470807
3165,5784;0,0472256
3166,5427;0,04737
3167,5068;0,0475183
3168,4712;0,0476719
3169,4353;0,0476237
3170,3997;0,0477886
3171,3638;0,0479628
3172,3281;0,0481477
3173,2922;0,0483419
3174,2566;0,04854
3175,2207;0,048734
3176,1851;0,0489154
3177,1492;0,0490791
3178,1135;0,0492256
3179,0776;0,0493606
3180,0420;0,0494937
3181,0061;0,0496344
3181,9705;0,0497887
3182,9346;0,0499579
3183,8989;0,0501383
3184,8630;0,0503231
3185,8274;0,0505056
3186,7915;0,050681
3187,7559;0,0508471
3188,7200;0,0510036
3189,6843;0,0511519
3190,6484;0,0512947
3191,6128;0,051437
3192,5769;0,0515841
3193,5413;0,0517404
3194,5054;0,0519064
3195,4697;0,0520792
3196,4338;0,052253
3197,3982;0,0524224
3198,3623;0,052584
3199,3267;0,0527369
3200,2908;0,0528815
3201,2551;0,0530205
3202,2192;0,0531585
3203,1836;0,0533025
3204,1477;0,053459
3205,1121;0,0536297
3206,0762;0,0538089
3207,0405;0,053985
3208,0046;0,0541472
3208,9690;0,0542911
3209,9331;0,0544218
3210,8975;0,0545499
3211,8616;0,0546855
3212,8259;0,0548326
3213,7900;0,0549887
3214,7544;0,0551484
3215,7185;0,0553073
3216,6829;0,0554632
3217,6470;0,055615
3218,6113;0,0557609
3219,5754;0,0558986
3220,5398;0,0560278
3221,5039;0,056152
3222,4683;0,0562787
3223,4324;0,056415
3224,3967;0,0565645
3225,3608;0,0567246
3226,3252;0,0568883
3227,2893;0,0570474
3228,2537;0,0571965
3229,2178;0,0573354
3230,1821;0,0574685
3231,1462;0,0576014
3232,1106;0,0577376
3233,0747;0,0578766
3234,0391;0,058014
3235,0032;0,0581456
3235,9675;0,0582712
3236,9316;0,058397
3237,8960;0,0585342
3238,8601;0,0586929
3239,8245;0,0588757
3240,7886;0,0590743
3241,7529;0,0592719
3242,7170;0,0594507
3243,6814;0,0596003
3244,6455;0,0597235
3245,6099;0,0598347
3246,5740;0,0599529
3247,5383;0,0600922
3248,5024;0,060256
3249,4668;0,0604378
3250,4309;0,060626
3251,3953;0,0608095
3252,3594;0,060982
3253,3237;0,0611424
3254,2878;0,0612939
3255,2522;0,0614417
3256,2163;0,0615914
3257,1807;0,0617476
3258,1448;0,0619127
3259,1091;0,0620869
3260,0732;0,0622675
3261,0376;0,062449
3262,0017;0,0626252
3262,9661;0,0627902
3263,9302;0,0629415
3264,8945;0,0630808
3265,8586;0,063214
3266,8230;0,0633479
3267,7871;0,0634883
3268,7515;0,0636359
3269,7156;0,0637859
3270,6799;0,0639292
3271,6440;0,0640561
3272,6084;0,0641605
3273,5725;0,0642419
3274,5369;0,064306
3275,5010;0,0643619
3276,4653;0,0644195
3277,4294;0,0644857
3278,3938;0,0645623
3279,3579;0,0646448
3280,3223;0,0647228
3281,2864;0,0647835
3282,2507;0,0648181
3283,2148;0,064828
3284,1792;0,0648257
3285,1433;0,0648309
3286,1077;0,06486
3287,0718;0,0649171
3288,0361;0,0649915
3289,0002;0,0650637
3289,9646;0,0651156
3290,9287;0,0651399
3291,8931;0,0651411
3292,8572;0,0651299
3293,8215;0,0651161
3294,7856;0,0651036
3295,7500;0,0650911
3296,7141;0,065077
3297,6785;0,0650618
3298,6426;0,0650483
3299,6069;0,0650398
3300,5710;0,0650382
3301,5354;0,0650447
3302,4995;0,0650597
3303,4639;0,0650831
3304,4280;0,0651131
3305,3923;0,0651458
3306,3564;0,0651755
3307,3208;0,0651969
3308,2849;0,0652068
3309,2493;0,0652049
3310,2134;0,0651933
3311,1777;0,0651757
3312,1418;0,0651571
3313,1062;0,0651439
3314,0703;0,0651427
3315,0347;0,0651593
3315,9988;0,0651967
3316,9631;0,0652551
3317,9272;0,065332
3318,8916;0,0654226
3319,8557;0,0655202
3320,8201;0,0656161
3321,7842;0,0657026
3322,7485;0,0657757
3323,7126;0,0658375
3324,6770;0,0658953
3325,6411;0,0659566
3326,6055;0,0660227
3327,5696;0,0660876
3328,5339;0,0661418
3329,4980;0,0661798
3330,4624;0,0662043
3331,4265;0,0662253
3332,3909;0,0662525
3333,3550;0,0662885
3334,3193;0,0663252
3335,2834;0,0663481
3336,2478;0,0663441
3337,2119;0,066308
3338,1763;0,0662426
3339,1404;0,0661557
3340,1047;0,0660548
3341,0688;0,0659454
3342,0332;0,0658315
3342,9973;0,0657165
3343,9617;0,0656032
3344,9258;0,0654925
3345,8901;0,0653828
3346,8542;0,0652715
3347,8186;0,0651572
3348,7827;0,0650418
3349,7471;0,0649295
3350,7112;0,0648243
3351,6755;0,0647274
3352,6396;0,0646354
3353,6040;0,0645428
3354,5681;0,0644442
3355,5325;0,0643368
3356,4966;0,0642211
3357,4609;0,0641002
3358,4250;0,0639782
3359,3894;0,0638602
3360,3535;0,0637516
3361,3179;0,0636561
3362,2820;0,063573
3363,2463;0,0634944
3364,2104;0,0634063
3365,1748;0,0632933
3366,1389;0,0631463
3367,1033;0,0629674
3368,0674;0,0627706
3369,0317;0,0625741
3369,9958;0,0623926
3370,9602;0,0622314
3371,9243;0,0620863
3372,8887;0,0619493
3373,8528;0,0618131
3374,8171;0,0616757
3375,7813;0,0615395
3376,7456;0,06141
3377,7097;0,0612924
3378,6741;0,0611891
3379,6382;0,0610983
3380,6025;0,0610121
3381,5667;0,0609186
3382,5310;0,060806
3383,4951;0,0606697
3384,4595;0,0605178
3385,4236;0,0603696
3386,3879;0,0602473
3387,3521;0,0601639
3388,3164;0,0601156
3389,2805;0,0600829
3390,2449;0,0600402
3391,2090;0,0599667
3392,1733;0,0598546
3393,1375;0,0597101
3394,1018;0,0595468
3395,0659;0,0593775
3396,0303;0,0592096
3396,9944;0,0590457
3397,9587;0,0588864
3398,9229;0,0587315
3399,8872;0,0585799
3400,8513;0,0584293
3401,8157;0,0582764
3402,7798;0,0581181
3403,7441;0,0579534
3404,7083;0,0577836
3405,6726;0,0576117
3406,6367;0,0574417
3407,6011;0,0572763
3408,5652;0,0571158
3409,5295;0,0569569
3410,4937;0,0567953
3411,4580;0,0566295
3412,4221;0,0564649
3413,3865;0,0563137
3414,3506;0,0561878
3415,3149;0,0560901
3416,2791;0,0560093
3417,2434;0,0559201
3418,2075;0,0557933
3419,1719;0,0556097
3420,1360;0,0553713
3421,1003;0,0551012
3422,0645;0,0548319
3423,0288;0,0545882
3423,9929;0,0543767
3424,9573;0,0541882
3425,9214;0,0540068
3426,8857;0,0538198
3427,8499;0,0536225
3428,8142;0,0534173
3429,7783;0,0532091
3430,7427;0,053001
3431,7068;0,0527922
3432,6711;0,0525798
3433,6353;0,0523621
3434,5996;0,0521416
3435,5637;0,051925
3436,5281;0,0517206
3437,4922;0,0515359
3438,4565;0,0513751
3439,4207;0,0512388
3440,3850;0,0511245
3441,3491;0,0510251
3442,3135;0,0509278
3443,2776;0,0508131
3444,2419;0,0506572
3445,2061;0,05044
3446,1704;0,050155
3447,1345;0,0498181
3448,0989;0,0494646
3449,0630;0,0491335
3450,0273;0,0488491
3450,9915;0,0486142
3451,9558;0,0484159
3452,9199;0,0482364
3453,8843;0,0480619
3454,8484;0,0478873
3455,8127;0,0477154
3456,7769;0,0475506
3457,7412;0,0473937
3458,7053;0,0472379
3459,6697;0,0470718
3460,6338;0,0468853
3461,5981;0,0466755
3462,5623;0,0464482
3463,5266;0,0462126
3464,4907;0,0459749
3465,4551;0,0457354
3466,4192;0,0454922
3467,3835;0,0452482
3468,3477;0,0450135
3469,3120;0,0448011
3470,2761;0,0446173
3471,2405;0,0444547
3472,2046;0,0442955
3473,1689;0,0441227
3474,1331;0,0439325
3475,0974;0,0437377
3476,0615;0,0435581
3477,0259;0,0434048
3477,9900;0,0432702
3478,9543;0,043131
3479,9185;0,042962
3480,8828;0,0427519
3481,8469;0,0425124
3482,8113;0,0422701
3483,7754;0,0420472
3484,7397;0,0418472
3485,7039;0,0416551
3486,6682;0,0414517
3487,6323;0,0412282
3488,5967;0,0409942
3489,5608;0,0407713
3490,5251;0,0405769
3491,4893;0,0404117
3492,4536;0,0402592
3493,4177;0,040098
3494,3821;0,0399182
3495,3462;0,0397329
3496,3105;0,0395736
3497,2747;0,0394698
3498,2390;0,0394264
3499,2031;0,0394146
3500,1675;0,039382
3501,1316;0,0392748
3502,0959;0,0390665
3503,0601;0,0387779
3504,0244;0,0384677
3504,9885;0,0381899
3505,9529;0,0379581
3506,9170;0,0377463
3507,8813;0,0375147
3508,8455;0,037239
3509,8098;0,0369269
3510,7739;0,0366132
3511,7383;0,036336
3512,7024;0,0361121
3513,6667;0,0359334
3514,6309;0,0357826
3515,5952;0,0356501
3516,5593;0,0355395
3517,5237;0,0354609
3518,4878;0,0354179
3519,4521;0,0354006
3520,4163;0,0353893
3521,3806;0,0353634
3522,3447;0,0353103
3523,3091;0,035226
3524,2732;0,035108
3525,2375;0,0349446
3526,2017;0,0347141
3527,1660;0,0343987
3528,1301;0,0340065
3529,0945;0,033581
3530,0586;0,0331853
3531,0229;0,0328664
3531,9871;0,0326331
3532,9514;0,0324574
3533,9155;0,0322936
3534,8799;0,0321027
3535,8440;0,0318747
3536,8083;0,0316393
3537,7725;0,0314528
3538,7368;0,0313663
3539,7009;0,0313947
3540,6653;0,0315077
3541,6294;0,0316395
3542,5938;0,0317055
3543,5579;0,0316259
3544,5222;0,0313662
3545,4863;0,0309731
3546,4507;0,0305611
3547,4148;0,0302351
3548,3792;0,0300178
3549,3433;0,0298495
3550,3076;0,0296434
3551,2717;0,0293454
3552,2361;0,0289702
3553,2002;0,0285936
3554,1646;0,0283009
3555,1287;0,0281283
3556,0930;0,0280512
3557,0571;0,0280216
3558,0215;0,0280134
3558,9856;0,0280425
3559,9500;0,0281474
3560,9141;0,0283466
3561,8784;0,0286038
3562,8425;0,0288261
3563,8069;0,0288819
3564,7710;0,0286219
3565,7354;0,0279384
3566,6995;0,0269093
3567,6638;0,0258667
3568,6279;0,0251641
3569,5923;0,024889
3570,5564;0,0248816
3571,5208;0,0249316
3572,4849;0,024911
3573,4492;0,0247937
3574,4133;0,0246144
3575,3777;0,0244165
3576,3418;0,0242212
3577,3062;0,0240319
3578,2703;0,023859
3579,2346;0,0237359
3580,1987;0,0237028
3581,1631;0,0237693
3582,1272;0,0238882
3583,0916;0,0239659
3584,0557;0,0238953
3585,0200;0,0235829
3585,9841;0,0229847
3586,9485;0,0221885
3587,9126;0,021456
3588,8770;0,0210504
3589,8411;0,0210114
3590,8054;0,0211692
3591,7695;0,0213204
3592,7339;0,0213505
3593,6980;0,0212548
3594,6624;0,0210998
3595,6265;0,0209569
3596,5908;0,0208402
3597,5549;0,0206963
3598,5193;0,0204601
3599,4834;0,0201273
3600,4478;0,0197792
3601,4119;0,0195296
3602,3762;0,0194348
3603,3403;0,019454
3604,3047;0,0194913
3605,2688;0,0194637
3606,2332;0,0193432
3607,1973;0,0191666
3608,1616;0,0190215
3609,1257;0,0190022
3610,0901;0,0191475
3611,0542;0,0194137
3612,0186;0,0197018
3612,9827;0,0199083
3613,9470;0,01996
3614,9111;0,019818
3615,8755;0,0194616
3616,8396;0,0188777
3617,8040;0,0180832
3618,7681;0,0171867
3619,7324;0,0164222
3620,6965;0,0160381
3621,6609;0,016098
3622,6250;0,0164293
3623,5894;0,0167541
3624,5535;0,0168433
3625,5178;0,016589
3626,4819;0,0159941
3627,4463;0,0151362
3628,4104;0,0142119
3629,3748;0,0135722
3630,3389;0,0134626
3631,3032;0,0137626
3632,2673;0,0141498
3633,2317;0,014386
3634,1958;0,0144244
3635,1602;0,014357
3636,1243;0,0143045
3637,0886;0,0143299
3638,0527;0,0144267
3639,0171;0,0145676
3639,9812;0,0147552
3640,9456;0,0150247
3641,9097;0,0154013
3642,8740;0,0158601
3643,8381;0,0163309
3644,8025;0,0167418
3645,7666;0,017036
3646,7310;0,0170918
3647,6951;0,016612
3648,6594;0,0153969
3649,6235;0,013942
3650,5879;0,0130486
3651,5520;0,0128802
3652,5164;0,0130397
3653,4805;0,0131095
3654,4448;0,0129065
3655,4089;0,0124896
3656,3733;0,0120632
3657,3374;0,0118213
3658,3018;0,0118084
3659,2659;0,0119166
3660,2302;0,0120153
3661,1943;0,0120709
3662,1587;0,0121543
3663,1228;0,012349
3664,0872;0,0126532
3665,0513;0,0129732
3666,0156;0,0132001
3666,9797;0,0132927
3667,9441;0,0132872
3668,9082;0,0132499
3669,8726;0,0132397
3670,8367;0,0132739
3671,8010;0,0132794
3672,7651;0,0131237
3673,7295;0,0127102
3674,6936;0,0120487
3675,6580;0,0113096
3676,6221;0,0107854
3677,5864;0,0106414
3678,5505;0,0107672
3679,5149;0,010949
3680,4790;0,0110765
3681,4434;0,0111751
3682,4075;0,0113135
3683,3718;0,0115063
3684,3359;0,011695
3685,3003;0,0118038
3686,2644;0,0117974
3687,2288;0,0116656
3688,1929;0,0113661
3689,1572;0,010876
3690,1213;0,0103356
3691,0857;0,00996144
3692,0498;0,00981791
3693,0142;0,00981507
3693,9783;0,00984653
3694,9426;0,00986097
3695,9067;0,00985014
3696,8711;0,00981358
3697,8352;0,00974048
3698,7996;0,009615
3699,7637;0,00943449
3700,7280;0,0092314
3701,6921;0,00908802
3702,6565;0,00911162
3703,6206;0,00936163
3704,5850;0,00979746
3705,5491;0,0103063
3706,5134;0,0107724
3707,4775;0,0111159
3708,4419;0,0112727
3709,4060;0,0111529
3710,3704;0,0107014
3711,3345;0,0100829
3712,2988;0,00966255
3713,2629;0,00966255
3714,2273;0,00999157
3715,1914;0,0104065
3716,1558;0,0107108
3717,1199;0,0108331
3718,0842;0,0108116
3719,0483;0,0107334
3720,0127;0,0106651
3720,9768;0,010607
3721,9412;0,0104999
3722,9053;0,0102795
3723,8696;0,00994475
3724,8337;0,00959023
3725,7981;0,00936312
3726,7622;0,00936704
3727,7266;0,00960055
3728,6907;0,00998436
3729,6550;0,0104324
3730,6191;0,0108915
3731,5835;0,011315
3732,5476;0,011593
3733,5120;0,0115396
3734,4761;0,0110856
3735,4404;0,0105365
3736,4045;0,0103987
3737,3689;0,0108606
3738,3330;0,0116463
3739,2974;0,0122935
3740,2615;0,0124448
3741,2258;0,0119935
3742,1899;0,0111352
3743,1543;0,0103312
3744,1184;0,010105
3745,0828;0,010684
3746,0469;0,0118066
3747,0112;0,0129366
3747,9753;0,0135979
3748,9397;0,0135269
3749,9038;0,0127332
3750,8682;0,011623
3751,8323;0,0108775
3752,7966;0,0108674
3753,7607;0,0113829
3754,7251;0,011978
3755,6892;0,0123225
3756,6536;0,012299
3757,6177;0,0119695
3758,5820;0,0115182
3759,5461;0,0111645
3760,5105;0,0110402
3761,4746;0,0111292
3762,4390;0,0113218
3763,4031;0,0115057
3764,3674;0,011612
3765,3315;0,0116124
3766,2959;0,0114984
3767,2600;0,0112689
3768,2244;0,0109374
3769,1885;0,010555
3770,1528;0,0102244
3771,1169;0,0100639
3772,0813;0,0101321
3773,0454;0,0103841
3774,0098;0,0107028
3774,9739;0,0109672
3775,9382;0,0111026
3776,9023;0,0110926
3777,8667;0,0109725
3778,8308;0,010824
3779,7952;0,0107461
3780,7593;0,0107933
3781,7236;0,0109354
3782,6877;0,011082
3783,6521;0,0111378
3784,6162;0,0110503
3785,5806;0,0108355
3786,5447;0,0105715
3787,5090;0,0103591
3788,4731;0,010271
3789,4375;0,0103222
3790,4016;0,010478
3791,3660;0,0106907
3792,3301;0,0109376
3793,2944;0,0112352
3794,2585;0,0116142
3795,2229;0,0120717
3796,1870;0,0125387
3797,1514;0,0128972
3798,1155;0,0130347
3799,0798;0,0129004
3800,0439;0,0125401
3801,0083;0,0120984
3801,9724;0,0117456
3802,9368;0,0115335
3803,9009;0,0113398
3804,8652;0,0109912
3805,8293;0,0104453
3806,7937;0,00988096
3807,7578;0,00960387
3808,7222;0,00979625
3809,6863;0,0103497
3810,6506;0,0109663
3811,6147;0,0113883
3812,5791;0,011545
3813,5432;0,0115616
3814,5076;0,0116539
3815,4717;0,0119662
3816,4360;0,012456
3817,4001;0,0129135
3818,3645;0,0130882
3819,3286;0,0128343
3820,2930;0,0122266
3821,2571;0,0115728
3822,2214;0,0112111
3823,1855;0,011241
3824,1499;0,0115004
3825,1140;0,0117555
3826,0784;0,0118654
3827,0425;0,0118243
3828,0068;0,0117203
3828,9709;0,0116622
3829,9353;0,0117192
3830,8994;0,0118985
3831,8638;0,0121585
3832,8279;0,0124376
3833,7922;0,0126805
3834,7563;0,012853
3835,7207;0,0129377
3836,6848;0,0129179
3837,6492;0,0127762
3838,6133;0,0125238
3839,5776;0,0122075
3840,5417;0,0118667
3841,5061;0,0115111
3842,4702;0,0111674
3843,4346;0,0109287
3844,3987;0,0109312
3845,3630;0,0112624
3846,3271;0,0118766
3847,2915;0,0125941
3848,2556;0,013175
3849,2200;0,0134073
3850,1841;0,0131506
3851,1484;0,0123212
3852,1125;0,0109138
3853,0769;0,00928225
3854,0410;0,00827
3855,0054;0,00840531
3855,9695;0,00937076
3856,9338;0,0105368
3857,8979;0,0114752
3858,8623;0,0120471
3859,8264;0,0123098
3860,7908;0,012398
3861,7549;0,0124224
3862,7192;0,0124224
3863,6833;0,0123962
3864,6477;0,0123496
3865,6118;0,012295
3866,5762;0,0122339
3867,5403;0,0121592
3868,5046;0,0120598
3869,4688;0,0119148
3870,4331;0,0117046
3871,3972;0,0114473
3872,3616;0,0112094
3873,3257;0,0110605
3874,2900;0,011024
3875,2542;0,0110707
3876,2185;0,0111543
3877,1826;0,0112496
3878,1470;0,0113647
3879,1111;0,0115157
3880,0754;0,0116833
3881,0396;0,0117929
3882,0039;0,0117446
3882,9680;0,0114797
3883,9324;0,011046
3884,8965;0,0106089
3885,8608;0,0103652
3886,8250;0,0104038
3887,7893;0,0106426
3888,7534;0,0109014
3889,7178;0,0110293
3890,6819;0,0109957
3891,6462;0,010911
3892,6104;0,0109478
3893,5747;0,0111895
3894,5388;0,0115595
3895,5032;0,0119074
3896,4673;0,0121312
3897,4316;0,0122226
3898,3958;0,0122268
3899,3601;0,0121759
3900,3242;0,0120523
3901,2886;0,0118055
3902,2527;0,0114059
3903,2170;0,0108998
3904,1812;0,0104162
3905,1455;0,0100878
3906,1096;0,00995751
3907,0740;0,00997005
3908,0381;0,0100402
3909,0024;0,0101186
3909,9666;0,0102071
3910,9309;0,0103322
3911,8950;0,010506
3912,8594;0,0107041
3913,8235;0,0108724
3914,7878;0,0109543
3915,7520;0,0109233
3916,7163;0,0108112
3917,6804;0,0107086
3918,6448;0,0107144
3919,6089;0,0108608
3920,5732;0,0110876
3921,5374;0,0112854
3922,5017;0,0113651
3923,4658;0,0113105
3924,4302;0,0111901
3925,3943;0,0111127
3926,3586;0,0111473
3927,3228;0,0112768
3928,2871;0,0114171
3929,2512;0,0114703
3930,2156;0,011374
3931,1797;0,0111339
3932,1440;0,0108284
3933,1082;0,0105647
3934,0725;0,0104143
3935,0366;0,010385
3936,0010;0,0104434
3936,9651;0,0105483
3937,9294;0,0106672
3938,8936;0,0107748
3939,8579;0,0108493
3940,8220;0,0108773
3941,7864;0,0108668
3942,7505;0,0108519
3943,7148;0,010874
3944,6790;0,0109484
3945,6433;0,0110488
3946,6074;0,0111222
3947,5718;0,0111189
3948,5359;0,0110215
3949,5002;0,0108578
3950,4644;0,0106851
3951,4287;0,0105535
3952,3928;0,0104809
3953,3572;0,0104565
3954,3213;0,01046
3955,2856;0,0104766
3956,2498;0,0104989
3957,2141;0,0105217
3958,1782;0,0105362
3959,1426;0,0105314
3960,1067;0,0105
3961,0710;0,0104465
3962,0352;0,0103882
3962,9995;0,0103474
3963,9636;0,0103386
3964,9280;0,0103607
3965,8921;0,0103991
3966,8564;0,0104361
3967,8206;0,0104612
3968,7849;0,0104759
3969,7490;0,0104884
3970,7134;0,0105045
3971,6775;0,01052
3972,6418;0,0105224
3973,6060;0,0105005
3974,5703;0,0104546
3975,5344;0,0103994
3976,4988;0,010355
3977,4629;0,0103344
3978,4272;0,0103346
3979,3914;0,0103392
3980,3557;0,0103283
3981,3198;0,010291
3982,2842;0,0102334
3983,2483;0,0101758
3984,2126;0,0101429
3985,1768;0,0101513
3986,1411;0,0102016
3987,1052;0,0102787
3988,0696;0,0103585
3989,0337;0,0104188
3989,9980;0,0104471
3990,9622;0,0104439
3991,9265;0,0104188
3992,8906;0,0103835
3993,8550;0,0103456
3994,8191;0,0103075
3995,7834;0,0102696
3996,7476;0,0102335
3997,7119;0,0102039
3998,6760;0,0101869
3999,6404;0,0101866
4000,6045;0,0106042

##### Extended Information
[Comments]
Sample name
Comment
Username
Division
Organization;UNIVERSIDAD INDUSTRIAL DE SANTANDER

[Detailed Information]
Creation date;18/03/2025 2:04 p.m.

Data array type;Linear data array
Horizontal axis;Wavenumber [cm-1]
Vertical axis;Abs
Start;399,193 cm-1
End;4000,6 cm-1
Data interval;0,964233 cm-1
Data points;3736    

[Measurement Information]
Model name;FT/IR-4X1typeA
Serial No.;A035162111

Accessory;ATR PRO 4X
Accessory S/N;A021162126
Incident angle;45 deg

Measurement date;18/03/2025 2:04 p.m.

Light source;Standard
Detector;TGS
Accumulation;40
Resolution;4 cm-1
Zero filling;On
Apodization;Cosine
Gain;Auto (8)
Aperture;Auto (7 mm)
Scan speed;Auto (2 mm/sec)
Filter;Auto (12800 Hz)

