TITLE;
DATA TYPE;INFRARED SPECTRUM
ORIGIN;JASCO
OWNER;
DATE;25/03/18
TIME;12:21:53
SPECTROMETER/DATA SYSTEM;
LOCALE;9226
RESOLUTION;
DELTAX;0,964233
XUNITS;1/CM
YUNITS;ABSORBANCE
FIRSTX;  399,1927
LASTX; 4000,6047
NPOINTS;    3736
FIRSTY;     0,20925
MAXY;     0,24938
MINY;     0,00985
XYDATA
399,1927;0,209251
400,1569;0,20716
401,1211;0,205874
402,0854;0,205522
403,0496;0,205958
404,0138;0,206903
404,9781;0,208016
405,9423;0,208981
406,9065;0,209614
407,8708;0,209908
408,8350;0,20998
409,7992;0,209972
410,7635;0,209981
411,7277;0,210038
412,6919;0,210122
413,6562;0,21019
414,6204;0,210216
415,5846;0,210233
416,5489;0,210383
417,5131;0,210937
418,4773;0,212139
419,4416;0,21388
420,4058;0,215645
421,3700;0,21698
422,3343;0,217794
423,2985;0,218234
424,2627;0,218485
425,2270;0,218663
426,1912;0,218786
427,1554;0,218809
428,1197;0,218708
429,0839;0,218537
430,0481;0,21842
431,0124;0,218476
431,9766;0,218724
432,9408;0,219057
433,9051;0,2193
434,8693;0,219329
435,8335;0,219171
436,7978;0,218984
437,7620;0,218955
438,7262;0,219171
439,6905;0,21958
440,6547;0,220016
441,6189;0,220274
442,5832;0,220184
443,5474;0,219693
444,5116;0,218886
445,4759;0,217953
446,4401;0,217097
447,4043;0,216473
448,3686;0,21616
449,3328;0,216155
450,2970;0,216378
451,2613;0,216689
452,2255;0,216937
453,1897;0,216999
454,1540;0,216809
455,1182;0,216363
456,0824;0,215709
457,0467;0,214952
458,0109;0,214254
458,9751;0,213779
459,9394;0,213627
460,9036;0,213799
461,8678;0,214225
462,8321;0,214783
463,7963;0,215307
464,7605;0,215606
465,7248;0,215516
466,6890;0,214976
467,6532;0,214065
468,6175;0,212972
469,5817;0,211922
470,5459;0,211121
471,5102;0,210706
472,4744;0,21071
473,4386;0,211054
474,4029;0,211602
475,3671;0,212228
476,3313;0,212853
477,2956;0,213434
478,2598;0,213945
479,2240;0,214359
480,1883;0,214655
481,1525;0,214822
482,1167;0,214876
483,0810;0,214861
484,0452;0,214841
485,0094;0,214879
485,9737;0,215013
486,9379;0,215246
487,9021;0,215557
488,8664;0,215927
489,8306;0,216345
490,7948;0,216796
491,7591;0,217249
492,7233;0,217642
493,6875;0,217901
494,6518;0,217975
495,6160;0,217866
496,5802;0,217633
497,5445;0,217372
498,5087;0,217178
499,4729;0,217123
500,4372;0,21723
501,4014;0,217472
502,3656;0,217784
503,3299;0,218098
504,2941;0,218377
505,2583;0,218636
506,2226;0,218935
507,1868;0,219335
508,1510;0,219867
509,1153;0,220502
510,0795;0,221168
511,0437;0,22179
512,0080;0,222336
512,9722;0,222827
513,9365;0,223317
514,9007;0,223845
515,8649;0,224385
516,8292;0,224836
517,7934;0,225065
518,7576;0,224995
519,7219;0,224663
520,6861;0,224198
521,6503;0,223742
522,6146;0,223387
523,5788;0,223162
524,5430;0,223048
525,5073;0,223011
526,4715;0,223022
527,4357;0,223057
528,4000;0,223081
529,3642;0,223035
530,3284;0,222847
531,2927;0,222465
532,2569;0,2219
533,2211;0,221235
534,1854;0,220606
535,1496;0,220141
536,1138;0,219907
537,0781;0,219886
538,0423;0,219998
539,0065;0,220142
539,9708;0,220239
540,9350;0,22026
541,8992;0,220219
542,8635;0,220167
543,8277;0,220163
544,7919;0,220257
545,7562;0,220464
546,7204;0,220756
547,6846;0,221074
548,6489;0,221353
549,6131;0,221559
550,5773;0,221706
551,5416;0,221857
552,5058;0,222092
553,4700;0,222471
554,4343;0,222989
555,3985;0,223553
556,3627;0,223986
557,3270;0,224081
558,2912;0,223673
559,2554;0,222707
560,2197;0,221267
561,1839;0,21955
562,1481;0,217794
563,1124;0,216203
564,0766;0,214884
565,0408;0,213846
566,0051;0,213027
566,9693;0,212347
567,9335;0,211746
568,8978;0,211203
569,8620;0,21073
570,8262;0,210345
571,7905;0,210057
572,7547;0,209853
573,7189;0,209697
574,6832;0,20954
575,6474;0,209331
576,6116;0,209045
577,5759;0,20869
578,5401;0,208304
579,5043;0,207937
580,4686;0,207629
581,4328;0,207394
582,3970;0,207217
583,3613;0,207071
584,3255;0,206933
585,2897;0,206796
586,2540;0,206665
587,2182;0,206551
588,1824;0,206453
589,1467;0,206356
590,1109;0,206238
591,0751;0,206079
592,0394;0,205873
593,0036;0,20562
593,9678;0,205321
594,9321;0,204965
595,8963;0,204538
596,8605;0,204035
597,8248;0,203477
598,7890;0,20291
599,7532;0,202392
600,7175;0,201954
601,6817;0,201587
602,6459;0,201243
603,6102;0,200862
604,5744;0,200405
605,5386;0,199866
606,5029;0,199257
607,4671;0,198593
608,4313;0,19787
609,3956;0,197078
610,3598;0,196221
611,3240;0,195337
612,2883;0,19449
613,2525;0,19374
614,2167;0,193098
615,1810;0,192507
616,1452;0,191854
617,1094;0,191011
618,0737;0,189912
619,0379;0,18858
620,0021;0,187111
620,9664;0,185625
621,9306;0,18422
622,8948;0,182958
623,8591;0,181872
624,8233;0,180961
625,7875;0,180216
626,7518;0,17959
627,7160;0,179023
628,6802;0,178451
629,6445;0,177827
630,6087;0,177132
631,5729;0,176368
632,5372;0,175559
633,5014;0,174742
634,4656;0,173963
635,4299;0,173268
636,3941;0,172697
637,3583;0,172261
638,3226;0,171939
639,2868;0,171677
640,2510;0,171401
641,2153;0,171051
642,1795;0,170598
643,1437;0,170058
644,1080;0,16948
645,0722;0,168923
646,0364;0,168433
647,0007;0,168029
647,9649;0,167706
648,9291;0,167448
649,8934;0,167245
650,8576;0,167102
651,8218;0,167027
652,7861;0,167029
653,7503;0,167107
654,7145;0,167258
655,6788;0,167481
656,6430;0,167769
657,6072;0,168097
658,5715;0,168395
659,5357;0,168549
660,4999;0,168449
661,4642;0,168064
662,4284;0,167479
663,3926;0,166847
664,3569;0,166316
665,3211;0,165995
666,2853;0,165918
667,2496;0,165918
668,2138;0,165525
669,1780;0,164375
670,1423;0,162722
671,1065;0,160996
672,0707;0,159325
673,0350;0,157637
673,9992;0,155855
674,9634;0,153984
675,9277;0,152107
676,8919;0,150323
677,8561;0,148688
678,8204;0,147192
679,7846;0,145811
680,7488;0,144546
681,7131;0,143427
682,6773;0,142482
683,6415;0,141711
684,6058;0,141075
685,5700;0,140516
686,5342;0,139971
687,4985;0,139398
688,4627;0,13879
689,4269;0,138165
690,3912;0,137563
691,3554;0,13701
692,3196;0,136507
693,2839;0,136027
694,2481;0,135535
695,2123;0,135015
696,1766;0,13448
697,1408;0,133959
698,1050;0,133473
699,0693;0,133016
700,0335;0,132555
700,9977;0,132047
701,9620;0,131466
702,9262;0,13081
703,8904;0,130095
704,8547;0,129344
705,8189;0,128578
706,7831;0,127807
707,7474;0,127045
708,7116;0,126303
709,6758;0,125588
710,6401;0,124897
711,6043;0,124207
712,5685;0,123494
713,5328;0,122754
714,4970;0,122016
715,4612;0,121221
716,4255;0,120662
717,3897;0,120206
718,3539;0,119776
719,3182;0,119243
720,2824;0,118486
721,2466;0,117463
722,2109;0,116236
723,1751;0,114932
724,1393;0,113679
725,1036;0,112562
726,0678;0,111604
727,0320;0,110777
727,9963;0,11002
728,9605;0,109268
729,9247;0,108477
730,8890;0,10764
731,8532;0,106786
732,8174;0,105963
733,7817;0,105211
734,7459;0,104542
735,7101;0,103939
736,6744;0,103371
737,6386;0,102816
738,6028;0,102273
739,5671;0,101759
740,5313;0,101287
741,4955;0,100852
742,4598;0,100431
743,4240;0,0999897
744,3882;0,0995052
745,3525;0,0989761
746,3167;0,0984226
747,2809;0,0978764
748,2452;0,0973659
749,2094;0,0969057
750,1736;0,0964917
751,1379;0,0961039
752,1021;0,0957148
753,0663;0,0952994
754,0306;0,0948452
754,9948;0,094356
755,9590;0,0938494
756,9233;0,0933471
757,8875;0,0928651
758,8517;0,0924086
759,8160;0,0919732
760,7802;0,0915536
761,7444;0,0911501
762,7087;0,0907702
763,6729;0,0904229
764,6371;0,0901111
765,6014;0,0898264
766,5656;0,0895529
767,5298;0,089274
768,4941;0,0889797
769,4583;0,0886682
770,4225;0,0883435
771,3868;0,0880118
772,3510;0,0876814
773,3152;0,0873643
774,2795;0,0870753
775,2437;0,0868269
776,2079;0,0866196
777,1722;0,0864361
778,1364;0,0862434
779,1006;0,0860056
780,0649;0,0856987
781,0291;0,085319
781,9933;0,0848809
782,9576;0,0844058
783,9218;0,0839112
784,8860;0,0834074
785,8503;0,0829014
786,8145;0,0824039
787,7787;0,0819322
788,7430;0,0815061
789,7072;0,081139
790,6714;0,0808319
791,6357;0,0805722
792,5999;0,0803389
793,5641;0,080111
794,5284;0,0798737
795,4926;0,0796224
796,4568;0,0793621
797,4211;0,0791049
798,3853;0,0788643
799,3495;0,07865
800,3138;0,0784633
801,2780;0,078298
802,2422;0,0781438
803,2065;0,0779936
804,1707;0,0778466
805,1349;0,0777076
806,0992;0,0775821
807,0634;0,0774708
808,0276;0,077368
808,9919;0,0772641
809,9561;0,0771505
810,9203;0,0770237
811,8846;0,0768859
812,8488;0,0767438
813,8130;0,076607
814,7773;0,0764869
815,7415;0,0763961
816,7057;0,0763455
817,6700;0,0763405
818,6342;0,0763754
819,5984;0,0764321
820,5627;0,0764843
821,5269;0,0765055
822,4911;0,0764791
823,4554;0,076403
824,4196;0,0762872
825,3839;0,0761461
826,3481;0,0759903
827,3123;0,0758239
828,2766;0,0756472
829,2408;0,0754609
830,2050;0,0752691
831,1693;0,0750751
832,1335;0,0748768
833,0977;0,0746635
834,0620;0,0744202
835,0262;0,0741367
835,9904;0,0738156
836,9547;0,0734732
837,9189;0,0731334
838,8831;0,0728173
839,8474;0,0725362
840,8116;0,0722929
841,7758;0,0720868
842,7401;0,0719182
843,7043;0,0717871
844,6685;0,0716868
845,6328;0,0715989
846,5970;0,071497
847,5612;0,0713584
848,5255;0,0711784
849,4897;0,070976
850,4539;0,0707855
851,4182;0,0706379
852,3824;0,0705436
853,3466;0,0704885
854,3109;0,0704452
855,2751;0,0703907
856,2393;0,07032
857,2036;0,0702447
858,1678;0,0701814
859,1320;0,0701387
860,0963;0,0701131
861,0605;0,0700959
862,0247;0,0700831
862,9890;0,070082
863,9532;0,0701079
864,9174;0,0701763
865,8817;0,0702967
866,8459;0,0704713
867,8101;0,0706979
868,7744;0,0709715
869,7386;0,0712827
870,7028;0,0716148
871,6671;0,0719431
872,6313;0,0722419
873,5955;0,0724933
874,5598;0,0726958
875,5240;0,0728641
876,4882;0,073024
877,4525;0,0732023
878,4167;0,0734205
879,3809;0,0736929
880,3452;0,0740293
881,3094;0,0744383
882,2736;0,0749295
883,2379;0,0755117
884,2021;0,0761905
885,1663;0,0769651
886,1306;0,0778261
887,0948;0,0787558
888,0590;0,0797303
889,0233;0,0807227
889,9875;0,0817067
890,9517;0,0826578
891,9160;0,0835527
892,8802;0,0843672
893,8444;0,0850739
894,8087;0,0856437
895,7729;0,0860491
896,7371;0,0862699
897,7014;0,0862965
898,6656;0,0861318
899,6298;0,0857896
900,5941;0,0852932
901,5583;0,0846752
902,5225;0,0839776
903,4868;0,0832505
904,4510;0,0825467
905,4152;0,0819141
906,3795;0,081385
907,3437;0,0809711
908,3079;0,0806636
909,2722;0,0804413
910,2364;0,0802814
911,2007;0,0801704
912,1649;0,0801084
913,1292;0,080107
914,0934;0,0801814
915,0576;0,0803409
916,0219;0,0805826
916,9861;0,0808913
917,9503;0,0812453
918,9146;0,0816246
919,8788;0,0820169
920,8430;0,0824187
921,8073;0,0828294
922,7715;0,0832449
923,7357;0,0836539
924,7000;0,0840404
925,6642;0,084391
926,6284;0,0847013
927,5927;0,0849791
928,5569;0,0852402
929,5211;0,0855027
930,4854;0,0857804
931,4496;0,0860814
932,4138;0,0864077
933,3781;0,0867587
934,3423;0,0871339
935,3065;0,0875364
936,2708;0,0879761
937,2350;0,0884706
938,1992;0,0890431
939,1635;0,0897157
940,1277;0,0905016
941,0919;0,0914008
942,0562;0,0924022
943,0204;0,0934916
943,9846;0,0946588
944,9489;0,0959005
945,9131;0,0972168
946,8773;0,0986042
947,8416;0,100053
948,8058;0,101548
949,7700;0,103078
950,7343;0,104639
951,6985;0,106236
952,6627;0,107873
953,6270;0,109553
954,5912;0,111268
955,5554;0,113009
956,5197;0,114769
957,4839;0,116554
958,4481;0,118379
959,4124;0,120262
960,3766;0,122214
961,3408;0,124228
962,3051;0,126277
963,2693;0,128328
964,2335;0,130352
965,1978;0,132345
966,1620;0,13433
967,1262;0,136348
968,0905;0,138444
969,0547;0,140652
970,0189;0,142985
970,9832;0,145447
971,9474;0,148043
972,9116;0,150788
973,8759;0,153706
974,8401;0,156816
975,8043;0,160122
976,7686;0,163599
977,7328;0,167196
978,6970;0,170847
979,6613;0,174474
980,6255;0,177994
981,5897;0,181327
982,5540;0,184401
983,5182;0,187163
984,4824;0,189586
985,4467;0,191678
986,4109;0,193475
987,3751;0,195032
988,3394;0,196407
989,3036;0,19765
990,2678;0,198787
991,2321;0,199828
992,1963;0,200765
993,1605;0,201587
994,1248;0,202294
995,0890;0,202905
996,0532;0,203456
997,0175;0,203991
997,9817;0,204546
998,9459;0,205142
999,9102;0,205786
1000,8744;0,206488
1001,8386;0,207268
1002,8029;0,208167
1003,7671;0,209232
1004,7313;0,210503
1005,6956;0,211994
1006,6598;0,213694
1007,6240;0,215573
1008,5883;0,217597
1009,5525;0,219745
1010,5167;0,221997
1011,4810;0,224336
1012,4452;0,226726
1013,4094;0,229114
1014,3737;0,231431
1015,3379;0,233612
1016,3021;0,2356
1017,2664;0,237369
1018,2306;0,238914
1019,1948;0,240259
1020,1591;0,241443
1021,1233;0,242514
1022,0875;0,243516
1023,0518;0,244479
1024,0160;0,245414
1024,9802;0,246313
1025,9445;0,247157
1026,9087;0,247921
1027,8729;0,248576
1028,8372;0,249082
1029,8014;0,249377
1030,7656;0,249376
1031,7299;0,24898
1032,6941;0,248103
1033,6583;0,246709
1034,6226;0,244832
1035,5868;0,242584
1036,5510;0,240139
1037,5153;0,237695
1038,4795;0,235434
1039,4437;0,233488
1040,4080;0,231921
1041,3722;0,230726
1042,3364;0,229843
1043,3007;0,229181
1044,2649;0,228645
1045,2291;0,228154
1046,1934;0,227641
1047,1576;0,227057
1048,1218;0,226357
1049,0861;0,225497
1050,0503;0,224442
1051,0145;0,223167
1051,9788;0,221666
1052,9430;0,219956
1053,9072;0,218061
1054,8715;0,216004
1055,8357;0,213787
1056,7999;0,211384
1057,7642;0,20875
1058,7284;0,205837
1059,6926;0,202631
1060,6569;0,19917
1061,6211;0,195551
1062,5853;0,191908
1063,5496;0,18838
1064,5138;0,185073
1065,4780;0,182036
1066,4423;0,179265
1067,4065;0,176723
1068,3707;0,174364
1069,3350;0,172146
1070,2992;0,170038
1071,2634;0,168011
1072,2277;0,166025
1073,1919;0,164033
1074,1561;0,161985
1075,1204;0,15985
1076,0846;0,157628
1077,0488;0,155354
1078,0131;0,153087
1078,9773;0,150899
1079,9415;0,148852
1080,9058;0,146992
1081,8700;0,145344
1082,8342;0,143914
1083,7985;0,142694
1084,7627;0,141665
1085,7269;0,140803
1086,6912;0,140082
1087,6554;0,139484
1088,6196;0,139003
1089,5839;0,138638
1090,5481;0,138391
1091,5123;0,13826
1092,4766;0,13823
1093,4408;0,138277
1094,4050;0,138379
1095,3693;0,138513
1096,3335;0,138667
1097,2977;0,138832
1098,2620;0,139001
1099,2262;0,139162
1100,1904;0,139302
1101,1547;0,139403
1102,1189;0,139447
1103,0831;0,139418
1104,0474;0,139307
1105,0116;0,139112
1105,9758;0,138844
1106,9401;0,138515
1107,9043;0,138127
1108,8685;0,137664
1109,8328;0,137079
1110,7970;0,136315
1111,7612;0,135318
1112,7255;0,134071
1113,6897;0,132613
1114,6539;0,131029
1115,6182;0,129428
1116,5824;0,127908
1117,5466;0,126523
1118,5109;0,125273
1119,4751;0,124111
1120,4393;0,122961
1121,4036;0,121741
1122,3678;0,120382
1123,3320;0,118834
1124,2963;0,117074
1125,2605;0,115099
1126,2247;0,112932
1127,1890;0,110612
1128,1532;0,108191
1129,1174;0,105724
1130,0817;0,103259
1131,0459;0,100834
1132,0101;0,0984786
1132,9744;0,0962206
1133,9386;0,0940939
1134,9028;0,0921405
1135,8671;0,0904066
1136,8313;0,0889333
1137,7955;0,087748
1138,7598;0,0868597
1139,7240;0,0862593
1140,6882;0,0859248
1141,6525;0,0858255
1142,6167;0,0859253
1143,5809;0,0861844
1144,5452;0,0865622
1145,5094;0,0870219
1146,4736;0,0875366
1147,4379;0,0880936
1148,4021;0,0886929
1149,3663;0,0893398
1150,3306;0,0900331
1151,2948;0,0907559
1152,2590;0,0914732
1153,2233;0,0921372
1154,1875;0,0926983
1155,1517;0,0931133
1156,1160;0,0933479
1157,0802;0,0933701
1158,0444;0,0931417
1159,0087;0,0926123
1159,9729;0,0917227
1160,9371;0,0904185
1161,9014;0,0886683
1162,8656;0,0864804
1163,8298;0,0839095
1164,7941;0,0810513
1165,7583;0,0780273
1166,7225;0,0749645
1167,6868;0,0719769
1168,6510;0,0691515
1169,6152;0,0665424
1170,5795;0,0641731
1171,5437;0,0620446
1172,5079;0,0601462
1173,4722;0,058465
1174,4364;0,0569909
1175,4006;0,0557158
1176,3649;0,0546295
1177,3291;0,0537163
1178,2933;0,0529533
1179,2576;0,0523135
1180,2218;0,0517708
1181,1860;0,051305
1182,1503;0,0509056
1183,1145;0,0505722
1184,0787;0,050311
1185,0430;0,0501308
1186,0072;0,0500392
1186,9714;0,0500404
1187,9357;0,0501362
1188,8999;0,0503274
1189,8641;0,0506148
1190,8284;0,0509979
1191,7926;0,0514726
1192,7568;0,0520299
1193,7211;0,0526557
1194,6853;0,0533348
1195,6495;0,0540535
1196,6138;0,0548014
1197,5780;0,0555699
1198,5422;0,05635
1199,5065;0,057074
1200,4707;0,0578511
1201,4349;0,0586071
1202,3992;0,0593337
1203,3634;0,0600253
1204,3276;0,0606782
1205,2919;0,0612908
1206,2561;0,0618652
1207,2203;0,0624109
1208,1846;0,0629471
1209,1488;0,0635014
1210,1130;0,0641057
1211,0773;0,0647885
1212,0415;0,0655675
1213,0057;0,0664451
1213,9700;0,0674086
1214,9342;0,0684337
1215,8984;0,0694914
1216,8627;0,070554
1217,8269;0,0716002
1218,7911;0,0726174
1219,7554;0,0736001
1220,7196;0,0745468
1221,6838;0,0754559
1222,6481;0,0763245
1223,6123;0,0771482
1224,5765;0,0779238
1225,5408;0,0786505
1226,5050;0,0793299
1227,4692;0,0799635
1228,4335;0,0805518
1229,3977;0,0810925
1230,3619;0,0815823
1231,3262;0,082018
1232,2904;0,0823974
1233,2546;0,0827189
1234,2189;0,0829817
1235,1831;0,0831858
1236,1473;0,0833336
1237,1116;0,0834308
1238,0758;0,0834841
1239,0400;0,0834994
1240,0043;0,083478
1240,9685;0,0834165
1241,9327;0,0833088
1242,8970;0,0831494
1243,8612;0,0829352
1244,8254;0,082666
1245,7897;0,0823431
1246,7539;0,0819697
1247,7181;0,0815518
1248,6824;0,0810995
1249,6466;0,0806269
1250,6108;0,0801491
1251,5751;0,0796783
1252,5393;0,079222
1253,5035;0,0787833
1254,4678;0,078362
1255,4320;0,077955
1256,3962;0,0775556
1257,3605;0,0771524
1258,3247;0,0767303
1259,2889;0,0762748
1260,2532;0,0757772
1261,2174;0,0752376
1262,1816;0,0746638
1263,1459;0,0740659
1264,1101;0,0734514
1265,0743;0,072822
1266,0386;0,0721743
1267,0028;0,0715024
1267,9670;0,0708012
1268,9313;0,0700698
1269,8955;0,0693123
1270,8597;0,0685376
1271,8240;0,0677569
1272,7882;0,0669809
1273,7524;0,0662185
1274,7167;0,0654767
1275,6809;0,0647611
1276,6451;0,0640747
1277,6094;0,0634159
1278,5736;0,0627776
1279,5378;0,0621489
1280,5021;0,0615218
1281,4663;0,0608964
1282,4305;0,0602831
1283,3948;0,0596985
1284,3590;0,0591586
1285,3232;0,0586741
1286,2875;0,0582498
1287,2517;0,0578877
1288,2159;0,05759
1289,1802;0,0573603
1290,1444;0,057201
1291,1086;0,057113
1292,0729;0,0570961
1293,0371;0,0571509
1294,0013;0,0572802
1294,9656;0,0574871
1295,9298;0,0577716
1296,8940;0,0581298
1297,8583;0,0585549
1298,8225;0,0590408
1299,7867;0,0595836
1300,7510;0,0601808
1301,7152;0,0608298
1302,6794;0,0615255
1303,6437;0,0622615
1304,6079;0,0630327
1305,5721;0,0638356
1306,5364;0,0646674
1307,5006;0,0655233
1308,4648;0,0663961
1309,4291;0,0672752
1310,3933;0,0681475
1311,3575;0,0689952
1312,3218;0,0697943
1313,2860;0,0705148
1314,2502;0,0711228
1315,2145;0,0715838
1316,1787;0,0718681
1317,1429;0,0719566
1318,1072;0,0718502
1319,0714;0,0715778
1320,0356;0,0711931
1320,9999;0,0707597
1321,9641;0,0703315
1322,9283;0,0699416
1323,8926;0,0696029
1324,8568;0,0693167
1325,8210;0,0690787
1326,7853;0,0688837
1327,7495;0,0687243
1328,7137;0,0685897
1329,6780;0,0684642
1330,6422;0,068329
1331,6064;0,0681668
1332,5707;0,0679665
1333,5349;0,0677245
1334,4991;0,0674389
1335,4634;0,0671003
1336,4276;0,0666872
1337,3918;0,0661716
1338,3561;0,0655417
1339,3203;0,0648278
1340,2845;0,0641047
1341,2488;0,0634535
1342,2130;0,0629205
1343,1772;0,0625074
1344,1415;0,0621914
1345,1057;0,0619481
1346,0699;0,0617645
1347,0342;0,0616424
1347,9984;0,0615934
1348,9626;0,0616308
1349,9269;0,0617597
1350,8911;0,061973
1351,8553;0,062253
1352,8196;0,0625809
1353,7838;0,0629459
1354,7480;0,0633499
1355,7123;0,0638019
1356,6765;0,0643069
1357,6407;0,0648581
1358,6050;0,0654371
1359,5692;0,0660199
1360,5334;0,0665815
1361,4977;0,0671001
1362,4619;0,0675666
1363,4261;0,0679912
1364,3904;0,0683928
1365,3546;0,0687806
1366,3188;0,0691466
1367,2831;0,0694728
1368,2473;0,0697399
1369,2115;0,0699317
1370,1758;0,0700324
1371,1400;0,0700226
1372,1042;0,0698803
1373,0685;0,0695942
1374,0327;0,0691837
1374,9969;0,0687015
1375,9612;0,0681995
1376,9254;0,0676846
1377,8896;0,0671143
1378,8539;0,0664375
1379,8181;0,0656442
1380,7823;0,0647852
1381,7466;0,0639437
1382,7108;0,0631755
1383,6750;0,0624711
1384,6393;0,0617669
1385,6035;0,0609987
1386,5677;0,0601686
1387,5320;0,0593735
1388,4962;0,0587439
1389,4604;0,058341
1390,4247;0,0581284
1391,3889;0,0580238
1392,3531;0,0579564
1393,3174;0,0578917
1394,2816;0,0578296
1395,2458;0,0577896
1396,2101;0,0577934
1397,1743;0,0578549
1398,1385;0,0579828
1399,1028;0,0581837
1400,0670;0,0584583
1401,0313;0,0587945
1401,9955;0,059169
1402,9597;0,0595572
1403,9240;0,0599453
1404,8882;0,0603384
1405,8524;0,0607558
1406,8167;0,0612166
1407,7809;0,0617253
1408,7451;0,0622722
1409,7094;0,0628467
1410,6736;0,0634473
1411,6378;0,0640804
1412,6021;0,0647478
1413,5663;0,065436
1414,5305;0,0661142
1415,4948;0,0667388
1416,4590;0,0672576
1417,4232;0,0676193
1418,3875;0,0678083
1419,3517;0,0678803
1420,3159;0,0679189
1421,2802;0,0679454
1422,2444;0,0679075
1423,2086;0,0677412
1424,1729;0,067425
1425,1371;0,066983
1426,1013;0,0664462
1427,0656;0,0658129
1428,0298;0,0650534
1428,9940;0,0641627
1429,9583;0,0632102
1430,9225;0,0623165
1431,8867;0,0615589
1432,8510;0,0609036
1433,8152;0,0602251
1434,7794;0,0593869
1435,7437;0,058357
1436,7079;0,057299
1437,6721;0,0564874
1438,6364;0,0560702
1439,6006;0,0559838
1440,5648;0,056079
1441,5291;0,0562459
1442,4933;0,0564456
1443,4575;0,0566851
1444,4218;0,0569776
1445,3860;0,057317
1446,3502;0,0576772
1447,3145;0,0580334
1448,2787;0,0583854
1449,2429;0,0587585
1450,2072;0,0591766
1451,1714;0,0596333
1452,1356;0,0600881
1453,0999;0,0604788
1454,0641;0,0607253
1455,0283;0,0607131
1455,9926;0,0603108
1456,9568;0,0595558
1457,9210;0,0588398
1458,8853;0,0585444
1459,8495;0,0586413
1460,8137;0,0588748
1461,7780;0,059002
1462,7422;0,0588446
1463,7064;0,0582983
1464,6707;0,0573969
1465,6349;0,0563463
1466,5991;0,0553803
1467,5634;0,0545695
1468,5276;0,0538089
1469,4918;0,0529131
1470,4561;0,0516878
1471,4203;0,0499913
1472,3845;0,0478662
1473,3488;0,0456457
1474,3130;0,0437518
1475,2772;0,0423463
1476,2415;0,041322
1477,2057;0,0405145
1478,1699;0,0398174
1479,1342;0,0391847
1480,0984;0,0386056
1481,0626;0,0380897
1482,0269;0,0376616
1482,9911;0,0373492
1483,9553;0,0371645
1484,9196;0,0370919
1485,8838;0,0370913
1486,8480;0,0371125
1487,8123;0,0371177
1488,7765;0,0371203
1489,7407;0,0372064
1490,7050;0,0374703
1491,6692;0,0379263
1492,6334;0,038519
1493,5977;0,0391866
1494,5619;0,0398975
1495,5261;0,0406484
1496,4904;0,0414476
1497,4546;0,0423023
1498,4188;0,043216
1499,3831;0,044176
1500,3473;0,0451375
1501,3115;0,0460354
1502,2758;0,0468119
1503,2400;0,0474348
1504,2042;0,0478941
1505,1685;0,0481689
1506,1327;0,0481834
1507,0969;0,0479086
1508,0612;0,0475771
1509,0254;0,0474515
1509,9896;0,0475247
1510,9539;0,0476598
1511,9181;0,0477452
1512,8823;0,0477165
1513,8466;0,0475403
1514,8108;0,0472098
1515,7750;0,0467496
1516,7393;0,0462082
1517,7035;0,0456269
1518,6677;0,045015
1519,6320;0,0443673
1520,5962;0,0437149
1521,5604;0,0431498
1522,5247;0,0427733
1523,4889;0,042618
1524,4531;0,0426422
1525,4174;0,0427865
1526,3816;0,0430173
1527,3458;0,0433236
1528,3101;0,0436926
1529,2743;0,0441008
1530,2385;0,0445289
1531,2028;0,0449808
1532,1670;0,0454855
1533,1312;0,0460708
1534,0955;0,0467299
1535,0597;0,0474144
1536,0239;0,0480627
1536,9882;0,0486289
1537,9524;0,0490852
1538,9166;0,0493872
1539,8809;0,0494381
1540,8451;0,0491971
1541,8093;0,0488653
1542,7736;0,0486708
1543,7378;0,048617
1544,7020;0,048611
1545,6663;0,0486007
1546,6305;0,0485808
1547,5947;0,0485536
1548,5590;0,0485052
1549,5232;0,0484135
1550,4874;0,0482763
1551,4517;0,0481298
1552,4159;0,0480301
1553,3801;0,0480052
1554,3444;0,0480208
1555,3086;0,0479785
1556,2728;0,0477198
1557,2371;0,0470532
1558,2013;0,0459829
1559,1655;0,0450594
1560,1298;0,0448729
1561,0940;0,0453383
1562,0582;0,0460754
1563,0225;0,0468269
1563,9867;0,0474834
1564,9509;0,0480125
1565,9152;0,0484183
1566,8794;0,0487354
1567,8436;0,0490384
1568,8079;0,0494306
1569,7721;0,0499856
1570,7363;0,0506882
1571,7006;0,0514516
1572,6648;0,0521849
1573,6290;0,0528372
1574,5933;0,0534004
1575,5575;0,0538955
1576,5217;0,054366
1577,4860;0,0548653
1578,4502;0,0554186
1579,4144;0,0560036
1580,3787;0,0565814
1581,3429;0,0571298
1582,3071;0,0576521
1583,2714;0,0581706
1584,2356;0,0587121
1585,1998;0,0592949
1586,1641;0,0599208
1587,1283;0,0605759
1588,0925;0,0612356
1589,0568;0,0618681
1590,0210;0,062436
1590,9852;0,062898
1591,9495;0,063213
1592,9137;0,0633501
1593,8779;0,063303
1594,8422;0,0631001
1595,8064;0,0627969
1596,7706;0,0624513
1597,7349;0,0621009
1598,6991;0,0617562
1599,6633;0,0614122
1600,6276;0,0610654
1601,5918;0,0607264
1602,5560;0,0604216
1603,5203;0,0601796
1604,4845;0,0600125
1605,4487;0,0599055
1606,4130;0,0598256
1607,3772;0,0597459
1608,3414;0,0596729
1609,3057;0,0596504
1610,2699;0,0597265
1611,2341;0,0599082
1612,1984;0,0601492
1613,1626;0,0603763
1614,1268;0,0605261
1615,0911;0,060584
1616,0553;0,0606197
1617,0195;0,0607675
1617,9838;0,0611111
1618,9480;0,0616077
1619,9122;0,062148
1620,8765;0,062642
1621,8407;0,0630515
1622,8049;0,0633866
1623,7692;0,063687
1624,7334;0,063992
1625,6976;0,0643165
1626,6619;0,0646566
1627,6261;0,0650117
1628,5903;0,065393
1629,5546;0,0658063
1630,5188;0,0662314
1631,4830;0,0666196
1632,4473;0,066906
1633,4115;0,0670209
1634,3757;0,066914
1635,3400;0,0666326
1636,3042;0,0663887
1637,2684;0,0663997
1638,2327;0,0666765
1639,1969;0,067087
1640,1611;0,0675095
1641,1254;0,0678778
1642,0896;0,0681605
1643,0538;0,0683281
1644,0181;0,0683329
1644,9823;0,0681244
1645,9465;0,0677313
1646,9108;0,0673372
1647,8750;0,0671478
1648,8392;0,0671709
1649,8035;0,067218
1650,7677;0,0670052
1651,7319;0,0661976
1652,6962;0,0646238
1653,6604;0,0628013
1654,6246;0,0616226
1655,5889;0,0612353
1656,5531;0,0612091
1657,5173;0,0611682
1658,4816;0,0609188
1659,4458;0,0603697
1660,4100;0,0594876
1661,3743;0,0583291
1662,3385;0,0570867
1663,3027;0,0560086
1664,2670;0,0552185
1665,2312;0,0546508
1666,1954;0,0541248
1667,1597;0,0534372
1668,1239;0,0524456
1669,0881;0,0511773
1670,0524;0,0498687
1671,0166;0,048777
1671,9808;0,0479426
1672,9451;0,0472065
1673,9093;0,0463933
1674,8735;0,04546
1675,8378;0,044532
1676,8020;0,0437942
1677,7662;0,0433245
1678,7305;0,043047
1679,6947;0,042801
1680,6589;0,0424012
1681,6232;0,0416522
1682,5874;0,0404059
1683,5516;0,0387741
1684,5159;0,0372464
1685,4801;0,0362493
1686,4443;0,0357438
1687,4086;0,0354518
1688,3728;0,0351625
1689,3370;0,0348065
1690,3013;0,0344095
1691,2655;0,0340221
1692,2297;0,0336691
1693,1940;0,0333342
1694,1582;0,0329749
1695,1224;0,0325475
1696,0867;0,0320263
1697,0509;0,0314096
1698,0151;0,0307212
1698,9794;0,0300299
1699,9436;0,0294588
1700,9078;0,0291275
1701,8721;0,0290647
1702,8363;0,0291957
1703,8005;0,0294049
1704,7648;0,0296025
1705,7290;0,029761
1706,6932;0,0299158
1707,6575;0,0301275
1708,6217;0,0304311
1709,5859;0,0308178
1710,5502;0,0312527
1711,5144;0,0316987
1712,4786;0,0321233
1713,4429;0,0324897
1714,4071;0,0327448
1715,3713;0,0328273
1716,3356;0,0327313
1717,2998;0,0325926
1718,2640;0,0326218
1719,2283;0,0329068
1720,1925;0,0333737
1721,1567;0,0338995
1722,1210;0,0343914
1723,0852;0,0348047
1724,0494;0,035139
1725,0137;0,0354263
1725,9779;0,0357118
1726,9421;0,0360293
1727,9064;0,0363827
1728,8706;0,0367398
1729,8348;0,0370347
1730,7991;0,0371728
1731,7633;0,0370519
1732,7275;0,0366347
1733,6918;0,0360514
1734,6560;0,035555
1735,6202;0,0352874
1736,5845;0,0351795
1737,5487;0,0350671
1738,5129;0,034816
1739,4772;0,0343767
1740,4414;0,0337936
1741,4056;0,0331688
1742,3699;0,0325873
1743,3341;0,0320653
1744,2983;0,0315639
1745,2626;0,03103
1746,2268;0,0304129
1747,1910;0,0296552
1748,1553;0,028699
1749,1195;0,0275444
1750,0837;0,026316
1751,0480;0,0252139
1752,0122;0,0243648
1752,9764;0,0237485
1753,9407;0,0232564
1754,9049;0,0227805
1755,8691;0,0222674
1756,8334;0,0217248
1757,7976;0,0211875
1758,7618;0,0206692
1759,7261;0,0201454
1760,6903;0,0195866
1761,6545;0,0190072
1762,6188;0,0184741
1763,5830;0,0180571
1764,5472;0,0177742
1765,5115;0,0175856
1766,4757;0,0174269
1767,4399;0,0172415
1768,4042;0,0169946
1769,3684;0,0166702
1770,3326;0,0162692
1771,2969;0,0158221
1772,2611;0,0154055
1773,2253;0,0151154
1774,1896;0,0149985
1775,1538;0,0150202
1776,1180;0,0150988
1777,0823;0,0151554
1778,0465;0,0151439
1779,0107;0,0150608
1779,9750;0,0149375
1780,9392;0,0148159
1781,9034;0,0147206
1782,8677;0,0146528
1783,8319;0,0146078
1784,7961;0,0145941
1785,7604;0,0146291
1786,7246;0,0147183
1787,6888;0,0148383
1788,6531;0,0149388
1789,6173;0,0149574
1790,5815;0,0148462
1791,5458;0,0146136
1792,5100;0,0143501
1793,4742;0,0141776
1794,4385;0,0141505
1795,4027;0,0142312
1796,3669;0,0143424
1797,3312;0,0144192
1798,2954;0,0144295
1799,2596;0,0143766
1800,2239;0,014291
1801,1881;0,0142128
1802,1523;0,0141694
1803,1166;0,014166
1804,0808;0,0141927
1805,0450;0,0142343
1806,0093;0,0142764
1806,9735;0,0143051
1807,9377;0,0143075
1808,9020;0,0142753
1809,8662;0,0142116
1810,8304;0,0141344
1811,7947;0,0140689
1812,7589;0,0140324
1813,7231;0,0140248
1814,6874;0,0140325
1815,6516;0,0140393
1816,6158;0,0140377
1817,5801;0,0140344
1818,5443;0,0140455
1819,5085;0,0140843
1820,4728;0,0141492
1821,4370;0,0142232
1822,4012;0,0142822
1823,3655;0,0143081
1824,3297;0,0142972
1825,2939;0,0142595
1826,2582;0,0142042
1827,2224;0,0141288
1828,1866;0,0140232
1829,1509;0,0138903
1830,1151;0,0137633
1831,0793;0,0136921
1832,0436;0,0137044
1833,0078;0,0137841
1833,9720;0,0138843
1834,9363;0,013959
1835,9005;0,0139881
1836,8647;0,0139891
1837,8290;0,0140036
1838,7932;0,0140649
1839,7574;0,014171
1840,7217;0,0142847
1841,6859;0,0143526
1842,6501;0,01433
1843,6144;0,0142114
1844,5786;0,0140473
1845,5428;0,013913
1846,5071;0,0138481
1847,4713;0,0138362
1848,4355;0,0138362
1849,3998;0,0138191
1850,3640;0,0137829
1851,3282;0,013746
1852,2925;0,0137298
1853,2567;0,0137438
1854,2209;0,0137826
1855,1852;0,0138328
1856,1494;0,0138826
1857,1136;0,0139248
1858,0779;0,0139543
1859,0421;0,0139671
1860,0063;0,0139636
1860,9706;0,0139547
1861,9348;0,0139609
1862,8990;0,0140016
1863,8633;0,0140806
1864,8275;0,0141775
1865,7917;0,0142496
1866,7560;0,014247
1867,7202;0,0141436
1868,6844;0,0139709
1869,6487;0,0138092
1870,6129;0,0137271
1871,5771;0,0137353
1872,5414;0,0137947
1873,5056;0,0138533
1874,4698;0,0138744
1875,4341;0,0138503
1876,3983;0,0138011
1877,3625;0,0137599
1878,3268;0,0137535
1879,2910;0,0137881
1880,2552;0,0138505
1881,2195;0,0139192
1882,1837;0,0139772
1883,1479;0,0140194
1884,1122;0,0140513
1885,0764;0,0140818
1886,0406;0,0141153
1887,0049;0,0141469
1887,9691;0,0141656
1888,9333;0,0141601
1889,8976;0,0141277
1890,8618;0,0140755
1891,8260;0,0140151
1892,7903;0,0139564
1893,7545;0,0139063
1894,7188;0,0138719
1895,6830;0,0138604
1896,6472;0,0138751
1897,6115;0,0139089
1898,5757;0,0139441
1899,5399;0,0139593
1900,5042;0,0139411
1901,4684;0,0138936
1902,4326;0,0138385
1903,3969;0,0138046
1904,3611;0,0138113
1905,3253;0,0138585
1906,2896;0,0139274
1907,2538;0,0139918
1908,2180;0,0140322
1909,1823;0,014045
1910,1465;0,0140406
1911,1107;0,0140329
1912,0750;0,0140264
1913,0392;0,0140141
1914,0034;0,0139846
1914,9677;0,0139337
1915,9319;0,0138726
1916,8961;0,0138271
1917,8604;0,0138251
1918,8246;0,0138782
1919,7888;0,0139731
1920,7531;0,0140778
1921,7173;0,0141556
1922,6815;0,014178
1923,6458;0,0141332
1924,6100;0,0140303
1925,5742;0,0138964
1926,5385;0,0137681
1927,5027;0,0136808
1928,4669;0,0136571
1929,4312;0,0136961
1930,3954;0,0137698
1931,3596;0,0138338
1932,3239;0,013853
1933,2881;0,0138247
1934,2523;0,0137822
1935,2166;0,0137732
1936,1808;0,0138275
1937,1450;0,0139365
1938,1093;0,0140587
1939,0735;0,0141448
1940,0377;0,0141642
1941,0020;0,0141173
1941,9662;0,0140309
1942,9304;0,0139388
1943,8947;0,0138614
1944,8589;0,0137984
1945,8231;0,0137387
1946,7874;0,0136734
1947,7516;0,0136031
1948,7158;0,0135376
1949,6801;0,0134902
1950,6443;0,0134718
1951,6085;0,0134854
1952,5728;0,0135233
1953,5370;0,0135697
1954,5012;0,0136065
1955,4655;0,0136239
1956,4297;0,0136271
1957,3939;0,0136339
1958,3582;0,0136632
1959,3224;0,0137208
1960,2866;0,0137925
1961,2509;0,0138532
1962,2151;0,0138841
1963,1793;0,0138858
1964,1436;0,0138761
1965,1078;0,0138738
1966,0720;0,0138814
1967,0363;0,0138784
1968,0005;0,0138326
1968,9647;0,0137228
1969,9290;0,0135554
1970,8932;0,0133648
1971,8574;0,0131987
1972,8217;0,0130994
1973,7859;0,0130875
1974,7501;0,0131549
1975,7144;0,0132697
1976,6786;0,013392
1977,6428;0,0134921
1978,6071;0,0135597
1979,5713;0,0136012
1980,5355;0,0136305
1981,4998;0,0136619
1982,4640;0,0137084
1983,4282;0,0137804
1984,3925;0,0138813
1985,3567;0,0140024
1986,3209;0,0141229
1987,2852;0,0142189
1988,2494;0,0142792
1989,2136;0,014315
1990,1779;0,0143574
1991,1421;0,0144392
1992,1063;0,0145699
1993,0706;0,014724
1994,0348;0,0148503
1994,9990;0,0148983
1995,9633;0,0148417
1996,9275;0,0146914
1997,8917;0,0144943
1998,8560;0,0143199
1999,8202;0,0142345
2000,7844;0,0142718
2001,7487;0,0144126
2002,7129;0,0145879
2003,6771;0,0147072
2004,6414;0,0147035
2005,6056;0,0145741
2006,5698;0,0143909
2007,5341;0,0142625
2008,4983;0,0142673
2009,4625;0,0144049
2010,4268;0,0146022
2011,3910;0,0147635
2012,3552;0,0148249
2013,3195;0,0147785
2014,2837;0,0146607
2015,2479;0,0145233
2016,2122;0,0144114
2017,1764;0,0143589
2018,1406;0,0143942
2019,1049;0,0145388
2020,0691;0,0147942
2021,0333;0,015127
2021,9976;0,0154689
2022,9618;0,0157377
2023,9260;0,0158672
2024,8903;0,0158295
2025,8545;0,0156361
2026,8187;0,0153257
2027,7830;0,014953
2028,7472;0,0145873
2029,7114;0,0143114
2030,6757;0,014206
2031,6399;0,0143164
2032,6041;0,0146204
2033,5684;0,0150263
2034,5326;0,0154141
2035,4968;0,0156966
2036,4611;0,0158587
2037,4253;0,0159455
2038,3895;0,0160129
2039,3538;0,0160789
2040,3180;0,0161089
2041,2822;0,0160465
2042,2465;0,0158652
2043,2107;0,0156042
2044,1749;0,0153588
2045,1392;0,0152334
2046,1034;0,0152853
2047,0676;0,0154938
2048,0320;0,0157751
2048,9961;0,016033
2049,9604;0,0162071
2050,9246;0,0162852
2051,8889;0,0162827
2052,8530;0,0162178
2053,8174;0,0161034
2054,7815;0,0159568
2055,7458;0,0158111
2056,7100;0,0157123
2057,6743;0,0156987
2058,6384;0,0157775
2059,6028;0,0159155
2060,5669;0,0160551
2061,5313;0,0161431
2062,4954;0,0161563
2063,4597;0,0161071
2064,4238;0,0160296
2065,3882;0,0159578
2066,3523;0,0159119
2067,3167;0,0158978
2068,2808;0,0159169
2069,2451;0,0159717
2070,2092;0,0160634
2071,1736;0,0161835
2072,1377;0,016308
2073,1021;0,0164017
2074,0662;0,0164328
2075,0305;0,0163896
2075,9946;0,0162898
2076,9590;0,0161735
2077,9231;0,0160852
2078,8875;0,016053
2079,8516;0,0160787
2080,8159;0,0161441
2081,7800;0,0162267
2082,7444;0,0163131
2083,7085;0,0163997
2084,6729;0,0164824
2085,6370;0,016547
2086,6013;0,0165725
2087,5654;0,0165448
2088,5298;0,016473
2089,4939;0,0163908
2090,4583;0,0163402
2091,4224;0,0163482
2092,3867;0,0164135
2093,3508;0,016513
2094,3152;0,0166211
2095,2793;0,0167256
2096,2437;0,0168272
2097,2078;0,0169251
2098,1721;0,0170041
2099,1362;0,0170376
2100,1006;0,017005
2101,0647;0,0169073
2102,0291;0,0167701
2102,9932;0,0166293
2103,9575;0,016514
2104,9216;0,0164385
2105,8860;0,016407
2106,8501;0,0164228
2107,8145;0,0164907
2108,7786;0,0166101
2109,7429;0,0167646
2110,7070;0,0169205
2111,6714;0,0170372
2112,6355;0,0170832
2113,5999;0,0170476
2114,5640;0,0169406
2115,5283;0,0167869
2116,4924;0,0166176
2117,4568;0,0164667
2118,4209;0,016369
2119,3853;0,016354
2120,3494;0,0164333
2121,3137;0,0165874
2122,2778;0,0167641
2123,2422;0,016895
2124,2063;0,0169276
2125,1707;0,0168551
2126,1348;0,0167243
2127,0991;0,016613
2128,0632;0,0165873
2129,0276;0,0166631
2129,9917;0,0167975
2130,9561;0,0169167
2131,9202;0,016965
2132,8845;0,0169442
2133,8486;0,0169163
2134,8130;0,0169622
2135,7771;0,0171225
2136,7415;0,0173616
2137,7056;0,0175858
2138,6699;0,0176995
2139,6340;0,0176617
2140,5984;0,0175045
2141,5625;0,0173103
2142,5269;0,0171656
2143,4910;0,0171232
2144,4553;0,0171895
2145,4194;0,0173369
2146,3838;0,017524
2147,3479;0,0177101
2148,3123;0,0178598
2149,2764;0,0179452
2150,2407;0,0179522
2151,2048;0,0178889
2152,1692;0,0177875
2153,1333;0,0176937
2154,0977;0,017646
2155,0618;0,017657
2156,0261;0,017708
2156,9902;0,0177615
2157,9546;0,017788
2158,9187;0,0177894
2159,8831;0,0177971
2160,8472;0,0178418
2161,8115;0,0179223
2162,7756;0,0180006
2163,7400;0,0180202
2164,7041;0,0179382
2165,6685;0,0177531
2166,6326;0,0175162
2167,5969;0,0173157
2168,5610;0,0172374
2169,5254;0,0173233
2170,4895;0,017547
2171,4539;0,0178208
2172,4180;0,0180319
2173,3823;0,0180936
2174,3464;0,0179867
2175,3108;0,0177676
2176,2749;0,0175361
2177,2393;0,0173848
2178,2034;0,0173584
2179,1677;0,0174446
2180,1318;0,0175925
2181,0962;0,0177419
2182,0603;0,0178463
2183,0247;0,0178838
2183,9888;0,0178556
2184,9531;0,0177785
2185,9172;0,0176781
2186,8816;0,0175805
2187,8457;0,0175046
2188,8101;0,0174559
2189,7742;0,0174259
2190,7385;0,0173996
2191,7026;0,0173665
2192,6670;0,0173282
2193,6311;0,0172964
2194,5955;0,0172825
2195,5596;0,0172875
2196,5239;0,0172973
2197,4880;0,0172899
2198,4524;0,0172486
2199,4165;0,0171754
2200,3809;0,0170954
2201,3450;0,0170491
2202,3093;0,0170744
2203,2734;0,0171844
2204,2378;0,0173549
2205,2019;0,0175286
2206,1663;0,01764
2207,1304;0,0176471
2208,0947;0,0175561
2209,0588;0,0174189
2210,0232;0,0173067
2210,9873;0,0172701
2211,9517;0,0173126
2212,9158;0,0173908
2213,8801;0,0174426
2214,8442;0,0174249
2215,8086;0,0173377
2216,7727;0,0172223
2217,7371;0,0171368
2218,7012;0,0171231
2219,6655;0,0171877
2220,6296;0,0173004
2221,5940;0,0174118
2222,5581;0,0174764
2223,5225;0,0174691
2224,4866;0,01739
2225,4509;0,0172589
2226,4150;0,017105
2227,3794;0,0169593
2228,3435;0,0168506
2229,3079;0,0168014
2230,2720;0,0168226
2231,2363;0,0169074
2232,2004;0,0170297
2233,1648;0,0171516
2234,1289;0,0172389
2235,0933;0,0172784
2236,0574;0,0172841
2237,0217;0,0172892
2237,9858;0,0173253
2238,9502;0,0174034
2239,9143;0,0175073
2240,8787;0,0176033
2241,8428;0,0176599
2242,8071;0,0176634
2243,7712;0,0176216
2244,7356;0,0175548
2245,6997;0,0174826
2246,6641;0,0174154
2247,6282;0,017356
2248,5925;0,0173063
2249,5566;0,0172726
2250,5210;0,0172638
2251,4851;0,0172836
2252,4495;0,0173232
2253,4136;0,0173616
2254,3779;0,0173736
2255,3420;0,0173429
2256,3064;0,0172712
2257,2705;0,0171772
2258,2349;0,0170877
2259,1990;0,0170254
2260,1633;0,0170008
2261,1274;0,0170111
2262,0918;0,0170449
2263,0559;0,0170899
2264,0203;0,0171383
2264,9844;0,0171884
2265,9487;0,0172427
2266,9128;0,0173035
2267,8772;0,0173685
2268,8413;0,0174294
2269,8057;0,0174746
2270,7698;0,0174938
2271,7341;0,0174836
2272,6982;0,0174495
2273,6626;0,0174034
2274,6267;0,0173582
2275,5911;0,0173224
2276,5552;0,0172986
2277,5195;0,0172857
2278,4836;0,0172823
2279,4480;0,0172884
2280,4121;0,0173045
2281,3765;0,0173299
2282,3406;0,0173633
2283,3049;0,0174049
2284,2690;0,0174587
2285,2334;0,0175315
2286,1975;0,0176292
2287,1619;0,017751
2288,1260;0,0178885
2289,0903;0,0180278
2290,0544;0,0181558
2291,0188;0,018265
2291,9829;0,0183548
2292,9473;0,0184293
2293,9114;0,0184947
2294,8757;0,018557
2295,8398;0,0186218
2296,8042;0,0186928
2297,7683;0,0187698
2298,7327;0,0188457
2299,6968;0,018907
2300,6611;0,0189394
2301,6252;0,0189379
2302,5896;0,018914
2303,5537;0,0188953
2304,5181;0,0189142
2305,4822;0,0189898
2306,4465;0,0191116
2307,4106;0,0192364
2308,3750;0,0193037
2309,3391;0,0192651
2310,3035;0,0191116
2311,2676;0,0188817
2312,2319;0,0186436
2313,1960;0,0184582
2314,1604;0,0183495
2315,1245;0,0182984
2316,0889;0,0182627
2317,0530;0,0182076
2318,0173;0,0181273
2318,9814;0,0180478
2319,9458;0,0180115
2320,9099;0,0180541
2321,8743;0,0181865
2322,8384;0,0183897
2323,8027;0,0186187
2324,7668;0,0188119
2325,7312;0,0189063
2326,6953;0,0188577
2327,6597;0,0186615
2328,6238;0,0183654
2329,5881;0,0180631
2330,5522;0,0178635
2331,5166;0,0178396
2332,4807;0,0179873
2333,4451;0,0182247
2334,4092;0,0184359
2335,3735;0,0185296
2336,3376;0,0184834
2337,3020;0,0183524
2338,2661;0,0182375
2339,2305;0,0182226
2340,1946;0,0183135
2341,1589;0,018416
2342,1230;0,018384
2343,0874;0,0181519
2344,0515;0,0178754
2345,0159;0,0178654
2345,9800;0,0182943
2346,9443;0,0190302
2347,9084;0,0197625
2348,8728;0,0202148
2349,8369;0,020268
2350,8013;0,0199838
2351,7654;0,0195561
2352,7297;0,0192105
2353,6938;0,0190915
2354,6582;0,0192165
2355,6223;0,0195179
2356,5867;0,0198946
2357,5508;0,0202222
2358,5151;0,0203668
2359,4792;0,0202387
2360,4436;0,0198431
2361,4077;0,0192682
2362,3721;0,0186285
2363,3362;0,0180226
2364,3005;0,0175229
2365,2646;0,0171687
2366,2290;0,0169525
2367,1931;0,0168198
2368,1575;0,0166968
2369,1216;0,0165318
2370,0859;0,0163196
2371,0500;0,0160961
2372,0144;0,0159127
2372,9785;0,0158106
2373,9429;0,0158106
2374,9070;0,015914
2375,8713;0,01611
2376,8354;0,0163798
2377,7998;0,0166994
2378,7639;0,0170394
2379,7283;0,0173675
2380,6924;0,0176524
2381,6567;0,01787
2382,6208;0,0180091
2383,5852;0,0180736
2384,5493;0,0180801
2385,5137;0,0180515
2386,4778;0,0180094
2387,4421;0,0179688
2388,4063;0,0179369
2389,3706;0,0179154
2390,3347;0,0179043
2391,2991;0,0179037
2392,2632;0,0179133
2393,2275;0,0179305
2394,1917;0,0179499
2395,1560;0,0179654
2396,1201;0,0179739
2397,0845;0,0179774
2398,0486;0,0179835
2399,0129;0,0179998
2399,9771;0,0180292
2400,9414;0,0180687
2401,9055;0,0181097
2402,8699;0,0181431
2403,8340;0,0181635
2404,7983;0,018171
2405,7625;0,0181703
2406,7268;0,0181675
2407,6909;0,018168
2408,6553;0,0181761
2409,6194;0,018194
2410,5837;0,018223
2411,5479;0,0182619
2412,5122;0,0183061
2413,4763;0,0183483
2414,4407;0,0183812
2415,4048;0,0184017
2416,3691;0,0184128
2417,3333;0,0184232
2418,2976;0,0184424
2419,2617;0,0184755
2420,2261;0,01852
2421,1902;0,0185662
2422,1545;0,0186027
2423,1187;0,0186217
2424,0830;0,0186232
2425,0471;0,0186144
2426,0115;0,018607
2426,9756;0,0186119
2427,9399;0,0186355
2428,9041;0,0186778
2429,8684;0,0187328
2430,8325;0,0187906
2431,7969;0,0188406
2432,7610;0,0188752
2433,7253;0,0188928
2434,6895;0,0188983
2435,6538;0,0189017
2436,6179;0,0189129
2437,5823;0,018937
2438,5464;0,0189715
2439,5107;0,0190084
2440,4749;0,0190392
2441,4392;0,0190599
2442,4033;0,0190726
2443,3677;0,0190833
2444,3318;0,0190967
2445,2961;0,0191133
2446,2603;0,0191302
2447,2246;0,0191446
2448,1887;0,0191576
2449,1531;0,0191735
2450,1172;0,0191971
2451,0815;0,0192293
2452,0457;0,0192658
2453,0100;0,0192997
2453,9741;0,0193255
2454,9385;0,0193423
2455,9026;0,019353
2456,8669;0,0193619
2457,8311;0,0193716
2458,7954;0,0193828
2459,7595;0,0193955
2460,7239;0,0194118
2461,6880;0,0194358
2462,6523;0,0194716
2463,6165;0,0195199
2464,5808;0,0195759
2465,5449;0,0196314
2466,5093;0,0196778
2467,4734;0,0197106
2468,4377;0,0197309
2469,4019;0,0197439
2470,3662;0,0197545
2471,3303;0,0197653
2472,2947;0,0197758
2473,2588;0,0197852
2474,2231;0,0197947
2475,1873;0,0198086
2476,1516;0,0198319
2477,1157;0,0198667
2478,0801;0,0199085
2479,0442;0,0199468
2480,0085;0,0199688
2480,9727;0,019966
2481,9370;0,0199393
2482,9011;0,0199008
2483,8655;0,0198699
2484,8296;0,0198644
2485,7939;0,0198926
2486,7581;0,0199486
2487,7224;0,0200154
2488,6865;0,020073
2489,6509;0,0201082
2490,6150;0,0201186
2491,5793;0,0201119
2492,5435;0,0201007
2493,5078;0,0200969
2494,4719;0,0201091
2495,4363;0,0201416
2496,4004;0,0201934
2497,3647;0,0202571
2498,3289;0,0203191
2499,2932;0,0203634
2500,2573;0,0203783
2501,2217;0,0203634
2502,1858;0,0203309
2503,1501;0,0203001
2504,1143;0,0202878
2505,0786;0,0203005
2506,0427;0,0203339
2507,0071;0,0203775
2507,9712;0,0204216
2508,9355;0,0204609
2509,8997;0,0204935
2510,8640;0,0205192
2511,8281;0,0205388
2512,7925;0,020555
2513,7566;0,0205738
2514,7209;0,0206022
2515,6851;0,0206424
2516,6494;0,0206878
2517,6135;0,0207236
2518,5779;0,0207341
2519,5420;0,020713
2520,5063;0,0206689
2521,4705;0,0206223
2522,4348;0,0205954
2523,3989;0,0206004
2524,3633;0,0206339
2525,3274;0,0206803
2526,2917;0,0207214
2527,2559;0,0207455
2528,2202;0,0207506
2529,1843;0,0207426
2530,1487;0,0207299
2531,1128;0,0207198
2532,0771;0,0207178
2533,0413;0,0207273
2534,0056;0,02075
2534,9697;0,0207852
2535,9341;0,0208286
2536,8982;0,0208732
2537,8625;0,0209118
2538,8267;0,0209387
2539,7910;0,0209515
2540,7551;0,0209516
2541,7195;0,0209434
2542,6836;0,0209344
2543,6479;0,0209325
2544,6121;0,0209431
2545,5764;0,0209655
2546,5405;0,0209929
2547,5049;0,0210151
2548,4690;0,0210245
2549,4333;0,0210208
2550,3975;0,0210107
2551,3618;0,0210034
2552,3259;0,0210051
2553,2903;0,0210154
2554,2544;0,0210297
2555,2188;0,0210431
2556,1829;0,021055
2557,1472;0,0210691
2558,1113;0,0210908
2559,0757;0,0211226
2560,0398;0,0211619
2561,0042;0,0212011
2561,9683;0,0212304
2562,9326;0,0212423
2563,8967;0,0212353
2564,8611;0,0212151
2565,8252;0,0211923
2566,7896;0,0211772
2567,7537;0,021175
2568,7180;0,0211833
2569,6821;0,0211953
2570,6465;0,021205
2571,6106;0,0212117
2572,5750;0,0212198
2573,5391;0,0212349
2574,5034;0,0212584
2575,4675;0,0212858
2576,4319;0,0213096
2577,3960;0,021325
2578,3604;0,0213338
2579,3245;0,0213438
2580,2888;0,0213631
2581,2529;0,021395
2582,2173;0,0214361
2583,1814;0,0214785
2584,1458;0,0215149
2585,1099;0,0215427
2586,0742;0,0215641
2587,0383;0,0215828
2588,0027;0,0216005
2588,9668;0,0216154
2589,9312;0,0216238
2590,8953;0,0216236
2591,8596;0,0216166
2592,8237;0,021609
2593,7881;0,0216079
2594,7522;0,0216186
2595,7166;0,0216418
2596,6807;0,0216738
2597,6450;0,0217086
2598,6091;0,0217406
2599,5735;0,0217668
2600,5376;0,0217881
2601,5020;0,0218082
2602,4661;0,0218321
2603,4304;0,0218634
2604,3945;0,021902
2605,3589;0,0219437
2606,3230;0,0219812
2607,2874;0,0220076
2608,2515;0,0220199
2609,2158;0,0220215
2610,1799;0,0220211
2611,1443;0,0220286
2612,1084;0,0220509
2613,0728;0,0220885
2614,0369;0,022135
2615,0012;0,0221812
2615,9653;0,0222188
2616,9297;0,0222444
2617,8938;0,0222606
2618,8582;0,0222739
2619,8223;0,0222913
2620,7866;0,0223164
2621,7507;0,0223479
2622,7151;0,0223797
2623,6792;0,0224047
2624,6436;0,0224188
2625,6077;0,0224236
2626,5720;0,0224272
2627,5361;0,0224398
2628,5005;0,0224693
2629,4646;0,0225167
2630,4290;0,0225754
2631,3931;0,0226345
2632,3574;0,0226835
2633,3215;0,0227167
2634,2859;0,0227346
2635,2500;0,0227431
2636,2144;0,0227501
2637,1785;0,0227633
2638,1428;0,0227874
2639,1069;0,022823
2640,0713;0,0228663
2641,0354;0,0229108
2641,9998;0,0229501
2642,9639;0,0229808
2643,9282;0,0230045
2644,8923;0,023026
2645,8567;0,0230502
2646,8208;0,0230792
2647,7852;0,0231104
2648,7493;0,0231396
2649,7136;0,0231639
2650,6777;0,0231836
2651,6421;0,0232022
2652,6062;0,0232232
2653,5706;0,0232482
2654,5347;0,0232766
2655,4990;0,023307
2656,4631;0,0233394
2657,4275;0,0233747
2658,3916;0,0234137
2659,3560;0,0234547
2660,3201;0,0234937
2661,2844;0,0235263
2662,2485;0,0235507
2663,2129;0,0235689
2664,1770;0,023586
2665,1414;0,023607
2666,1055;0,0236344
2667,0698;0,0236665
2668,0339;0,0236998
2668,9983;0,0237313
2669,9624;0,0237603
2670,9268;0,0237889
2671,8909;0,0238197
2672,8552;0,0238534
2673,8193;0,0238882
2674,7837;0,0239205
2675,7478;0,023947
2676,7122;0,0239668
2677,6763;0,0239823
2678,6406;0,023998
2679,6047;0,0240187
2680,5691;0,0240475
2681,5332;0,0240851
2682,4976;0,0241298
2683,4617;0,0241784
2684,4260;0,0242277
2685,3901;0,0242747
2686,3545;0,0243176
2687,3186;0,0243548
2688,2830;0,0243856
2689,2471;0,0244101
2690,2114;0,0244298
2691,1755;0,0244478
2692,1399;0,0244688
2693,1040;0,0244974
2694,0684;0,024536
2695,0325;0,0245836
2695,9968;0,0246357
2696,9609;0,0246863
2697,9253;0,0247304
2698,8894;0,0247663
2699,8538;0,0247956
2700,8179;0,0248226
2701,7822;0,0248519
2702,7463;0,0248869
2703,7107;0,0249291
2704,6748;0,0249776
2705,6392;0,0250297
2706,6033;0,0250818
2707,5676;0,0251296
2708,5317;0,0251703
2709,4961;0,0252026
2710,4602;0,0252283
2711,4246;0,0252515
2712,3887;0,0252779
2713,3530;0,0253125
2714,3171;0,0253581
2715,2815;0,0254136
2716,2456;0,025474
2717,2100;0,0255324
2718,1741;0,0255824
2719,1384;0,0256204
2720,1025;0,0256469
2721,0669;0,0256652
2722,0310;0,0256797
2722,9954;0,0256944
2723,9595;0,0257128
2724,9238;0,0257377
2725,8879;0,0257717
2726,8523;0,0258159
2727,8164;0,0258691
2728,7808;0,0259276
2729,7449;0,0259861
2730,7092;0,0260397
2731,6733;0,0260855
2732,6377;0,0261226
2733,6018;0,0261517
2734,5662;0,0261737
2735,5303;0,0261907
2736,4946;0,026206
2737,4587;0,0262239
2738,4231;0,0262484
2739,3872;0,0262812
2740,3516;0,0263203
2741,3157;0,026361
2742,2800;0,0263983
2743,2441;0,0264292
2744,2085;0,0264533
2745,1726;0,0264722
2746,1370;0,026488
2747,1011;0,0265025
2748,0654;0,0265181
2749,0295;0,0265379
2749,9939;0,0265657
2750,9580;0,0266044
2751,9224;0,0266539
2752,8865;0,0267105
2753,8508;0,026768
2754,8149;0,0268206
2755,7793;0,0268652
2756,7434;0,0269027
2757,7078;0,0269369
2758,6719;0,0269725
2759,6362;0,0270121
2760,6003;0,0270558
2761,5647;0,0271014
2762,5288;0,0271457
2763,4932;0,0271868
2764,4573;0,0272253
2765,4216;0,0272638
2766,3857;0,0273066
2767,3501;0,0273572
2768,3142;0,0274169
2769,2786;0,0274841
2770,2427;0,0275546
2771,2070;0,027623
2772,1711;0,0276851
2773,1355;0,0277391
2774,0996;0,0277867
2775,0640;0,0278318
2776,0281;0,0278785
2776,9924;0,0279294
2777,9565;0,0279844
2778,9209;0,0280415
2779,8850;0,0280992
2780,8494;0,0281581
2781,8135;0,0282214
2782,7778;0,0282925
2783,7419;0,0283719
2784,7063;0,0284558
2785,6704;0,0285369
2786,6348;0,0286083
2787,5989;0,0286679
2788,5632;0,0287204
2789,5273;0,0287748
2790,4917;0,0288402
2791,4558;0,0289211
2792,4202;0,0290158
2793,3843;0,0291184
2794,3486;0,0292222
2795,3127;0,0293238
2796,2771;0,0294231
2797,2412;0,0295226
2798,2056;0,0296243
2799,1697;0,0297284
2800,1340;0,0298328
2801,0981;0,0299347
2802,0625;0,030033
2803,0266;0,030129
2803,9910;0,0302267
2804,9551;0,03033
2805,9194;0,0304407
2806,8835;0,0305569
2807,8479;0,0306744
2808,8120;0,0307897
2809,7764;0,0309026
2810,7405;0,0310178
2811,7048;0,0311422
2812,6689;0,0312819
2813,6333;0,0314381
2814,5974;0,0316066
2815,5618;0,0317792
2816,5259;0,0319483
2817,4902;0,0321096
2818,4543;0,0322643
2819,4187;0,0324175
2820,3828;0,0325758
2821,3472;0,0327444
2822,3113;0,0329256
2823,2756;0,0331193
2824,2397;0,0333244
2825,2041;0,0335405
2826,1682;0,0337678
2827,1326;0,0340068
2828,0967;0,0342573
2829,0610;0,0345189
2830,0251;0,0347927
2830,9895;0,0350816
2831,9536;0,0353897
2832,9180;0,0357196
2833,8821;0,0360707
2834,8464;0,0364408
2835,8105;0,03683
2836,7749;0,0372455
2837,7390;0,0377026
2838,7034;0,0382214
2839,6675;0,0388211
2840,6318;0,0395162
2841,5959;0,0403162
2842,5603;0,0412263
2843,5244;0,0422448
2844,4888;0,0433539
2845,4529;0,044508
2846,4172;0,0456285
2847,3813;0,0466125
2848,3457;0,0473578
2849,3098;0,0477934
2850,2742;0,0479026
2851,2383;0,0477267
2852,2026;0,0473471
2853,1667;0,046857
2854,1311;0,0463358
2855,0952;0,0458346
2856,0596;0,0453776
2857,0237;0,0449714
2857,9880;0,0446176
2858,9521;0,0443198
2859,9165;0,0440848
2860,8806;0,0439191
2861,8450;0,0438247
2862,8091;0,0437972
2863,7734;0,0438275
2864,7375;0,0439048
2865,7019;0,0440188
2866,6660;0,0441595
2867,6304;0,044315
2868,5945;0,0444707
2869,5588;0,0446118
2870,5229;0,0447268
2871,4873;0,0448123
2872,4514;0,0448738
2873,4158;0,0449218
2874,3799;0,0449673
2875,3442;0,0450165
2876,3083;0,0450713
2877,2727;0,0451312
2878,2368;0,045197
2879,2012;0,0452721
2880,1653;0,0453617
2881,1296;0,0454701
2882,0938;0,0455987
2883,0581;0,045746
2884,0222;0,0459082
2884,9866;0,0460819
2885,9507;0,0462646
2886,9150;0,046455
2887,8792;0,0466518
2888,8435;0,0468522
2889,8076;0,0470523
2890,7720;0,047248
2891,7361;0,0474379
2892,7004;0,0476249
2893,6646;0,0478162
2894,6289;0,0480205
2895,5930;0,0482434
2896,5574;0,0484838
2897,5215;0,0487334
2898,4858;0,0489795
2899,4500;0,0492117
2900,4143;0,0494267
2901,3784;0,0496312
2902,3428;0,0498403
2903,3069;0,0500721
2904,2712;0,050342
2905,2354;0,0506601
2906,1997;0,0510328
2907,1638;0,0514681
2908,1282;0,05198
2909,0923;0,0525873
2910,0566;0,0533053
2911,0208;0,0541332
2911,9851;0,0550427
2912,9492;0,0559759
2913,9136;0,056854
2914,8777;0,0575955
2915,8420;0,0581352
2916,8062;0,0584385
2917,7705;0,0585039
2918,7346;0,0583573
2919,6990;0,0580393
2920,6631;0,0575941
2921,6274;0,0570613
2922,5916;0,0564719
2923,5559;0,0558488
2924,5200;0,0552086
2925,4844;0,0545631
2926,4485;0,0539212
2927,4128;0,0532899
2928,3770;0,0526742
2929,3413;0,0520771
2930,3054;0,0514995
2931,2698;0,0509398
2932,2339;0,0503952
2933,1982;0,0498622
2934,1624;0,0493389
2935,1267;0,0488257
2936,0908;0,0483253
2937,0552;0,0478411
2938,0193;0,047376
2938,9836;0,0469307
2939,9478;0,0465029
2940,9121;0,0460882
2941,8762;0,0456823
2942,8406;0,0452831
2943,8047;0,0448931
2944,7690;0,0445201
2945,7332;0,0441759
2946,6975;0,0438722
2947,6616;0,0436165
2948,6260;0,0434086
2949,5901;0,04324
2950,5544;0,043096
2951,5186;0,0429601
2952,4829;0,0428182
2953,4470;0,0426607
2954,4114;0,042483
2955,3755;0,0422838
2956,3398;0,0420635
2957,3040;0,0418233
2958,2683;0,0415648
2959,2324;0,0412904
2960,1968;0,0410039
2961,1609;0,0407095
2962,1252;0,0404115
2963,0894;0,0401134
2964,0537;0,0398173
2965,0178;0,0395253
2965,9822;0,0392397
2966,9463;0,0389629
2967,9106;0,0386965
2968,8748;0,0384389
2969,8391;0,038186
2970,8032;0,037932
2971,7676;0,037674
2972,7317;0,0374146
2973,6960;0,0371623
2974,6602;0,0369276
2975,6245;0,0367168
2976,5886;0,0365286
2977,5530;0,0363546
2978,5171;0,0361846
2979,4814;0,0360123
2980,4456;0,0358388
2981,4099;0,0356706
2982,3740;0,0355149
2983,3384;0,0353755
2984,3025;0,0352509
2985,2668;0,0351369
2986,2310;0,0350301
2987,1953;0,0349299
2988,1594;0,0348391
2989,1238;0,0347616
2990,0879;0,0347004
2991,0522;0,0346555
2992,0164;0,0346239
2992,9807;0,0346008
2993,9448;0,0345824
2994,9092;0,0345674
2995,8733;0,0345582
2996,8376;0,0345589
2997,8018;0,0345724
2998,7661;0,0345987
2999,7302;0,0346336
3000,6946;0,0346712
3001,6587;0,0347069
3002,6230;0,0347398
3003,5872;0,034772
3004,5515;0,0348072
3005,5156;0,0348474
3006,4800;0,0348919
3007,4441;0,0349377
3008,4084;0,0349816
3009,3726;0,0350219
3010,3369;0,0350599
3011,3010;0,0350996
3012,2654;0,0351457
3013,2295;0,035202
3014,1938;0,0352695
3015,1580;0,0353455
3016,1223;0,035426
3017,0864;0,0355073
3018,0508;0,035589
3019,0149;0,0356742
3019,9792;0,0357677
3020,9434;0,035873
3021,9077;0,0359898
3022,8718;0,0361141
3023,8362;0,0362396
3024,8003;0,0363608
3025,7646;0,0364749
3026,7288;0,0365816
3027,6931;0,0366824
3028,6572;0,0367783
3029,6216;0,0368698
3030,5857;0,0369571
3031,5500;0,0370414
3032,5142;0,0371258
3033,4785;0,0372156
3034,4426;0,0373167
3035,4070;0,0374338
3036,3711;0,037567
3037,3354;0,0377112
3038,2996;0,0378571
3039,2639;0,0379953
3040,2280;0,0381213
3041,1924;0,0382386
3042,1565;0,038357
3043,1208;0,0384874
3044,0850;0,0386347
3045,0493;0,0387946
3046,0134;0,0389565
3046,9778;0,0391092
3047,9419;0,0392481
3048,9063;0,0393764
3049,8704;0,0395023
3050,8347;0,0396327
3051,7988;0,03977
3052,7632;0,0399124
3053,7273;0,0400585
3054,6917;0,0402099
3055,6558;0,0403703
3056,6201;0,040542
3057,5842;0,0407216
3058,5486;0,0409006
3059,5127;0,0410689
3060,4771;0,0412201
3061,4412;0,0413533
3062,4055;0,0414722
3063,3696;0,0415813
3064,3340;0,0416849
3065,2981;0,0417867
3066,2625;0,0418917
3067,2266;0,042006
3068,1909;0,0421341
3069,1550;0,0422766
3070,1194;0,0424297
3071,0835;0,0425872
3072,0479;0,0427431
3073,0120;0,0428931
3073,9763;0,0430336
3074,9404;0,0431604
3075,9048;0,0432696
3076,8689;0,0433615
3077,8333;0,0434435
3078,7974;0,0435298
3079,7617;0,0436351
3080,7258;0,0437672
3081,6902;0,0439215
3082,6543;0,0440839
3083,6187;0,0442381
3084,5828;0,044374
3085,5471;0,0444915
3086,5112;0,0445995
3087,4756;0,0447098
3088,4397;0,0448315
3089,4041;0,0449677
3090,3682;0,045115
3091,3325;0,0452663
3092,2966;0,0454144
3093,2610;0,0455546
3094,2251;0,0456864
3095,1895;0,045812
3096,1536;0,0459345
3097,1179;0,046055
3098,0820;0,0461728
3099,0464;0,0462872
3100,0105;0,0464006
3100,9749;0,0465189
3101,9390;0,0466494
3102,9033;0,0467957
3103,8674;0,0469549
3104,8318;0,047118
3105,7959;0,0472748
3106,7603;0,0474204
3107,7244;0,047557
3108,6887;0,047693
3109,6528;0,0478365
3110,6172;0,0479909
3111,5813;0,0481531
3112,5457;0,0483162
3113,5098;0,0484742
3114,4741;0,0486252
3115,4382;0,0487712
3116,4026;0,0489166
3117,3667;0,0490645
3118,3311;0,0492166
3119,2952;0,049373
3120,2595;0,0495336
3121,2236;0,0496988
3122,1880;0,0498689
3123,1521;0,0500441
3124,1165;0,050225
3125,0806;0,050412
3126,0449;0,0506051
3127,0090;0,0508027
3127,9734;0,0510005
3128,9375;0,0511933
3129,9019;0,0513776
3130,8660;0,0515541
3131,8303;0,0517286
3132,7944;0,0519078
3133,7588;0,0520948
3134,7229;0,0522868
3135,6873;0,0524767
3136,6514;0,0526587
3137,6157;0,0528333
3138,5798;0,0530073
3139,5442;0,0531897
3140,5083;0,0533858
3141,4727;0,0535938
3142,4368;0,0538064
3143,4011;0,0540158
3144,3652;0,0542177
3145,3296;0,0544119
3146,2937;0,0546003
3147,2581;0,0547839
3148,2222;0,0549625
3149,1865;0,0551367
3150,1506;0,0553096
3151,1150;0,0554862
3152,0791;0,0556715
3153,0435;0,0558674
3154,0076;0,0560722
3154,9719;0,056282
3155,9360;0,0564936
3156,9004;0,0567057
3157,8645;0,0569178
3158,8289;0,0571295
3159,7930;0,0573394
3160,7573;0,0575464
3161,7214;0,0577518
3162,6858;0,0579591
3163,6499;0,0581727
3164,6143;0,0583939
3165,5784;0,0586188
3166,5427;0,0588392
3167,5068;0,0590467
3168,4712;0,0592385
3169,4353;0,0593829
3170,3997;0,0595695
3171,3638;0,0597742
3172,3281;0,0600034
3173,2922;0,0602519
3174,2566;0,0605046
3175,2207;0,0607443
3176,1851;0,0609601
3177,1492;0,0611523
3178,1135;0,0613314
3179,0776;0,0615107
3180,0420;0,0616987
3181,0061;0,061895
3181,9705;0,062092
3182,9346;0,0622815
3183,8989;0,062461
3184,8630;0,062636
3185,8274;0,0628171
3186,7915;0,0630137
3187,7559;0,0632282
3188,7200;0,0634548
3189,6843;0,0636826
3190,6484;0,0639018
3191,6128;0,0641078
3192,5769;0,064302
3193,5413;0,0644889
3194,5054;0,0646723
3195,4697;0,0648529
3196,4338;0,0650295
3197,3982;0,065201
3198,3623;0,0653684
3199,3267;0,065534
3200,2908;0,0657011
3201,2551;0,065872
3202,2192;0,0660492
3203,1836;0,0662349
3204,1477;0,0664305
3205,1121;0,066635
3206,0762;0,0668436
3207,0405;0,0670485
3208,0046;0,0672423
3208,9690;0,0674215
3209,9331;0,0675879
3210,8975;0,0677474
3211,8616;0,0679068
3212,8259;0,0680705
3213,7900;0,0682393
3214,7544;0,0684104
3215,7185;0,0685791
3216,6829;0,0687405
3217,6470;0,0688913
3218,6113;0,0690321
3219,5754;0,0691682
3220,5398;0,0693081
3221,5039;0,0694606
3222,4683;0,069631
3223,4324;0,0698192
3224,3967;0,070021
3225,3608;0,0702311
3226,3252;0,0704445
3227,2893;0,0706559
3228,2537;0,0708584
3229,2178;0,0710442
3230,1821;0,0712075
3231,1462;0,0713496
3232,1106;0,0714803
3233,0747;0,0716149
3234,0391;0,0717669
3235,0032;0,0719416
3235,9675;0,0721337
3236,9316;0,0723316
3237,8960;0,0725238
3238,8601;0,0727042
3239,8245;0,0728726
3240,7886;0,0730333
3241,7529;0,0731913
3242,7170;0,0733515
3243,6814;0,0735176
3244,6455;0,073693
3245,6099;0,0738797
3246,5740;0,0740782
3247,5383;0,0742872
3248,5024;0,0745043
3249,4668;0,074727
3250,4309;0,0749527
3251,3953;0,0751778
3252,3594;0,0753977
3253,3237;0,0756077
3254,2878;0,0758059
3255,2522;0,0759958
3256,2163;0,0761856
3257,1807;0,0763845
3258,1448;0,0765972
3259,1091;0,0768201
3260,0732;0,0770421
3261,0376;0,0772506
3262,0017;0,0774382
3262,9661;0,0776067
3263,9302;0,0777656
3264,8945;0,0779255
3265,8586;0,0780909
3266,8230;0,0782586
3267,7871;0,0784206
3268,7515;0,0785699
3269,7156;0,0787046
3270,6799;0,0788276
3271,6440;0,0789424
3272,6084;0,0790501
3273,5725;0,079149
3274,5369;0,0792376
3275,5010;0,0793172
3276,4653;0,0793912
3277,4294;0,0794619
3278,3938;0,0795278
3279,3579;0,0795844
3280,3223;0,0796282
3281,2864;0,0796604
3282,2507;0,0796878
3283,2148;0,0797188
3284,1792;0,0797578
3285,1433;0,0798023
3286,1077;0,0798437
3287,0718;0,0798725
3288,0361;0,0798822
3289,0002;0,0798725
3289,9646;0,0798487
3290,9287;0,0798193
3291,8931;0,0797919
3292,8572;0,0797702
3293,8215;0,0797521
3294,7856;0,0797313
3295,7500;0,0797013
3296,7141;0,07966
3297,6785;0,0796123
3298,6426;0,0795678
3299,6069;0,0795348
3300,5710;0,0795135
3301,5354;0,079495
3302,4995;0,0794652
3303,4639;0,0794132
3304,4280;0,079338
3305,3923;0,0792499
3306,3564;0,0791659
3307,3208;0,0791011
3308,2849;0,0790628
3309,2493;0,0790488
3310,2134;0,0790507
3311,1777;0,0790592
3312,1418;0,0790679
3313,1062;0,0790748
3314,0703;0,0790805
3315,0347;0,0790858
3315,9988;0,0790906
3316,9631;0,0790941
3317,9272;0,0790968
3318,8916;0,0791009
3319,8557;0,0791102
3320,8201;0,0791279
3321,7842;0,0791543
3322,7485;0,0791871
3323,7126;0,0792228
3324,6770;0,0792594
3325,6411;0,0792969
3326,6055;0,0793368
3327,5696;0,0793784
3328,5339;0,0794178
3329,4980;0,0794488
3330,4624;0,0794657
3331,4265;0,0794662
3332,3909;0,0794513
3333,3550;0,0794234
3334,3193;0,0793826
3335,2834;0,0793272
3336,2478;0,0792544
3337,2119;0,0791643
3338,1763;0,0790605
3339,1404;0,0789483
3340,1047;0,0788316
3341,0688;0,0787106
3342,0332;0,0785827
3342,9973;0,0784451
3343,9617;0,078298
3344,9258;0,0781442
3345,8901;0,0779878
3346,8542;0,0778319
3347,8186;0,0776768
3348,7827;0,0775205
3349,7471;0,07736
3350,7112;0,0771926
3351,6755;0,0770163
3352,6396;0,0768311
3353,6040;0,0766395
3354,5681;0,0764465
3355,5325;0,0762591
3356,4966;0,0760832
3357,4609;0,0759223
3358,4250;0,0757753
3359,3894;0,0756373
3360,3535;0,0755011
3361,3179;0,0753591
3362,2820;0,0752051
3363,2463;0,0750358
3364,2104;0,0748515
3365,1748;0,0746569
3366,1389;0,0744598
3367,1033;0,0742684
3368,0674;0,0740878
3369,0317;0,073918
3369,9958;0,073754
3370,9602;0,0735893
3371,9243;0,0734187
3372,8887;0,0732413
3373,8528;0,0730603
3374,8171;0,0728807
3375,7813;0,072707
3376,7456;0,0725414
3377,7097;0,0723835
3378,6741;0,0722309
3379,6382;0,0720798
3380,6025;0,071926
3381,5667;0,0717666
3382,5310;0,0716018
3383,4951;0,0714357
3384,4595;0,071276
3385,4236;0,07113
3386,3879;0,0710003
3387,3521;0,0708816
3388,3164;0,0707621
3389,2805;0,0706285
3390,2449;0,0704722
3391,2090;0,0702936
3392,1733;0,070101
3393,1375;0,0699062
3394,1018;0,0697189
3395,0659;0,0695442
3396,0303;0,0693824
3396,9944;0,0692311
3397,9587;0,0690854
3398,9229;0,068937
3399,8872;0,0687758
3400,8513;0,068593
3401,8157;0,0683867
3402,7798;0,0681647
3403,7441;0,0679421
3404,7083;0,0677342
3405,6726;0,0675485
3406,6367;0,0673816
3407,6011;0,0672216
3408,5652;0,067054
3409,5295;0,0668687
3410,4937;0,0666628
3411,4580;0,0664417
3412,4221;0,066217
3413,3865;0,0660017
3414,3506;0,0658045
3415,3149;0,0656241
3416,2791;0,0654478
3417,2434;0,0652566
3418,2075;0,0650343
3419,1719;0,0647774
3420,1360;0,064499
3421,1003;0,0642227
3422,0645;0,0639696
3423,0288;0,0637468
3423,9929;0,063546
3424,9573;0,0633504
3425,9214;0,0631448
3426,8857;0,0629223
3427,8499;0,0626858
3428,8142;0,0624439
3429,7783;0,0622051
3430,7427;0,0619744
3431,7068;0,0617522
3432,6711;0,061536
3433,6353;0,0613223
3434,5996;0,0611075
3435,5637;0,0608883
3436,5281;0,0606614
3437,4922;0,0604253
3438,4565;0,0601822
3439,4207;0,059939
3440,3850;0,0597043
3441,3491;0,0594821
3442,3135;0,0592663
3443,2776;0,0590401
3444,2419;0,0587847
3445,2061;0,0584911
3446,1704;0,0581693
3447,1345;0,0578448
3448,0989;0,0575443
3449,0630;0,0572794
3450,0273;0,0570422
3450,9915;0,0568143
3451,9558;0,0565809
3452,9199;0,0563399
3453,8843;0,0560999
3454,8484;0,0558704
3455,8127;0,055653
3456,7769;0,0554393
3457,7412;0,0552167
3458,7053;0,0549774
3459,6697;0,0547232
3460,6338;0,0544631
3461,5981;0,0542064
3462,5623;0,0539567
3463,5266;0,0537091
3464,4907;0,0534547
3465,4551;0,0531867
3466,4192;0,0529064
3467,3835;0,0526228
3468,3477;0,0523483
3469,3120;0,0520901
3470,2761;0,051845
3471,2405;0,0516011
3472,2046;0,0513466
3473,1689;0,0510795
3474,1331;0,0508121
3475,0974;0,0505642
3476,0615;0,0503485
3477,0259;0,0501595
3477,9900;0,0499742
3478,9543;0,049765
3479,9185;0,0495171
3480,8828;0,0492385
3481,8469;0,0489548
3482,8113;0,0486912
3483,7754;0,048454
3484,7397;0,0482282
3485,7039;0,0479896
3486,6682;0,0477229
3487,6323;0,0474342
3488,5967;0,0471473
3489,5608;0,0468891
3490,5251;0,046671
3491,4893;0,0464819
3492,4536;0,0462956
3493,4177;0,0460872
3494,3821;0,0458502
3495,3462;0,0456016
3496,3105;0,0453715
3497,2747;0,0451802
3498,2390;0,0450198
3499,2031;0,0448539
3500,1675;0,0446364
3501,1316;0,0443403
3502,0959;0,0439821
3503,0601;0,0436189
3504,0244;0,0433147
3504,9885;0,0430964
3505,9529;0,0429389
3506,9170;0,0427851
3507,8813;0,0425813
3508,8455;0,0423079
3509,8098;0,0419878
3510,7739;0,0416685
3511,7383;0,0413892
3512,7024;0,041159
3513,6667;0,0409624
3514,6309;0,0407787
3515,5952;0,0405995
3516,5593;0,0404312
3517,5237;0,0402837
3518,4878;0,0401565
3519,4521;0,0400338
3520,4163;0,039892
3521,3806;0,0397125
3522,3447;0,0394901
3523,3091;0,0392307
3524,2732;0,0389415
3525,2375;0,0386235
3526,2017;0,0382749
3527,1660;0,0379045
3528,1301;0,037541
3529,0945;0,0372248
3530,0586;0,0369866
3531,0229;0,036827
3531,9871;0,0367144
3532,9514;0,0366003
3533,9155;0,0364416
3534,8799;0,0362192
3535,8440;0,0359479
3536,8083;0,0356697
3537,7725;0,0354341
3538,7368;0,0352738
3539,7009;0,0351902
3540,6653;0,0351526
3541,6294;0,0351057
3542,5938;0,0349861
3543,5579;0,0347459
3544,5222;0,0343838
3545,4863;0,0339581
3546,4507;0,033558
3547,4148;0,0332467
3548,3792;0,0330256
3549,3433;0,0328448
3550,3076;0,0326419
3551,2717;0,0323815
3552,2361;0,0320782
3553,2002;0,0317862
3554,1646;0,0315601
3555,1287;0,0314158
3556,0930;0,0313235
3557,0571;0,0312337
3558,0215;0,0311126
3558,9856;0,030968
3559,9500;0,0308463
3560,9141;0,0307973
3561,8784;0,0308291
3562,8425;0,0308828
3563,8069;0,0308387
3564,7710;0,030558
3565,7354;0,029973
3566,6995;0,0291897
3567,6638;0,0284615
3568,6279;0,0279941
3569,5923;0,0278072
3570,5564;0,0277847
3571,5208;0,0277884
3572,4849;0,0277274
3573,4492;0,0275777
3574,4133;0,0273695
3575,3777;0,027153
3576,3418;0,0269598
3577,3062;0,0267903
3578,2703;0,0266338
3579,2346;0,0264975
3580,1987;0,0264138
3581,1631;0,0264152
3582,1272;0,026497
3583,0916;0,0265963
3584,0557;0,0266009
3585,0200;0,0263895
3585,9841;0,0259135
3586,9485;0,0252854
3587,9126;0,0247507
3588,8770;0,0244991
3589,8411;0,0245293
3590,8054;0,0246968
3591,7695;0,0248311
3592,7339;0,0248148
3593,6980;0,0246233
3594,6624;0,0243268
3595,6265;0,0240334
3596,5908;0,0238047
3597,5549;0,0236213
3598,5193;0,0234258
3599,4834;0,0231932
3600,4478;0,0229645
3601,4119;0,0228143
3602,3762;0,0227813
3603,3403;0,0228291
3604,3047;0,0228635
3605,2688;0,0227809
3606,2332;0,0225218
3607,1973;0,0221082
3608,1616;0,0216367
3609,1257;0,0212158
3610,0901;0,0209008
3611,0542;0,0206886
3612,0186;0,0205568
3612,9827;0,0204923
3613,9470;0,0204835
3614,9111;0,020494
3615,8755;0,0204529
3616,8396;0,0202786
3617,8040;0,0199357
3618,7681;0,019496
3619,7324;0,0191342
3620,6965;0,0190174
3621,6609;0,0191907
3622,6250;0,019573
3623,5894;0,0200233
3624,5535;0,0203869
3625,5178;0,0205027
3626,4819;0,0202177
3627,4463;0,0194802
3628,4104;0,0184914
3629,3748;0,0176522
3630,3389;0,0172137
3631,3032;0,017108
3632,2673;0,0171244
3633,2317;0,0170963
3634,1958;0,0169611
3635,1602;0,0167444
3636,1243;0,0165118
3637,0886;0,0163161
3638,0527;0,0161712
3639,0171;0,0160666
3639,9812;0,0159992
3640,9456;0,0159913
3641,9097;0,0160757
3642,8740;0,0162629
3643,8381;0,0165134
3644,8025;0,0167246
3645,7666;0,0167247
3646,7310;0,0162957
3647,6951;0,0153178
3648,6594;0,0140484
3649,6235;0,0130831
3650,5879;0,012768
3651,5520;0,0129514
3652,5164;0,0132985
3653,4805;0,0135453
3654,4448;0,0135584
3655,4089;0,0133432
3656,3733;0,0130308
3657,3374;0,0127915
3658,3018;0,0127094
3659,2659;0,012744
3660,2302;0,0128041
3661,1943;0,0128382
3662,1587;0,0128698
3663,1228;0,012964
3664,0872;0,0131576
3665,0513;0,0134105
3666,0156;0,0136113
3666,9797;0,01363
3667,9441;0,0134046
3668,9082;0,0130305
3669,8726;0,0127355
3670,8367;0,0126813
3671,8010;0,0128092
3672,7651;0,0128987
3673,7295;0,012725
3674,6936;0,0122185
3675,6580;0,0115719
3676,6221;0,0111152
3677,5864;0,0110134
3678,5505;0,0111851
3679,5149;0,0114705
3680,4790;0,0117692
3681,4434;0,0120633
3682,4075;0,0123773
3683,3718;0,012724
3684,3359;0,0130691
3685,3003;0,0133268
3686,2644;0,013383
3687,2288;0,0131484
3688,1929;0,0126506
3689,1572;0,0120987
3690,1213;0,0117634
3691,0857;0,0117517
3692,0498;0,0119766
3693,0142;0,0122969
3693,9783;0,0126178
3694,9426;0,0129019
3695,9067;0,0131425
3696,8711;0,013333
3697,8352;0,0134508
3698,7996;0,013462
3699,7637;0,0133481
3700,7280;0,0131412
3701,6921;0,0129358
3702,6565;0,0128474
3703,6206;0,0129414
3704,5850;0,0132002
3705,5491;0,0135435
3706,5134;0,0138575
3707,4775;0,0140079
3708,4419;0,0138516
3709,4060;0,0132981
3710,3704;0,0124354
3711,3345;0,0115777
3712,2988;0,0110582
3713,2629;0,0109828
3714,2273;0,0112423
3715,1914;0,0116676
3716,1558;0,0121264
3717,1199;0,0125455
3718,0842;0,0129023
3719,0483;0,0132075
3720,0127;0,0134799
3720,9768;0,0137195
3721,9412;0,0138982
3722,9053;0,0139813
3723,8696;0,0139662
3724,8337;0,0139043
3725,7981;0,0138794
3726,7622;0,0139539
3727,7266;0,0141332
3728,6907;0,0143735
3729,6550;0,0146085
3730,6191;0,0147668
3731,5835;0,0147696
3732,5476;0,0145284
3733,5120;0,0139828
3734,4761;0,0131992
3735,4404;0,0124256
3736,4045;0,0119489
3737,3689;0,0118877
3738,3330;0,012165
3739,2974;0,0126076
3740,2615;0,013023
3741,2258;0,0132282
3742,1899;0,0130842
3743,1543;0,0125945
3744,1184;0,0120003
3745,0828;0,011648
3746,0469;0,0116711
3747,0112;0,0119001
3747,9753;0,0120323
3748,9397;0,0118096
3749,9038;0,0111814
3750,8682;0,0104292
3751,8323;0,00998266
3752,7966;0,0100154
3753,7607;0,0103746
3754,7251;0,0108078
3755,6892;0,0111178
3756,6536;0,0112028
3757,6177;0,0110732
3758,5820;0,0108485
3759,5461;0,0106908
3760,5105;0,0106962
3761,4746;0,0108522
3762,4390;0,0110802
3763,4031;0,0112951
3764,3674;0,0114371
3765,3315;0,0114768
3766,2959;0,0114069
3767,2600;0,011233
3768,2244;0,0109764
3769,1885;0,0106888
3770,1528;0,0104567
3771,1169;0,0103697
3772,0813;0,0104694
3773,0454;0,0107243
3774,0098;0,0110476
3774,9739;0,0113314
3775,9382;0,0114803
3776,9023;0,011446
3777,8667;0,011259
3778,8308;0,0110257
3779,7952;0,010864
3780,7593;0,010824
3781,7236;0,0108722
3782,6877;0,0109371
3783,6521;0,0109615
3784,6162;0,0109287
3785,5806;0,0108621
3786,5447;0,0108052
3787,5090;0,0107978
3788,4731;0,0108598
3789,4375;0,0109873
3790,4016;0,0111552
3791,3660;0,0113269
3792,3301;0,0114684
3793,2944;0,0115673
3794,2585;0,0116419
3795,2229;0,0117293
3796,1870;0,0118485
3797,1514;0,0119641
3798,1155;0,0119868
3799,0798;0,0118258
3800,0439;0,0114741
3801,0083;0,0110605
3801,9724;0,0107726
3802,9368;0,010692
3803,9009;0,0107352
3804,8652;0,0107472
3805,8293;0,0106344
3806,7937;0,0104462
3807,7578;0,0103497
3808,7222;0,0104883
3809,6863;0,010863
3810,6506;0,0113502
3811,6147;0,0117896
3812,5791;0,0120526
3813,5432;0,0120863
3814,5076;0,0119485
3815,4717;0,011785
3816,4360;0,0117129
3817,4001;0,011711
3818,3645;0,0116451
3819,3286;0,0113974
3820,2930;0,0109921
3821,2571;0,0106078
3822,2214;0,0104296
3823,1855;0,0104983
3824,1499;0,0107212
3825,1140;0,0109759
3826,0784;0,0111809
3827,0425;0,0113124
3828,0068;0,0113889
3828,9709;0,0114455
3829,9353;0,0115119
3830,8994;0,0116042
3831,8638;0,0117262
3832,8279;0,0118664
3833,7922;0,0119921
3834,7563;0,0120474
3835,7207;0,0119716
3836,6848;0,0117398
3837,6492;0,011403
3838,6133;0,0110761
3839,5776;0,0108577
3840,5417;0,010763
3841,5061;0,0107407
3842,4702;0,0107407
3843,4346;0,0107624
3844,3987;0,0108553
3845,3630;0,0110809
3846,3271;0,0114683
3847,2915;0,0119934
3848,2556;0,01258
3849,2200;0,0131015
3850,1841;0,0133679
3851,1484;0,0131368
3852,1125;0,0122684
3853,0769;0,0110469
3854,0410;0,0101219
3855,0054;0,00985464
3855,9695;0,0101109
3856,9338;0,010614
3857,8979;0,0111632
3858,8623;0,0116409
3859,8264;0,0119753
3860,7908;0,0121259
3861,7549;0,0120998
3862,7192;0,011971
3863,6833;0,0118561
3864,6477;0,0118395
3865,6118;0,0119215
3866,5762;0,0120338
3867,5403;0,0120888
3868,5046;0,0120217
3869,4688;0,0118185
3870,4331;0,0115273
3871,3972;0,0112403
3872,3616;0,0110513
3873,3257;0,0110158
3874,2900;0,0111368
3875,2542;0,0113713
3876,2185;0,0116479
3877,1826;0,0118879
3878,1470;0,0120323
3879,1111;0,0120658
3880,0754;0,0120221
3881,0396;0,0119517
3882,0039;0,0118748
3882,9680;0,011775
3883,9324;0,0116424
3884,8965;0,0115164
3885,8608;0,0114698
3886,8250;0,0115404
3887,7893;0,0116812
3888,7534;0,0117818
3889,7178;0,0117387
3890,6819;0,0115389
3891,6462;0,0112999
3892,6104;0,0111997
3893,5747;0,011336
3894,5388;0,0116683
3895,5032;0,0120767
3896,4673;0,012439
3897,4316;0,0126714
3898,3958;0,0127427
3899,3601;0,0126678
3900,3242;0,0124784
3901,2886;0,012195
3902,2527;0,0118354
3903,2170;0,0114498
3904,1812;0,0111254
3905,1455;0,0109368
3906,1096;0,010898
3907,0740;0,0109675
3908,0381;0,0110866
3909,0024;0,0112142
3909,9666;0,01134
3910,9309;0,0114772
3911,8950;0,0116412
3912,8594;0,0118263
3913,8235;0,0119955
3914,7878;0,0120921
3915,7520;0,0120726
3916,7163;0,0119439
3917,6804;0,0117748
3918,6448;0,0116549
3919,6089;0,0116329
3920,5732;0,0116889
3921,5374;0,0117578
3922,5017;0,0117746
3923,4658;0,0117186
3924,4302;0,0116295
3925,3943;0,0115796
3926,3586;0,0116199
3927,3228;0,0117448
3928,2871;0,0118972
3929,2512;0,012
3930,2156;0,0119942
3931,1797;0,0118713
3932,1440;0,0116788
3933,1082;0,0114919
3934,0725;0,0113713
3935,0366;0,0113434
3936,0010;0,0114051
3936,9651;0,0115342
3937,9294;0,0116952
3938,8936;0,0118439
3939,8579;0,0119387
3940,8220;0,0119598
3941,7864;0,0119242
3942,7505;0,0118797
3943,7148;0,0118726
3944,6790;0,0119141
3945,6433;0,0119717
3946,6074;0,0119908
3947,5718;0,0119304
3948,5359;0,0117927
3949,5002;0,0116261
3950,4644;0,0114956
3951,4287;0,0114425
3952,3928;0,0114656
3953,3572;0,0115325
3954,3213;0,011604
3955,2856;0,0116547
3956,2498;0,0116784
3957,2141;0,0116824
3958,1782;0,0116754
3959,1426;0,0116615
3960,1067;0,0116411
3961,0710;0,0116168
3962,0352;0,0115962
3962,9995;0,0115893
3963,9636;0,0116016
3964,9280;0,0116305
3965,8921;0,0116661
3966,8564;0,0116973
3967,8206;0,0117168
3968,7849;0,0117237
3969,7490;0,0117209
3970,7134;0,0117114
3971,6775;0,0116955
3972,6418;0,0116724
3973,6060;0,0116438
3974,5703;0,0116161
3975,5344;0,011599
3976,4988;0,0116
3977,4629;0,0116197
3978,4272;0,0116498
3979,3914;0,0116777
3980,3557;0,0116921
3981,3198;0,0116888
3982,2842;0,011673
3983,2483;0,0116555
3984,2126;0,0116472
3985,1768;0,0116534
3986,1411;0,0116721
3987,1052;0,0116954
3988,0696;0,0117143
3989,0337;0,0117227
3989,9980;0,0117188
3990,9622;0,0117047
3991,9265;0,0116842
3992,8906;0,0116604
3993,8550;0,0116363
3994,8191;0,0116143
3995,7834;0,0115969
3996,7476;0,0115856
3997,7119;0,0115807
3998,6760;0,0115818
3999,6404;0,0115892
4000,6045;0,0115869

##### Extended Information
[Comments]
Sample name
Comment
Username
Division
Organization;UNIVERSIDAD INDUSTRIAL DE SANTANDER

[Detailed Information]
Creation date;18/03/2025 12:21 p.m.

Data array type;Linear data array
Horizontal axis;Wavenumber [cm-1]
Vertical axis;Abs
Start;399,193 cm-1
End;4000,6 cm-1
Data interval;0,964233 cm-1
Data points;3736    

[Measurement Information]
Model name;FT/IR-4X1typeA
Serial No.;A035162111

Accessory;ATR PRO 4X
Accessory S/N;A021162126
Incident angle;45 deg

Measurement date;18/03/2025 12:21 p.m.

Light source;Standard
Detector;TGS
Accumulation;40
Resolution;4 cm-1
Zero filling;On
Apodization;Cosine
Gain;Auto (8)
Aperture;Auto (7 mm)
Scan speed;Auto (2 mm/sec)
Filter;Auto (12800 Hz)

