TITLE;
DATA TYPE;INFRARED SPECTRUM
ORIGIN;JASCO
OWNER;
DATE;25/03/18
TIME;11:52:29
SPECTROMETER/DATA SYSTEM;
LOCALE;9226
RESOLUTION;
DELTAX;0,964233
XUNITS;1/CM
YUNITS;ABSORBANCE
FIRSTX;  399,1927
LASTX; 4000,6047
NPOINTS;    3736
FIRSTY;     0,18631
MAXY;     0,22098
MINY;     0,01285
XYDATA
399,1927;0,186307
400,1569;0,186065
401,1211;0,185822
402,0854;0,185798
403,0496;0,186066
404,0138;0,186617
404,9781;0,187387
405,9423;0,18825
406,9065;0,189028
407,8708;0,189551
408,8350;0,189717
409,7992;0,189532
410,7635;0,189084
411,7277;0,1885
412,6919;0,187874
413,6562;0,187246
414,6204;0,186639
415,5846;0,186138
416,5489;0,185964
417,5131;0,186463
418,4773;0,187855
419,4416;0,189804
420,4058;0,191508
421,3700;0,192385
422,3343;0,192389
423,2985;0,191786
424,2627;0,190928
425,2270;0,19017
426,1912;0,189809
427,1554;0,190005
428,1197;0,190751
429,0839;0,191888
430,0481;0,193158
431,0124;0,194271
431,9766;0,194981
432,9408;0,195178
433,9051;0,194915
434,8693;0,194378
435,8335;0,193783
436,7978;0,193257
437,7620;0,192779
438,7262;0,19222
439,6905;0,191445
440,6547;0,190421
441,6189;0,189282
442,5832;0,18829
443,5474;0,18771
444,5116;0,187641
445,4759;0,187962
446,4401;0,188437
447,4043;0,188878
448,3686;0,189232
449,3328;0,189546
450,2970;0,189874
451,2613;0,190181
452,2255;0,190326
453,1897;0,190135
454,1540;0,189513
455,1182;0,188528
456,0824;0,187416
457,0467;0,186515
458,0109;0,186098
458,9751;0,186199
459,9394;0,186613
460,9036;0,187079
461,8678;0,187444
462,8321;0,187685
463,7963;0,187837
464,7605;0,187915
465,7248;0,187873
466,6890;0,187638
467,6532;0,18717
468,6175;0,186521
469,5817;0,185843
470,5459;0,185353
471,5102;0,185244
472,4744;0,185578
473,4386;0,18622
474,4029;0,186917
475,3671;0,187437
476,3313;0,187675
477,2956;0,187651
478,2598;0,187463
479,2240;0,187224
480,1883;0,187025
481,1525;0,18691
482,1167;0,186888
483,0810;0,186954
484,0452;0,187094
485,0094;0,187289
485,9737;0,187514
486,9379;0,18774
487,9021;0,187952
488,8664;0,188154
489,8306;0,188361
490,7948;0,188581
491,7591;0,188799
492,7233;0,188984
493,6875;0,189109
494,6518;0,189181
495,6160;0,189239
496,5802;0,189333
497,5445;0,189485
498,5087;0,189667
499,4729;0,189805
500,4372;0,189811
501,4014;0,18964
502,3656;0,189333
503,3299;0,189019
504,2941;0,188858
505,2583;0,188963
506,2226;0,189359
507,1868;0,189975
508,1510;0,19068
509,1153;0,191342
510,0795;0,191889
511,0437;0,192328
512,0080;0,192719
512,9722;0,19312
513,9365;0,19355
514,9007;0,193978
515,8649;0,194341
516,8292;0,194584
517,7934;0,19469
518,7576;0,194693
519,7219;0,194651
520,6861;0,194611
521,6503;0,194589
522,6146;0,194579
523,5788;0,194558
524,5430;0,194496
525,5073;0,194359
526,4715;0,194125
527,4357;0,19379
528,4000;0,193377
529,3642;0,192927
530,3284;0,192482
531,2927;0,192075
532,2569;0,191721
533,2211;0,191417
534,1854;0,191144
535,1496;0,190886
536,1138;0,190638
537,0781;0,19041
538,0423;0,190221
539,0065;0,190084
539,9708;0,189995
540,9350;0,189928
541,8992;0,189846
542,8635;0,189717
543,8277;0,189535
544,7919;0,189334
545,7562;0,189184
546,7204;0,189169
547,6846;0,18934
548,6489;0,189684
549,6131;0,190122
550,5773;0,190544
551,5416;0,190869
552,5058;0,19109
553,4700;0,191277
554,4343;0,191526
555,3985;0,191885
556,3627;0,1923
557,3270;0,192619
558,2912;0,192661
559,2554;0,192304
560,2197;0,19155
561,1839;0,190513
562,1481;0,189367
563,1124;0,18826
564,0766;0,187274
565,0408;0,186418
566,0051;0,185665
566,9693;0,184994
567,9335;0,184405
568,8978;0,183906
569,8620;0,183494
570,8262;0,18314
571,7905;0,182804
572,7547;0,182457
573,7189;0,182097
574,6832;0,181748
575,6474;0,181441
576,6116;0,181186
577,5759;0,180965
578,5401;0,180744
579,5043;0,180497
580,4686;0,180227
581,4328;0,179956
582,3970;0,179707
583,3613;0,179477
584,3255;0,179239
585,2897;0,178969
586,2540;0,178669
587,2182;0,178385
588,1824;0,178183
589,1467;0,178112
590,1109;0,178168
591,0751;0,178282
592,0394;0,178347
593,0036;0,17827
593,9678;0,17801
594,9321;0,177585
595,8963;0,177054
596,8605;0,176485
597,8248;0,175941
598,7890;0,17547
599,7532;0,175098
600,7175;0,174814
601,6817;0,174577
602,6459;0,174324
603,6102;0,174003
604,5744;0,173598
605,5386;0,173128
606,5029;0,172632
607,4671;0,172138
608,4313;0,171641
609,3956;0,171114
610,3598;0,170531
611,3240;0,169896
612,2883;0,169249
613,2525;0,168637
614,2167;0,168082
615,1810;0,167561
616,1452;0,167008
617,1094;0,16635
618,0737;0,165544
619,0379;0,164596
620,0021;0,163543
620,9664;0,162429
621,9306;0,161289
622,8948;0,160161
623,8591;0,159093
624,8233;0,158148
625,7875;0,15737
626,7518;0,156767
627,7160;0,156295
628,6802;0,155876
629,6445;0,155428
630,6087;0,1549
631,5729;0,154279
632,5372;0,15359
633,5014;0,152875
634,4656;0,152183
635,4299;0,151555
636,3941;0,15102
637,3583;0,150588
638,3226;0,150246
639,2868;0,149961
640,2510;0,149679
641,2153;0,149345
642,1795;0,14892
643,1437;0,148402
644,1080;0,147831
645,0722;0,147276
646,0364;0,146805
647,0007;0,146454
647,9649;0,146212
648,9291;0,146029
649,8934;0,145854
650,8576;0,145666
651,8218;0,145484
652,7861;0,145354
653,7503;0,145317
654,7145;0,145384
655,6788;0,145537
656,6430;0,145735
657,6072;0,14593
658,5715;0,146074
659,5357;0,146117
660,4999;0,146034
661,4642;0,145841
662,4284;0,145606
663,3926;0,145414
664,3569;0,145322
665,3211;0,145321
666,2853;0,145299
667,2496;0,144996
668,2138;0,144131
669,1780;0,14275
670,1423;0,141245
671,1065;0,139877
672,0707;0,138623
673,0350;0,137361
673,9992;0,135996
674,9634;0,134514
675,9277;0,132988
676,8919;0,131527
677,8561;0,130211
678,8204;0,129053
679,7846;0,128029
680,7488;0,127115
681,7131;0,126299
682,6773;0,125575
683,6415;0,12493
684,6058;0,124355
685,5700;0,123842
686,5342;0,123389
687,4985;0,122987
688,4627;0,122612
689,4269;0,122232
690,3912;0,121823
691,3554;0,121382
692,3196;0,120926
693,2839;0,120486
694,2481;0,12009
695,2123;0,119754
696,1766;0,119475
697,1408;0,119231
698,1050;0,118991
699,0693;0,118724
700,0335;0,118405
700,9977;0,118018
701,9620;0,11756
702,9262;0,117035
703,8904;0,11646
704,8547;0,115858
705,8189;0,115256
706,7831;0,114682
707,7474;0,114148
708,7116;0,113645
709,6758;0,113147
710,6401;0,112618
711,6043;0,112028
712,5685;0,111373
713,5328;0,110681
714,4970;0,109997
715,4612;0,109392
716,4255;0,108823
717,3897;0,108295
718,3539;0,107756
719,3182;0,10714
720,2824;0,106407
721,2466;0,105562
722,2109;0,10465
723,1751;0,10373
724,1393;0,102855
725,1036;0,102048
726,0678;0,10131
727,0320;0,10062
727,9963;0,0999474
728,9605;0,0992671
729,9247;0,0985714
730,8890;0,0978762
731,8532;0,0972138
732,8174;0,0966154
733,7817;0,0960933
734,7459;0,0956348
735,7101;0,0952104
736,6744;0,0947917
737,6386;0,094367
738,6028;0,0939442
739,5671;0,093542
740,5313;0,0931766
741,4955;0,0928515
742,4598;0,0925551
743,4240;0,0922651
744,3882;0,0919559
745,3525;0,0916072
746,3167;0,091211
747,2809;0,0907751
748,2452;0,090322
749,2094;0,0898812
750,1736;0,0894776
751,1379;0,0891211
752,1021;0,0888027
753,0663;0,0884989
754,0306;0,0881831
754,9948;0,0878386
755,9590;0,087466
756,9233;0,0870817
757,8875;0,0867079
758,8517;0,0863601
759,8160;0,0860395
760,7802;0,0857347
761,7444;0,0854311
762,7087;0,0851221
763,6729;0,0848132
764,6371;0,0845179
765,6014;0,0842474
766,5656;0,0840028
767,5298;0,0837729
768,4941;0,0835398
769,4583;0,0832867
770,4225;0,0830049
771,3868;0,0826967
772,3510;0,0823762
773,3152;0,0820651
774,2795;0,081785
775,2437;0,0815471
776,2079;0,0813429
777,1722;0,0811424
778,1364;0,0809029
779,1006;0,0805864
780,0649;0,0801763
781,0291;0,0796845
781,9933;0,0791444
782,9576;0,0785949
783,9218;0,0780644
784,8860;0,077563
785,8503;0,077086
786,8145;0,0766261
787,7787;0,0761841
788,7430;0,0757738
789,7072;0,075416
790,6714;0,0751269
791,6357;0,0749061
792,5999;0,0747334
793,5641;0,0745747
794,5284;0,0743961
795,4926;0,0741772
796,4568;0,0739171
797,4211;0,0736329
798,3853;0,0733504
799,3495;0,0730951
800,3138;0,0728847
801,2780;0,0727256
802,2422;0,0726113
803,2065;0,0725227
804,1707;0,0724341
805,1349;0,0723222
806,0992;0,0721772
807,0634;0,072008
808,0276;0,0718366
808,9919;0,0716839
809,9561;0,0715556
810,9203;0,0714378
811,8846;0,0713059
812,8488;0,0711422
813,8130;0,0709499
814,7773;0,0707539
815,7415;0,0705878
816,7057;0,070476
817,6700;0,0704221
818,6342;0,0704094
819,5984;0,0704132
820,5627;0,0704135
821,5269;0,0704023
822,4911;0,0703813
823,4554;0,0703547
824,4196;0,0703233
825,3839;0,0702845
826,3481;0,0702359
827,3123;0,0701794
828,2766;0,0701207
829,2408;0,0700641
830,2050;0,0700071
831,1693;0,0699386
832,1335;0,069843
833,0977;0,0697076
834,0620;0,0695286
835,0262;0,0693131
835,9904;0,0690755
836,9547;0,0688311
837,9189;0,0685921
838,8831;0,068366
839,8474;0,068157
840,8116;0,067969
841,7758;0,0678068
842,7401;0,067675
843,7043;0,0675758
844,6685;0,0675057
845,6328;0,067455
846,5970;0,0674094
847,5612;0,067356
848,5255;0,0672885
849,4897;0,0672108
850,4539;0,067135
851,4182;0,0670751
852,3824;0,067039
853,3466;0,0670244
854,3109;0,0670202
855,2751;0,0670129
856,2393;0,0669927
857,2036;0,0669567
858,1678;0,0669081
859,1320;0,0668526
860,0963;0,0667966
861,0605;0,0667472
862,0247;0,0667123
862,9890;0,0666994
863,9532;0,0667126
864,9174;0,0667502
865,8817;0,0668051
866,8459;0,0668694
867,8101;0,0669393
868,7744;0,0670161
869,7386;0,0671022
870,7028;0,067195
871,6671;0,067283
872,6313;0,0673497
873,5955;0,0673822
874,5598;0,0673807
875,5240;0,0673606
876,4882;0,0673463
877,4525;0,0673608
878,4167;0,0674187
879,3809;0,0675261
880,3452;0,0676874
881,3094;0,0679103
882,2736;0,0682064
883,2379;0,0685851
884,2021;0,0690466
885,1663;0,0695807
886,1306;0,0701715
887,0948;0,0708054
888,0590;0,0714767
889,0233;0,0721851
889,9875;0,0729272
890,9517;0,0736877
891,9160;0,0744367
892,8802;0,0751343
893,8444;0,0757414
894,8087;0,0762303
895,7729;0,0765909
896,7371;0,0768285
897,7014;0,0769558
898,6656;0,0769827
899,6298;0,0769103
900,5941;0,076732
901,5583;0,0764429
902,5225;0,0760529
903,4868;0,0755951
904,4510;0,0751239
905,4152;0,0747015
906,3795;0,0743772
907,3437;0,0741717
908,3079;0,0740738
909,2722;0,0740512
910,2364;0,0740699
911,2007;0,0741111
912,1649;0,0741785
913,1292;0,0742929
914,0934;0,0744787
915,0576;0,0747509
916,0219;0,0751073
916,9861;0,0755278
917,9503;0,0759813
918,9146;0,0764346
919,8788;0,0768613
920,8430;0,077248
921,8073;0,0775949
922,7715;0,0779112
923,7357;0,0782083
924,7000;0,0784919
925,6642;0,0787595
926,6284;0,0790011
927,5927;0,0792045
928,5569;0,0793609
929,5211;0,0794686
930,4854;0,0795344
931,4496;0,0795718
932,4138;0,0795986
933,3781;0,0796337
934,3423;0,0796948
935,3065;0,0797971
936,2708;0,0799524
937,2350;0,0801705
938,1992;0,0804586
939,1635;0,0808208
940,1277;0,0812559
941,0919;0,0817567
942,0562;0,0823109
943,0204;0,0829063
943,9846;0,0835367
944,9489;0,0842065
945,9131;0,0849309
946,8773;0,0857309
947,8416;0,0866255
948,8058;0,0876237
949,7700;0,0887208
950,7343;0,0899002
951,6985;0,0911405
952,6627;0,092424
953,6270;0,0937437
954,5912;0,0951056
955,5554;0,0965243
956,5197;0,0980154
957,4839;0,0995872
958,4481;0,101236
959,4124;0,102945
960,3766;0,104693
961,3408;0,10646
962,3051;0,108231
963,2693;0,110004
964,2335;0,111783
965,1978;0,113579
966,1620;0,115403
967,1262;0,117268
968,0905;0,119188
969,0547;0,121182
970,0189;0,123273
970,9832;0,125487
971,9474;0,127846
972,9116;0,130371
973,8759;0,133076
974,8401;0,135971
975,8043;0,139062
976,7686;0,142346
977,7328;0,145804
978,6970;0,149393
979,6613;0,153042
980,6255;0,156663
981,5897;0,160158
982,5540;0,163438
983,5182;0,166437
984,4824;0,169119
985,4467;0,17148
986,4109;0,173546
987,3751;0,175362
988,3394;0,176978
989,3036;0,178433
990,2678;0,179744
991,2321;0,180906
992,1963;0,181906
993,1605;0,182732
994,1248;0,183394
995,0890;0,183924
996,0532;0,184366
997,0175;0,184763
997,9817;0,185145
998,9459;0,185527
999,9102;0,185917
1000,8744;0,186327
1001,8386;0,186783
1002,8029;0,187328
1003,7671;0,188009
1004,7313;0,188869
1005,6956;0,189931
1006,6598;0,191202
1007,6240;0,192667
1008,5883;0,1943
1009,5525;0,196072
1010,5167;0,197955
1011,4810;0,199916
1012,4452;0,201917
1013,4094;0,203912
1014,3737;0,205847
1015,3379;0,207666
1016,3021;0,209325
1017,2664;0,210799
1018,2306;0,212086
1019,1948;0,213206
1020,1591;0,214195
1021,1233;0,21509
1022,0875;0,215928
1023,0518;0,216731
1024,0160;0,217511
1024,9802;0,218267
1025,9445;0,218988
1026,9087;0,219655
1027,8729;0,220237
1028,8372;0,220693
1029,8014;0,220964
1030,7656;0,220984
1031,7299;0,220682
1032,6941;0,220003
1033,6583;0,218924
1034,6226;0,217464
1035,5868;0,215696
1036,5510;0,213736
1037,5153;0,211723
1038,4795;0,209803
1039,4437;0,208097
1040,4080;0,206685
1041,3722;0,205604
1042,3364;0,204844
1043,3007;0,20436
1044,2649;0,20408
1045,2291;0,203921
1046,1934;0,203796
1047,1576;0,203624
1048,1218;0,203338
1049,0861;0,202886
1050,0503;0,202232
1051,0145;0,201356
1051,9788;0,200252
1052,9430;0,19893
1053,9072;0,197408
1054,8715;0,195708
1055,8357;0,193838
1056,7999;0,191784
1057,7642;0,189512
1058,7284;0,186977
1059,6926;0,184157
1060,6569;0,181071
1061,6211;0,1778
1062,5853;0,174469
1063,5496;0,171217
1064,5138;0,16816
1065,4780;0,165365
1066,4423;0,162845
1067,4065;0,160571
1068,3707;0,158497
1069,3350;0,15658
1070,2992;0,154784
1071,2634;0,153074
1072,2277;0,151411
1073,1919;0,149744
1074,1561;0,14802
1075,1204;0,1462
1076,0846;0,144275
1077,0488;0,142267
1078,0131;0,140222
1078,9773;0,1382
1079,9415;0,136255
1080,9058;0,134429
1081,8700;0,132752
1082,8342;0,131239
1083,7985;0,129895
1084,7627;0,128716
1085,7269;0,127691
1086,6912;0,126806
1087,6554;0,126048
1088,6196;0,125413
1089,5839;0,124903
1090,5481;0,124523
1091,5123;0,124276
1092,4766;0,12416
1093,4408;0,124163
1094,4050;0,12427
1095,3693;0,124464
1096,3335;0,124727
1097,2977;0,125044
1098,2620;0,125393
1099,2262;0,125754
1100,1904;0,1261
1101,1547;0,126399
1102,1189;0,12662
1103,0831;0,126738
1104,0474;0,126738
1105,0116;0,126627
1105,9758;0,126425
1106,9401;0,126158
1107,9043;0,125837
1108,8685;0,125447
1109,8328;0,124943
1110,7970;0,124263
1111,7612;0,123358
1112,7255;0,122215
1113,6897;0,120869
1114,6539;0,119399
1115,6182;0,117906
1116,5824;0,116477
1117,5466;0,115171
1118,5109;0,114002
1119,4751;0,112946
1120,4393;0,11195
1121,4036;0,110941
1122,3678;0,109845
1123,3320;0,108598
1124,2963;0,107162
1125,2605;0,10553
1126,2247;0,103729
1127,1890;0,101808
1128,1532;0,0998238
1129,1174;0,0978265
1130,0817;0,0958506
1131,0459;0,0939172
1132,0101;0,0920426
1132,9744;0,0902481
1133,9386;0,0885648
1134,9028;0,0870313
1135,8671;0,0856862
1136,8313;0,0845603
1137,7955;0,0836711
1138,7598;0,0830226
1139,7240;0,082607
1140,6882;0,0824069
1141,6525;0,0823964
1142,6167;0,0825413
1143,5809;0,0828026
1144,5452;0,0831423
1145,5094;0,0835313
1146,4736;0,0839541
1147,4379;0,084409
1148,4021;0,0849011
1149,3663;0,085433
1150,3306;0,0859968
1151,2948;0,0865719
1152,2590;0,0871283
1153,2233;0,0876326
1154,1875;0,0880529
1155,1517;0,0883588
1156,1160;0,0885187
1157,0802;0,0884954
1158,0444;0,0882444
1159,0087;0,087715
1159,9729;0,086856
1160,9371;0,0856249
1161,9014;0,0839992
1162,8656;0,0819867
1163,8298;0,0796318
1164,7941;0,0770133
1165,7583;0,0742351
1166,7225;0,0714093
1167,6868;0,0686398
1168,6510;0,0660094
1169,6152;0,0635737
1170,5795;0,0613624
1171,5437;0,059385
1172,5079;0,0576378
1173,4722;0,0561102
1174,4364;0,054788
1175,4006;0,0536545
1176,3649;0,0526906
1177,3291;0,0518749
1178,2933;0,0511849
1179,2576;0,0505992
1180,2218;0,0501002
1181,1860;0,0496764
1182,1503;0,0493224
1183,1145;0,049038
1184,0787;0,0488263
1185,0430;0,0486915
1186,0072;0,0486378
1186,9714;0,0486688
1187,9357;0,0487866
1188,8999;0,0489905
1189,8641;0,0492772
1190,8284;0,0496408
1191,7926;0,0500744
1192,7568;0,0505718
1193,7211;0,0511274
1194,6853;0,0517354
1195,6495;0,0523873
1196,6138;0,0530716
1197,5780;0,0537739
1198,5422;0,0544797
1199,5065;0,0551624
1200,4707;0,0558449
1201,4349;0,0565071
1202,3992;0,0571466
1203,3634;0,057761
1204,3276;0,0583461
1205,2919;0,0588977
1206,2561;0,0594139
1207,2203;0,0598993
1208,1846;0,0603677
1209,1488;0,0608421
1210,1130;0,0613515
1211,0773;0,0619233
1212,0415;0,0625756
1213,0057;0,0633122
1213,9700;0,0641219
1214,9342;0,0649836
1215,8984;0,0658737
1216,8627;0,066772
1217,8269;0,0676647
1218,7911;0,0685447
1219,7554;0,0694081
1220,7196;0,0702515
1221,6838;0,0710701
1222,6481;0,0718567
1223,6123;0,0726032
1224,5765;0,0733027
1225,5408;0,0739516
1226,5050;0,0745512
1227,4692;0,0751063
1228,4335;0,0756236
1229,3977;0,0761083
1230,3619;0,0765615
1231,3262;0,0769785
1232,2904;0,07735
1233,2546;0,0776647
1234,2189;0,0779133
1235,1831;0,0780926
1236,1473;0,0782077
1237,1116;0,07827
1238,0758;0,0782934
1239,0400;0,0782887
1240,0043;0,0782603
1240,9685;0,0782053
1241,9327;0,078117
1242,8970;0,0779876
1243,8612;0,0778116
1244,8254;0,0775858
1245,7897;0,0773101
1246,7539;0,0769873
1247,7181;0,0766236
1248,6824;0,0762294
1249,6466;0,0758172
1250,6108;0,0753994
1251,5751;0,0749853
1252,5393;0,07458
1253,5035;0,074185
1254,4678;0,0737983
1255,4320;0,0734151
1256,3962;0,073027
1257,3605;0,0726228
1258,3247;0,0721909
1259,2889;0,0717241
1260,2532;0,0712225
1261,2174;0,0706932
1262,1816;0,0701457
1263,1459;0,0695859
1264,1101;0,0690127
1265,0743;0,0684193
1266,0386;0,0677977
1267,0028;0,0671443
1267,9670;0,0664627
1268,9313;0,0657633
1269,8955;0,0650601
1270,8597;0,0643655
1271,8240;0,0636868
1272,7882;0,0630252
1273,7524;0,0623783
1274,7167;0,0617445
1275,6809;0,0611259
1276,6451;0,0605277
1277,6094;0,0599547
1278,5736;0,0594069
1279,5378;0,058878
1280,5021;0,0583585
1281,4663;0,0578417
1282,4305;0,0573285
1283,3948;0,0568275
1284,3590;0,0563521
1285,3232;0,0559151
1286,2875;0,0555264
1287,2517;0,0551929
1288,2159;0,0549193
1289,1802;0,0547083
1290,1444;0,0545605
1291,1086;0,0544747
1292,0729;0,0544495
1293,0371;0,0544867
1294,0013;0,0545918
1294,9656;0,0547717
1295,9298;0,0550302
1296,8940;0,0553644
1297,8583;0,0557649
1298,8225;0,0562196
1299,7867;0,0567185
1300,7510;0,0572557
1301,7152;0,0578288
1302,6794;0,0584363
1303,6437;0,0590763
1304,6079;0,0597463
1305,5721;0,060443
1306,5364;0,0611622
1307,5006;0,061898
1308,4648;0,0626432
1309,4291;0,0633896
1310,3933;0,0641283
1311,3575;0,0648476
1312,3218;0,0655291
1313,2860;0,0661471
1314,2502;0,0666697
1315,2145;0,0670641
1316,1787;0,0673035
1317,1429;0,067374
1318,1072;0,067281
1319,0714;0,0670526
1320,0356;0,0667335
1320,9999;0,0663731
1321,9641;0,0660123
1322,9283;0,0656781
1323,8926;0,0653854
1324,8568;0,0651415
1325,8210;0,0649483
1326,7853;0,064802
1327,7495;0,0646927
1328,7137;0,0646061
1329,6780;0,0645253
1330,6422;0,064434
1331,6064;0,0643186
1332,5707;0,0641689
1333,5349;0,0639765
1334,4991;0,0637308
1335,4634;0,0634161
1336,4276;0,0630143
1337,3918;0,0625159
1338,3561;0,0619378
1339,3203;0,0613319
1340,2845;0,0607671
1341,2488;0,0602929
1342,2130;0,059919
1343,1772;0,0596264
1344,1415;0,0593905
1345,1057;0,0591978
1346,0699;0,0590498
1347,0342;0,0589586
1347,9984;0,0589379
1348,9626;0,0589952
1349,9269;0,0591281
1350,8911;0,0593257
1351,8553;0,0595742
1352,8196;0,0598641
1353,7838;0,0601947
1354,7480;0,0605726
1355,7123;0,0610027
1356,6765;0,0614791
1357,6407;0,0619819
1358,6050;0,0624851
1359,5692;0,0629666
1360,5334;0,0634166
1361,4977;0,0638401
1362,4619;0,0642508
1363,4261;0,0646585
1364,3904;0,0650584
1365,3546;0,0654337
1366,3188;0,0657654
1367,2831;0,0660409
1368,2473;0,0662561
1369,2115;0,0664105
1370,1758;0,0664978
1371,1400;0,0664993
1372,1042;0,0663864
1373,0685;0,0661374
1374,0327;0,0657603
1374,9969;0,0652979
1375,9612;0,0647979
1376,9254;0,0642725
1377,8896;0,0636927
1378,8539;0,0630201
1379,8181;0,0622489
1380,7823;0,0614219
1381,7466;0,0606056
1382,7108;0,0598417
1383,6750;0,0591164
1384,6393;0,0583741
1385,6035;0,0575697
1386,5677;0,0567276
1387,5320;0,0559557
1388,4962;0,0553729
1389,4604;0,0550175
1390,4247;0,0548378
1391,3889;0,0547464
1392,3531;0,0546709
1393,3174;0,0545755
1394,2816;0,0544633
1395,2458;0,0543648
1396,2101;0,054315
1397,1743;0,0543349
1398,1385;0,0544281
1399,1028;0,0545888
1400,0670;0,0548053
1401,0313;0,0550606
1401,9955;0,0553349
1402,9597;0,0556128
1403,9240;0,0558907
1404,8882;0,05618
1405,8524;0,056499
1406,8167;0,0568582
1407,7809;0,0572531
1408,7451;0,05767
1409,7094;0,0581001
1410,6736;0,0585469
1411,6378;0,0590216
1412,6021;0,0595312
1413,5663;0,060067
1414,5305;0,0606039
1415,4948;0,0611061
1416,4590;0,0615321
1417,4232;0,0618463
1418,3875;0,0620424
1419,3517;0,0621573
1420,3159;0,0622349
1421,2802;0,0622768
1422,2444;0,0622455
1423,2086;0,0621056
1424,1729;0,0618536
1425,1371;0,0615146
1426,1013;0,0611115
1427,0656;0,060637
1428,0298;0,0600609
1428,9940;0,059374
1429,9583;0,0586298
1430,9225;0,0579261
1431,8867;0,0573296
1432,8510;0,0568192
1433,8152;0,0562987
1434,7794;0,0556592
1435,7437;0,0548731
1436,7079;0,0540664
1437,6721;0,0534475
1438,6364;0,0531253
1439,6006;0,0530523
1440,5648;0,0531215
1441,5291;0,0532546
1442,4933;0,053421
1443,4575;0,0536212
1444,4218;0,0538611
1445,3860;0,0541366
1446,3502;0,0544328
1447,3145;0,0547361
1448,2787;0,0550461
1449,2429;0,0553742
1450,2072;0,055729
1451,1714;0,056103
1452,1356;0,0564693
1453,0999;0,0567832
1454,0641;0,0569745
1455,0283;0,0569354
1455,9926;0,0565573
1456,9568;0,0559022
1457,9210;0,0553059
1458,8853;0,0550431
1459,8495;0,0550675
1460,8137;0,0551854
1461,7780;0,055216
1462,7422;0,0550129
1463,7064;0,054479
1464,6707;0,0536362
1465,6349;0,0526616
1466,5991;0,0517611
1467,5634;0,0510038
1468,5276;0,0503057
1469,4918;0,0495039
1470,4561;0,0484139
1471,4203;0,0468958
1472,3845;0,0449922
1473,3488;0,043023
1474,3130;0,0413741
1475,2772;0,0401762
1476,2415;0,0393193
1477,2057;0,0386516
1478,1699;0,0380773
1479,1342;0,037555
1480,0984;0,0370761
1481,0626;0,0366515
1482,0269;0,0363039
1482,9911;0,036055
1483,9553;0,0359088
1484,9196;0,0358433
1485,8838;0,0358155
1486,8480;0,035779
1487,8123;0,0357155
1488,7765;0,0356704
1489,7407;0,035741
1490,7050;0,0359913
1491,6692;0,0364013
1492,6334;0,0369105
1493,5977;0,0374705
1494,5619;0,0380587
1495,5261;0,0386704
1496,4904;0,039309
1497,4546;0,0399805
1498,4188;0,0406894
1499,3831;0,0414307
1500,3473;0,042184
1501,3115;0,0429192
1502,2758;0,0436045
1503,2400;0,0442059
1504,2042;0,0446705
1505,1685;0,0448967
1506,1327;0,0447489
1507,0969;0,0442558
1508,0612;0,0437587
1509,0254;0,0435247
1509,9896;0,0435115
1510,9539;0,0435766
1511,9181;0,0436142
1512,8823;0,0435605
1513,8466;0,0433806
1514,8108;0,0430706
1515,7750;0,0426645
1516,7393;0,0422185
1517,7035;0,0417725
1518,6677;0,0413232
1519,6320;0,0408421
1520,5962;0,0403273
1521,5604;0,0398357
1522,5247;0,0394494
1523,4889;0,0392096
1524,4531;0,0391035
1525,4174;0,0391035
1526,3816;0,0391967
1527,3458;0,0393801
1528,3101;0,0396418
1529,2743;0,0399555
1530,2385;0,0402965
1531,2028;0,0406595
1532,1670;0,0410674
1533,1312;0,041555
1534,0955;0,0421343
1535,0597;0,0427758
1536,0239;0,0434294
1536,9882;0,0440454
1537,9524;0,0445632
1538,9166;0,044874
1539,8809;0,0448258
1540,8451;0,0444106
1541,8093;0,0439234
1542,7736;0,0436334
1543,7378;0,0435394
1544,7020;0,0435384
1545,6663;0,0435632
1546,6305;0,0435902
1547,5947;0,0436115
1548,5590;0,0436168
1549,5232;0,0435966
1550,4874;0,0435587
1551,4517;0,0435366
1552,4159;0,0435729
1553,3801;0,0436858
1554,3444;0,0438456
1555,3086;0,0439703
1556,2728;0,043921
1557,2371;0,0435269
1558,2013;0,0427858
1559,1655;0,0421289
1560,1298;0,04199
1561,0940;0,0422998
1562,0582;0,0428026
1563,0225;0,0433381
1563,9867;0,0438402
1564,9509;0,0442837
1565,9152;0,0446591
1566,8794;0,0449731
1567,8436;0,0452617
1568,8079;0,0455906
1569,7721;0,046017
1570,7363;0,0465428
1571,7006;0,0471187
1572,6648;0,0476863
1573,6290;0,0482039
1574,5933;0,0486519
1575,5575;0,0490347
1576,5217;0,049389
1577,4860;0,0497682
1578,4502;0,050198
1579,4144;0,0506643
1580,3787;0,0511379
1581,3429;0,051598
1582,3071;0,05204
1583,2714;0,0524761
1584,2356;0,0529296
1585,1998;0,053422
1586,1641;0,053961
1587,1283;0,0545365
1588,0925;0,0551239
1589,0568;0,0556908
1590,0210;0,0562029
1590,9852;0,0566274
1591,9495;0,0569352
1592,9137;0,0571057
1593,8779;0,0571356
1594,8422;0,0570465
1595,8064;0,0568794
1596,7706;0,0566775
1597,7349;0,0564687
1598,6991;0,0562618
1599,6633;0,0560546
1600,6276;0,0558465
1601,5918;0,0556472
1602,5560;0,0554758
1603,5203;0,0553513
1604,4845;0,0552793
1605,4487;0,055247
1606,4130;0,0552311
1607,3772;0,055217
1608,3414;0,0552162
1609,3057;0,0552665
1610,2699;0,0554037
1611,2341;0,0556299
1612,1984;0,0559074
1613,1626;0,0561791
1614,1268;0,0563944
1615,0911;0,0565391
1616,0553;0,056665
1617,0195;0,056869
1617,9838;0,0572052
1618,9480;0,0576388
1619,9122;0,0580962
1620,8765;0,0585202
1621,8407;0,0588862
1622,8049;0,0591993
1623,7692;0,0594827
1624,7334;0,0597585
1625,6976;0,060034
1626,6619;0,0603088
1627,6261;0,0605908
1628,5903;0,0608995
1629,5546;0,061249
1630,5188;0,0616291
1631,4830;0,0620006
1632,4473;0,062298
1633,4115;0,0624337
1634,3757;0,0623242
1635,3400;0,0619871
1636,3042;0,0616232
1637,2684;0,0614568
1638,2327;0,061522
1639,1969;0,061721
1640,1611;0,0619628
1641,1254;0,062201
1642,0896;0,0624114
1643,0538;0,0625589
1644,0181;0,0625782
1644,9823;0,0623945
1645,9465;0,0620162
1646,9108;0,0616173
1647,8750;0,0614061
1648,8392;0,0614112
1649,8035;0,061477
1650,7677;0,061349
1651,7319;0,0607183
1652,6962;0,0594305
1653,6604;0,0579336
1654,6246;0,0569598
1655,5889;0,0566114
1656,5531;0,0565492
1657,5173;0,0564919
1658,4816;0,0562937
1659,4458;0,0558777
1660,4100;0,0552072
1661,3743;0,0543199
1662,3385;0,0533664
1663,3027;0,0525429
1664,2670;0,0519476
1665,2312;0,0515297
1666,1954;0,0511454
1667,1597;0,0506258
1668,1239;0,0498459
1669,0881;0,0488213
1670,0524;0,047748
1671,0166;0,0468449
1671,9808;0,0461531
1672,9451;0,0455433
1673,9093;0,0448622
1674,8735;0,0440571
1675,8378;0,0432185
1676,8020;0,0425052
1677,7662;0,0420077
1678,7305;0,0416947
1679,6947;0,0414548
1680,6589;0,0411376
1681,6232;0,0405622
1682,5874;0,0395691
1683,5516;0,0382125
1684,5159;0,0368809
1685,4801;0,0359398
1686,4443;0,035387
1687,4086;0,0350229
1688,3728;0,0346929
1689,3370;0,0343467
1690,3013;0,0340036
1691,2655;0,0336973
1692,2297;0,0334363
1693,1940;0,0331938
1694,1582;0,0329219
1695,1224;0,032579
1696,0867;0,032152
1697,0509;0,0316605
1698,0151;0,0311444
1698,9794;0,0306592
1699,9436;0,0302777
1700,9078;0,0300642
1701,8721;0,0300312
1702,8363;0,0301342
1703,8005;0,0303061
1704,7648;0,0304948
1705,7290;0,0306841
1706,6932;0,0308937
1707,6575;0,0311567
1708,6217;0,031491
1709,5859;0,0318893
1710,5502;0,0323288
1711,5144;0,0327823
1712,4786;0,0332202
1713,4429;0,0336073
1714,4071;0,0339018
1715,3713;0,0340716
1716,3356;0,0341387
1717,2998;0,0342099
1718,2640;0,0344046
1719,2283;0,0347481
1720,1925;0,035184
1721,1567;0,0356456
1722,1210;0,0360882
1723,0852;0,0364903
1724,0494;0,0368491
1725,0137;0,0371771
1725,9779;0,0374967
1726,9421;0,0378289
1727,9064;0,0381807
1728,8706;0,038535
1729,8348;0,0388456
1730,7991;0,0390373
1731,7633;0,0390244
1732,7275;0,0387739
1733,6918;0,0383891
1734,6560;0,0380658
1735,6202;0,0379084
1736,5845;0,037859
1737,5487;0,0377874
1738,5129;0,0375815
1739,4772;0,0371909
1740,4414;0,0366441
1741,4056;0,0360292
1742,3699;0,0354328
1743,3341;0,0348858
1744,2983;0,0343646
1745,2626;0,0338228
1746,2268;0,0332061
1747,1910;0,0324513
1748,1553;0,0315005
1749,1195;0,0303609
1750,0837;0,0291575
1751,0480;0,0280729
1752,0122;0,0272089
1752,9764;0,0265329
1753,9407;0,0259393
1754,9049;0,0253331
1755,8691;0,0246788
1756,8334;0,0240048
1757,7976;0,0233639
1758,7618;0,0227799
1759,7261;0,0222281
1760,6903;0,0216688
1761,6545;0,0210984
1762,6188;0,0205626
1763,5830;0,0201152
1764,5472;0,0197705
1765,5115;0,0194986
1766,4757;0,0192535
1767,4399;0,0190009
1768,4042;0,0187261
1769,3684;0,0184241
1770,3326;0,0180888
1771,2969;0,0177215
1772,2611;0,0173567
1773,2253;0,0170609
1774,1896;0,0168826
1775,1538;0,0168148
1776,1180;0,016808
1777,0823;0,0168053
1778,0465;0,016768
1779,0107;0,0166874
1779,9750;0,0165813
1780,9392;0,0164767
1781,9034;0,0163897
1782,8677;0,0163214
1783,8319;0,0162712
1784,7961;0,0162497
1785,7604;0,0162728
1786,7246;0,0163448
1787,6888;0,0164454
1788,6531;0,0165316
1789,6173;0,0165494
1790,5815;0,0164571
1791,5458;0,016261
1792,5100;0,0160367
1793,4742;0,0158837
1794,4385;0,0158463
1795,4027;0,0158959
1796,3669;0,0159721
1797,3312;0,0160203
1798,2954;0,0160093
1799,2596;0,0159379
1800,2239;0,0158346
1801,1881;0,0157415
1802,1523;0,01569
1803,1166;0,015687
1804,0808;0,0157208
1805,0450;0,0157733
1806,0093;0,0158276
1806,9735;0,0158694
1807,9377;0,0158859
1808,9020;0,0158674
1809,8662;0,0158124
1810,8304;0,0157316
1811,7947;0,0156444
1812,7589;0,0155682
1813,7231;0,0155109
1814,6874;0,0154712
1815,6516;0,0154462
1816,6158;0,0154375
1817,5801;0,0154527
1818,5443;0,0154991
1819,5085;0,0155745
1820,4728;0,015664
1821,4370;0,0157447
1822,4012;0,0157962
1823,3655;0,0158109
1824,3297;0,0157973
1825,2939;0,0157715
1826,2582;0,0157411
1827,2224;0,0156959
1828,1866;0,0156178
1829,1509;0,0155044
1830,1151;0,0153857
1831,0793;0,0153109
1832,0436;0,0153108
1833,0078;0,0153768
1833,9720;0,0154726
1834,9363;0,0155585
1835,9005;0,0156134
1836,8647;0,0156441
1837,8290;0,0156772
1838,7932;0,0157348
1839,7574;0,0158138
1840,7217;0,0158847
1841,6859;0,0159051
1842,6501;0,0158421
1843,6144;0,0156991
1844,5786;0,0155263
1845,5428;0,0153885
1846,5071;0,0153161
1847,4713;0,015296
1848,4355;0,0152998
1849,3998;0,0153101
1850,3640;0,0153257
1851,3282;0,0153533
1852,2925;0,0153936
1853,2567;0,0154365
1854,2209;0,0154655
1855,1852;0,0154694
1856,1494;0,0154488
1857,1136;0,0154142
1858,0779;0,0153783
1859,0421;0,0153506
1860,0063;0,0153385
1860,9706;0,0153512
1861,9348;0,015399
1862,8990;0,0154849
1863,8633;0,0155952
1864,8275;0,0156967
1865,7917;0,0157439
1866,7560;0,0157002
1867,7202;0,0155681
1868,6844;0,0154066
1869,6487;0,0152977
1870,6129;0,0152842
1871,5771;0,0153458
1872,5414;0,0154281
1873,5056;0,0154808
1874,4698;0,0154809
1875,4341;0,0154372
1876,3983;0,0153806
1877,3625;0,0153442
1878,3268;0,0153449
1879,2910;0,0153783
1880,2552;0,0154279
1881,2195;0,0154784
1882,1837;0,0155226
1883,1479;0,0155618
1884,1122;0,0155999
1885,0764;0,0156398
1886,0406;0,0156816
1887,0049;0,0157219
1887,9691;0,0157532
1888,9333;0,015764
1889,8976;0,0157431
1890,8618;0,0156867
1891,8260;0,015603
1892,7903;0,0155117
1893,7545;0,0154379
1894,7188;0,0154041
1895,6830;0,0154188
1896,6472;0,0154701
1897,6115;0,0155287
1898,5757;0,015562
1899,5399;0,0155495
1900,5042;0,015493
1901,4684;0,0154158
1902,4326;0,015354
1903,3969;0,0153388
1904,3611;0,0153813
1905,3253;0,0154669
1906,2896;0,0155629
1907,2538;0,0156345
1908,2180;0,0156621
1909,1823;0,0156508
1910,1465;0,0156248
1911,1107;0,0156108
1912,0750;0,0156195
1913,0392;0,0156421
1914,0034;0,01566
1914,9677;0,0156576
1915,9319;0,0156337
1916,8961;0,0156017
1917,8604;0,01558
1918,8246;0,0155777
1919,7888;0,0155866
1920,7531;0,0155889
1921,7173;0,0155712
1922,6815;0,0155334
1923,6458;0,0154882
1924,6100;0,0154512
1925,5742;0,015431
1926,5385;0,0154266
1927,5027;0,0154328
1928,4669;0,0154456
1929,4312;0,0154631
1930,3954;0,0154823
1931,3596;0,015497
1932,3239;0,0155032
1933,2881;0,0155059
1934,2523;0,015521
1935,2166;0,0155651
1936,1808;0,0156388
1937,1450;0,0157177
1938,1093;0,0157608
1939,0735;0,0157338
1940,0377;0,0156327
1941,0020;0,0154934
1941,9662;0,015377
1942,9304;0,015332
1943,8947;0,0153627
1944,8589;0,0154322
1945,8231;0,0154967
1946,7874;0,0155376
1947,7516;0,0155661
1948,7158;0,0156031
1949,6801;0,0156521
1950,6443;0,0156859
1951,6085;0,0156583
1952,5728;0,015534
1953,5370;0,0153163
1954,5012;0,0150527
1955,4655;0,0148166
1956,4297;0,0146759
1957,3939;0,0146661
1958,3582;0,0147828
1959,3224;0,01499
1960,2866;0,0152384
1961,2509;0,0154802
1962,2151;0,0156773
1963,1793;0,0157994
1964,1436;0,015823
1965,1078;0,0157373
1966,0720;0,0155575
1967,0363;0,015333
1968,0005;0,0151348
1968,9647;0,0150226
1969,9290;0,0150155
1970,8932;0,0150881
1971,8574;0,0151934
1972,8217;0,0152957
1973,7859;0,0153919
1974,7501;0,015509
1975,7144;0,0156791
1976,6786;0,0159071
1977,6428;0,016157
1978,6071;0,0163673
1979,5713;0,0164819
1980,5355;0,0164739
1981,4998;0,0163489
1982,4640;0,0161403
1983,4282;0,0159013
1984,3925;0,0156965
1985,3567;0,0155863
1986,3209;0,0156048
1987,2852;0,0157443
1988,2494;0,0159578
1989,2136;0,0161805
1990,1779;0,0163604
1991,1421;0,0164817
1992,1063;0,0165651
1993,0706;0,0166433
1994,0348;0,0167302
1994,9990;0,0168074
1995,9633;0,0168368
1996,9275;0,0167876
1997,8917;0,0166588
1998,8560;0,0164847
1999,8202;0,0163173
2000,7844;0,0161972
2001,7487;0,0161334
2002,7129;0,0161052
2003,6771;0,0160849
2004,6414;0,0160637
2005,6056;0,0160643
2006,5698;0,0161281
2007,5341;0,0162843
2008,4983;0,0165203
2009,4625;0,0167781
2010,4268;0,0169777
2011,3910;0,0170535
2012,3552;0,0169821
2013,3195;0,0167904
2014,2837;0,0165442
2015,2479;0,0163224
2016,2122;0,0161883
2017,1764;0,0161692
2018,1406;0,0162558
2019,1049;0,016419
2020,0691;0,0166278
2021,0333;0,0168532
2021,9976;0,017059
2022,9618;0,0171941
2023,9260;0,0172037
2024,8903;0,0170588
2025,8545;0,016786
2026,8187;0,01647
2027,7830;0,0162186
2028,7472;0,0161098
2029,7114;0,016154
2030,6757;0,0162991
2031,6399;0,0164746
2032,6041;0,0166398
2033,5684;0,0168024
2034,5326;0,0169948
2035,4968;0,0172333
2036,4611;0,0174963
2037,4253;0,0177367
2038,3895;0,0179097
2039,3538;0,0179913
2040,3180;0,0179775
2041,2822;0,017875
2042,2465;0,0176996
2043,2107;0,0174861
2044,1749;0,0172978
2045,1392;0,0172145
2046,1034;0,0172952
2047,0676;0,0175365
2048,0320;0,0178608
2048,9961;0,0181565
2049,9604;0,0183429
2050,9246;0,0184078
2051,8889;0,0183941
2052,8530;0,0183569
2053,8174;0,0183264
2054,7815;0,0182993
2055,7458;0,0182577
2056,7100;0,0181972
2057,6743;0,0181378
2058,6384;0,018108
2059,6028;0,0181178
2060,5669;0,0181454
2061,5313;0,0181497
2062,4954;0,0181013
2063,4597;0,018006
2064,4238;0,017904
2065,3882;0,0178427
2066,3523;0,0178474
2067,3167;0,01791
2068,2808;0,0180028
2069,2451;0,0181017
2070,2092;0,018198
2071,1736;0,0182925
2072,1377;0,0183789
2073,1021;0,0184337
2074,0662;0,0184231
2075,0305;0,0183258
2075,9946;0,0181534
2076,9590;0,0179557
2077,9231;0,0178021
2078,8875;0,0177496
2079,8516;0,0178159
2080,8159;0,0179712
2081,7800;0,0181542
2082,7444;0,0183017
2083,7085;0,0183756
2084,6729;0,0183745
2085,6370;0,0183264
2086,6013;0,018269
2087,5654;0,0182311
2088,5298;0,0182231
2089,4939;0,0182389
2090,4583;0,0182649
2091,4224;0,0182888
2092,3867;0,0183063
2093,3508;0,0183221
2094,3152;0,0183485
2095,2793;0,0184002
2096,2437;0,0184851
2097,2078;0,0185958
2098,1721;0,0187066
2099,1362;0,0187807
2100,1006;0,0187852
2101,0647;0,0187079
2102,0291;0,0185643
2102,9932;0,0183923
2103,9575;0,0182355
2104,9216;0,018127
2105,8860;0,0180819
2106,8501;0,0180994
2107,8145;0,0181707
2108,7786;0,0182826
2109,7429;0,018416
2110,7070;0,0185438
2111,6714;0,018635
2112,6355;0,0186663
2113,5999;0,0186341
2114,5640;0,0185577
2115,5283;0,018469
2116,4924;0,0183968
2117,4568;0,0183543
2118,4209;0,0183395
2119,3853;0,0183439
2120,3494;0,0183613
2121,3137;0,0183876
2122,2778;0,0184131
2123,2422;0,0184185
2124,2063;0,018382
2125,1707;0,0182969
2126,1348;0,0181858
2127,0991;0,0180954
2128,0632;0,0180703
2129,0276;0,0181229
2129,9917;0,0182199
2130,9561;0,0183015
2131,9202;0,0183216
2132,8845;0,0182834
2133,8486;0,0182419
2134,8130;0,0182652
2135,7771;0,0183792
2136,7415;0,0185375
2137,7056;0,0186446
2138,6699;0,0186161
2139,6340;0,0184354
2140,5984;0,0181703
2141,5625;0,0179416
2142,5269;0,0178667
2143,4910;0,0180081
2144,4553;0,0183517
2145,4194;0,0188176
2146,3838;0,0192939
2147,3479;0,019673
2148,3123;0,019879
2149,2764;0,0198804
2150,2407;0,0196936
2151,2048;0,0193796
2152,1692;0,0190338
2153,1333;0,0187665
2154,0977;0,0186759
2155,0618;0,0188171
2156,0261;0,0191763
2156,9902;0,0196607
2157,9546;0,020123
2158,9187;0,0204283
2159,8831;0,0205254
2160,8472;0,0204604
2161,8115;0,0203212
2162,7756;0,020175
2163,7400;0,0200434
2164,7041;0,0199157
2165,6685;0,0197747
2166,6326;0,0196153
2167,5969;0,0194476
2168,5610;0,0192898
2169,5254;0,0191604
2170,4895;0,0190765
2171,4539;0,0190548
2172,4180;0,0191103
2173,3823;0,019247
2174,3464;0,0194453
2175,3108;0,0196568
2176,2749;0,0198155
2177,2393;0,0198634
2178,2034;0,019778
2179,1677;0,0195874
2180,1318;0,0193631
2181,0962;0,0191927
2182,0603;0,0191418
2183,0247;0,0192233
2183,9888;0,0193906
2184,9531;0,0195598
2185,9172;0,0196489
2186,8816;0,0196146
2187,8457;0,0194697
2188,8101;0,0192765
2189,7742;0,0191175
2190,7385;0,0190576
2191,7026;0,0191147
2192,6670;0,0192548
2193,6311;0,0194118
2194,5955;0,0195208
2195,5596;0,0195461
2196,5239;0,0194896
2197,4880;0,0193795
2198,4524;0,019251
2199,4165;0,0191335
2200,3809;0,0190492
2201,3450;0,0190141
2202,3093;0,0190355
2203,2734;0,0191027
2204,2378;0,0191834
2205,2019;0,0192358
2206,1663;0,0192327
2207,1304;0,0191825
2208,0947;0,0191271
2209,0588;0,0191152
2210,0232;0,0191673
2210,9873;0,0192589
2211,9517;0,019335
2212,9158;0,0193466
2213,8801;0,0192814
2214,8442;0,0191692
2215,8086;0,0190602
2216,7727;0,018995
2217,7371;0,0189879
2218,7012;0,0190298
2219,6655;0,0191017
2220,6296;0,0191852
2221,5940;0,0192628
2222,5581;0,0193152
2223,5225;0,019323
2224,4866;0,0192744
2225,4509;0,019174
2226,4150;0,019043
2227,3794;0,0189109
2228,3435;0,0188049
2229,3079;0,018743
2230,2720;0,0187336
2231,2363;0,0187771
2232,2004;0,0188653
2233,1648;0,0189788
2234,1289;0,0190891
2235,0933;0,0191687
2236,0574;0,0192054
2237,0217;0,0192118
2237,9858;0,0192181
2238,9502;0,0192524
2239,9143;0,0193194
2240,8787;0,0193931
2241,8428;0,0194312
2242,8071;0,0194017
2243,7712;0,0193029
2244,7356;0,0191635
2245,6997;0,019023
2246,6641;0,018907
2247,6282;0,018818
2248,5925;0,0187447
2249,5566;0,0186834
2250,5210;0,0186485
2251,4851;0,0186651
2252,4495;0,0187468
2253,4136;0,0188782
2254,3779;0,0190174
2255,3420;0,0191176
2256,3064;0,019153
2257,2705;0,0191284
2258,2349;0,0190686
2259,1990;0,0189982
2260,1633;0,0189287
2261,1274;0,0188612
2262,0918;0,0187985
2263,0559;0,0187532
2264,0203;0,0187432
2264,9844;0,0187788
2265,9487;0,0188519
2266,9128;0,0189382
2267,8772;0,0190096
2268,8413;0,019049
2269,8057;0,0190561
2270,7698;0,0190425
2271,7341;0,0190209
2272,6982;0,0189973
2273,6626;0,0189703
2274,6267;0,0189367
2275,5911;0,0188976
2276,5552;0,0188613
2277,5195;0,0188417
2278,4836;0,0188509
2279,4480;0,0188933
2280,4121;0,0189617
2281,3765;0,0190403
2282,3406;0,0191122
2283,3049;0,0191667
2284,2690;0,0192031
2285,2334;0,0192282
2286,1975;0,0192495
2287,1619;0,0192693
2288,1260;0,0192843
2289,0903;0,0192896
2290,0544;0,0192842
2291,0188;0,0192728
2291,9829;0,0192639
2292,9473;0,0192641
2293,9114;0,0192764
2294,8757;0,0193002
2295,8398;0,0193345
2296,8042;0,0193792
2297,7683;0,0194327
2298,7327;0,0194878
2299,6968;0,0195315
2300,6611;0,0195485
2301,6252;0,0195306
2302,5896;0,0194832
2303,5537;0,0194256
2304,5181;0,0193836
2305,4822;0,0193766
2306,4465;0,0194062
2307,4106;0,0194538
2308,3750;0,0194877
2309,3391;0,0194805
2310,3035;0,0194247
2311,2676;0,0193393
2312,2319;0,0192606
2313,1960;0,019222
2314,1604;0,0192353
2315,1245;0,0192867
2316,0889;0,019347
2317,0530;0,0193904
2318,0173;0,0194088
2318,9814;0,0194149
2319,9458;0,0194322
2320,9099;0,0194774
2321,8743;0,0195463
2322,8384;0,0196136
2323,8027;0,0196445
2324,7668;0,0196108
2325,7312;0,0195013
2326,6953;0,0193287
2327,6597;0,0191301
2328,6238;0,0189599
2329,5881;0,0188708
2330,5522;0,0188884
2331,5166;0,0189948
2332,4807;0,0191359
2333,4451;0,0192496
2334,4092;0,0192953
2335,3735;0,0192693
2336,3376;0,0192009
2337,3020;0,0191326
2338,2661;0,0190942
2339,2305;0,0190829
2340,1946;0,0190615
2341,1589;0,0189787
2342,1230;0,0188064
2343,0874;0,0185849
2344,0515;0,0184351
2345,0159;0,0184861
2345,9800;0,0187659
2346,9443;0,0191792
2347,9084;0,0195824
2348,8728;0,0198624
2349,8369;0,0199742
2350,8013;0,0199438
2351,7654;0,0198496
2352,7297;0,0197832
2353,6938;0,0197994
2354,6582;0,0198884
2355,6223;0,0199954
2356,5867;0,0200637
2357,5508;0,0200604
2358,5151;0,019977
2359,4792;0,0198194
2360,4436;0,0195966
2361,4077;0,0193157
2362,3721;0,0189897
2363,3362;0,018651
2364,3005;0,0183499
2365,2646;0,0181339
2366,2290;0,0180192
2367,1931;0,0179838
2368,1575;0,0179838
2369,1216;0,0179803
2370,0859;0,0179555
2371,0500;0,0179128
2372,0144;0,0178674
2372,9785;0,0178367
2373,9429;0,0178349
2374,9070;0,0178714
2375,8713;0,0179501
2376,8354;0,0180689
2377,7998;0,0182205
2378,7639;0,0183934
2379,7283;0,0185741
2380,6924;0,0187491
2381,6567;0,0189072
2382,6208;0,0190415
2383,5852;0,0191505
2384,5493;0,0192375
2385,5137;0,0193083
2386,4778;0,0193692
2387,4421;0,0194241
2388,4063;0,0194741
2389,3706;0,0195187
2390,3347;0,0195567
2391,2991;0,0195876
2392,2632;0,0196112
2393,2275;0,0196274
2394,1917;0,0196362
2395,1560;0,0196393
2396,1201;0,01964
2397,0845;0,0196432
2398,0486;0,0196539
2399,0129;0,0196738
2399,9771;0,0197008
2400,9414;0,0197297
2401,9055;0,0197555
2402,8699;0,0197762
2403,8340;0,0197944
2404,7983;0,0198159
2405,7625;0,0198461
2406,7268;0,0198854
2407,6909;0,0199287
2408,6553;0,0199673
2409,6194;0,019994
2410,5837;0,0200077
2411,5479;0,0200141
2412,5122;0,0200214
2413,4763;0,0200349
2414,4407;0,0200545
2415,4048;0,0200759
2416,3691;0,0200959
2417,3333;0,0201161
2418,2976;0,0201416
2419,2617;0,0201764
2420,2261;0,0202178
2421,1902;0,0202565
2422,1545;0,020282
2423,1187;0,02029
2424,0830;0,0202856
2425,0471;0,0202798
2426,0115;0,0202825
2426,9756;0,0202979
2427,9399;0,0203253
2428,9041;0,0203629
2429,8684;0,0204108
2430,8325;0,0204693
2431,7969;0,0205337
2432,7610;0,0205919
2433,7253;0,0206289
2434,6895;0,0206363
2435,6538;0,0206192
2436,6179;0,0205954
2437,5823;0,0205856
2438,5464;0,0206017
2439,5107;0,0206408
2440,4749;0,0206891
2441,4392;0,0207323
2442,4033;0,020764
2443,3677;0,020787
2444,3318;0,0208081
2445,2961;0,0208317
2446,2603;0,0208564
2447,2246;0,020878
2448,1887;0,0208933
2449,1531;0,0209028
2450,1172;0,0209093
2451,0815;0,0209149
2452,0457;0,0209204
2453,0100;0,0209263
2453,9741;0,0209361
2454,9385;0,0209557
2455,9026;0,0209905
2456,8669;0,0210402
2457,8311;0,0210961
2458,7954;0,0211432
2459,7595;0,0211679
2460,7239;0,0211658
2461,6880;0,0211459
2462,6523;0,0211279
2463,6165;0,0211325
2464,5808;0,02117
2465,5449;0,0212344
2466,5093;0,0213059
2467,4734;0,0213608
2468,4377;0,0213847
2469,4019;0,0213794
2470,3662;0,0213607
2471,3303;0,0213482
2472,2947;0,0213533
2473,2588;0,0213739
2474,2231;0,0213978
2475,1873;0,0214128
2476,1516;0,0214161
2477,1157;0,0214165
2478,0801;0,0214275
2479,0442;0,021458
2480,0085;0,0215052
2480,9727;0,0215568
2481,9370;0,0215993
2482,9011;0,0216268
2483,8655;0,0216446
2484,8296;0,0216638
2485,7939;0,0216931
2486,7581;0,021732
2487,7224;0,0217708
2488,6865;0,0217977
2489,6509;0,0218065
2490,6150;0,0218008
2491,5793;0,0217909
2492,5435;0,0217871
2493,5078;0,0217936
2494,4719;0,0218078
2495,4363;0,0218241
2496,4004;0,0218397
2497,3647;0,0218563
2498,3289;0,0218785
2499,2932;0,0219086
2500,2573;0,0219436
2501,2217;0,0219762
2502,1858;0,0219984
2503,1501;0,0220064
2504,1143;0,0220026
2505,0786;0,0219936
2506,0427;0,0219884
2507,0071;0,0219945
2507,9712;0,0220164
2508,9355;0,0220539
2509,8997;0,0221011
2510,8640;0,022148
2511,8281;0,0221834
2512,7925;0,0222004
2513,7566;0,0222003
2514,7209;0,0221924
2515,6851;0,0221883
2516,6494;0,0221947
2517,6135;0,0222092
2518,5779;0,0222223
2519,5420;0,0222248
2520,5063;0,0222149
2521,4705;0,0221998
2522,4348;0,0221906
2523,3989;0,0221946
2524,3633;0,0222108
2525,3274;0,0222311
2526,2917;0,0222475
2527,2559;0,0222574
2528,2202;0,022265
2529,1843;0,0222769
2530,1487;0,0222964
2531,1128;0,0223201
2532,0771;0,0223402
2533,0413;0,0223501
2534,0056;0,0223497
2534,9697;0,0223468
2535,9341;0,0223533
2536,8982;0,0223784
2537,8625;0,0224235
2538,8267;0,0224802
2539,7910;0,0225342
2540,7551;0,022572
2541,7195;0,0225871
2542,6836;0,0225828
2543,6479;0,0225699
2544,6121;0,0225603
2545,5764;0,0225609
2546,5405;0,0225701
2547,5049;0,0225809
2548,4690;0,0225854
2549,4333;0,0225808
2550,3975;0,0225706
2551,3618;0,0225621
2552,3259;0,0225619
2553,2903;0,0225727
2554,2544;0,0225924
2555,2188;0,0226165
2556,1829;0,0226413
2557,1472;0,0226659
2558,1113;0,0226912
2559,0757;0,0227191
2560,0398;0,0227496
2561,0042;0,0227802
2561,9683;0,0228057
2562,9326;0,0228211
2563,8967;0,0228244
2564,8611;0,0228185
2565,8252;0,0228114
2566,7896;0,022812
2567,7537;0,0228254
2568,7180;0,022849
2569,6821;0,0228739
2570,6465;0,022889
2571,6106;0,022888
2572,5750;0,0228724
2573,5391;0,0228508
2574,5034;0,0228339
2575,4675;0,0228298
2576,4319;0,0228417
2577,3960;0,0228686
2578,3604;0,0229067
2579,3245;0,0229504
2580,2888;0,0229928
2581,2529;0,023027
2582,2173;0,0230487
2583,1814;0,0230602
2584,1458;0,0230709
2585,1099;0,0230929
2586,0742;0,023134
2587,0383;0,0231919
2588,0027;0,0232535
2588,9668;0,0233015
2589,9312;0,0233235
2590,8953;0,0233188
2591,8596;0,0232989
2592,8237;0,0232808
2593,7881;0,023279
2594,7522;0,0232992
2595,7166;0,0233374
2596,6807;0,0233841
2597,6450;0,0234298
2598,6091;0,0234686
2599,5735;0,0234992
2600,5376;0,0235233
2601,5020;0,0235438
2602,4661;0,0235635
2603,4304;0,023585
2604,3945;0,0236106
2605,3589;0,0236408
2606,3230;0,0236739
2607,2874;0,0237048
2608,2515;0,0237283
2609,2158;0,0237415
2610,1799;0,0237476
2611,1443;0,0237546
2612,1084;0,0237713
2613,0728;0,0238019
2614,0369;0,0238429
2615,0012;0,0238858
2615,9653;0,0239222
2616,9297;0,0239501
2617,8938;0,0239742
2618,8582;0,0240019
2619,8223;0,0240374
2620,7866;0,0240783
2621,7507;0,0241173
2622,7151;0,0241471
2623,6792;0,024166
2624,6436;0,0241787
2625,6077;0,0241937
2626,5720;0,0242183
2627,5361;0,0242553
2628,5005;0,0243018
2629,4646;0,0243517
2630,4290;0,0243977
2631,3931;0,0244341
2632,3574;0,0244579
2633,3215;0,0244699
2634,2859;0,0244741
2635,2500;0,0244767
2636,2144;0,0244846
2637,1785;0,0245035
2638,1428;0,0245357
2639,1069;0,02458
2640,0713;0,0246319
2641,0354;0,024685
2641,9998;0,0247331
2642,9639;0,0247716
2643,9282;0,0247991
2644,8923;0,0248182
2645,8567;0,0248337
2646,8208;0,0248512
2647,7852;0,024874
2648,7493;0,0249024
2649,7136;0,0249343
2650,6777;0,0249666
2651,6421;0,0249973
2652,6062;0,0250261
2653,5706;0,025054
2654,5347;0,0250817
2655,4990;0,0251093
2656,4631;0,025136
2657,4275;0,0251612
2658,3916;0,0251854
2659,3560;0,0252092
2660,3201;0,0252332
2661,2844;0,0252566
2662,2485;0,0252773
2663,2129;0,0252933
2664,1770;0,0253043
2665,1414;0,0253126
2666,1055;0,0253232
2667,0698;0,0253404
2668,0339;0,0253666
2668,9983;0,0253997
2669,9624;0,0254349
2670,9268;0,0254668
2671,8909;0,025493
2672,8552;0,0255147
2673,8193;0,025536
2674,7837;0,0255607
2675,7478;0,0255898
2676,7122;0,0256216
2677,6763;0,0256526
2678,6406;0,025681
2679,6047;0,0257078
2680,5691;0,0257361
2681,5332;0,0257688
2682,4976;0,0258071
2683,4617;0,0258493
2684,4260;0,0258922
2685,3901;0,0259333
2686,3545;0,0259715
2687,3186;0,0260069
2688,2830;0,02604
2689,2471;0,0260705
2690,2114;0,0260975
2691,1755;0,0261211
2692,1399;0,0261426
2693,1040;0,0261645
2694,0684;0,0261893
2695,0325;0,026218
2695,9968;0,0262504
2696,9609;0,0262852
2697,9253;0,0263217
2698,8894;0,02636
2699,8538;0,0264007
2700,8179;0,0264444
2701,7822;0,026491
2702,7463;0,0265399
2703,7107;0,0265903
2704,6748;0,0266411
2705,6392;0,0266904
2706,6033;0,0267356
2707,5676;0,0267738
2708,5317;0,0268042
2709,4961;0,0268289
2710,4602;0,0268532
2711,4246;0,0268832
2712,3887;0,0269227
2713,3530;0,0269709
2714,3171;0,0270226
2715,2815;0,0270713
2716,2456;0,0271124
2717,2100;0,0271458
2718,1741;0,0271747
2719,1384;0,0272035
2720,1025;0,0272346
2721,0669;0,027267
2722,0310;0,027298
2722,9954;0,0273256
2723,9595;0,027351
2724,9238;0,0273784
2725,8879;0,0274132
2726,8523;0,0274585
2727,8164;0,0275133
2728,7808;0,0275729
2729,7449;0,0276306
2730,7092;0,0276803
2731,6733;0,0277189
2732,6377;0,0277462
2733,6018;0,0277648
2734,5662;0,0277787
2735,5303;0,0277919
2736,4946;0,0278082
2737,4587;0,0278298
2738,4231;0,0278573
2739,3872;0,0278898
2740,3516;0,0279254
2741,3157;0,0279617
2742,2800;0,0279968
2743,2441;0,0280293
2744,2085;0,0280581
2745,1726;0,0280827
2746,1370;0,0281035
2747,1011;0,0281228
2748,0654;0,0281442
2749,0295;0,0281721
2749,9939;0,0282095
2750,9580;0,0282563
2751,9224;0,0283091
2752,8865;0,0283622
2753,8508;0,02841
2754,8149;0,0284493
2755,7793;0,0284799
2756,7434;0,0285046
2757,7078;0,0285279
2758,6719;0,0285542
2759,6362;0,0285868
2760,6003;0,0286268
2761,5647;0,0286729
2762,5288;0,028722
2763,4932;0,0287709
2764,4573;0,0288173
2765,4216;0,0288616
2766,3857;0,0289065
2767,3501;0,0289553
2768,3142;0,0290097
2769,2786;0,0290688
2770,2427;0,0291291
2771,2070;0,0291865
2772,1711;0,0292382
2773,1355;0,0292842
2774,0996;0,0293264
2775,0640;0,0293682
2776,0281;0,0294123
2776,9924;0,0294607
2777,9565;0,0295142
2778,9209;0,0295734
2779,8850;0,0296385
2780,8494;0,0297094
2781,8135;0,0297847
2782,7778;0,0298611
2783,7419;0,0299342
2784,7063;0,0299998
2785,6704;0,0300562
2786,6348;0,0301051
2787,5989;0,0301515
2788,5632;0,0302019
2789,5273;0,0302613
2790,4917;0,0303318
2791,4558;0,0304129
2792,4202;0,0305024
2793,3843;0,0305981
2794,3486;0,0306979
2795,3127;0,0308003
2796,2771;0,0309034
2797,2412;0,0310051
2798,2056;0,0311038
2799,1697;0,0311988
2800,1340;0,0312907
2801,0981;0,031381
2802,0625;0,0314725
2803,0266;0,0315677
2803,9910;0,0316686
2804,9551;0,0317751
2805,9194;0,0318853
2806,8835;0,0319959
2807,8479;0,0321043
2808,8120;0,0322106
2809,7764;0,0323181
2810,7405;0,0324315
2811,7048;0,0325551
2812,6689;0,0326907
2813,6333;0,0328371
2814,5974;0,0329911
2815,5618;0,0331489
2816,5259;0,0333067
2817,4902;0,0334623
2818,4543;0,0336154
2819,4187;0,0337681
2820,3828;0,0339248
2821,3472;0,0340898
2822,3113;0,0342659
2823,2756;0,0344532
2824,2397;0,0346499
2825,2041;0,0348547
2826,1682;0,0350685
2827,1326;0,0352937
2828,0967;0,035533
2829,0610;0,0357878
2830,0251;0,0360575
2830,9895;0,0363406
2831,9536;0,0366362
2832,9180;0,0369436
2833,8821;0,0372627
2834,8464;0,0375948
2835,8105;0,0379445
2836,7749;0,0383216
2837,7390;0,0387411
2838,7034;0,0392195
2839,6675;0,039771
2840,6318;0,0404052
2841,5959;0,0411271
2842,5603;0,0419381
2843,5244;0,0428336
2844,4888;0,0437968
2845,4529;0,0447911
2846,4172;0,0457572
2847,3813;0,0466193
2848,3457;0,0473026
2849,3098;0,0477539
2850,2742;0,0479569
2851,2383;0,0479356
2852,2026;0,0477429
2853,1667;0,0474424
2854,1311;0,0470903
2855,0952;0,046725
2856,0596;0,0463678
2857,0237;0,0460291
2857,9880;0,0457178
2858,9521;0,0454452
2859,9165;0,0452238
2860,8806;0,0450627
2861,8450;0,0449634
2862,8091;0,0449202
2863,7734;0,0449245
2864,7375;0,0449695
2865,7019;0,0450516
2866,6660;0,0451667
2867,6304;0,0453062
2868,5945;0,0454548
2869,5588;0,045594
2870,5229;0,0457089
2871,4873;0,045794
2872,4514;0,0458541
2873,4158;0,0459005
2874,3799;0,0459451
2875,3442;0,045995
2876,3083;0,0460527
2877,2727;0,0461181
2878,2368;0,0461917
2879,2012;0,0462754
2880,1653;0,046372
2881,1296;0,0464831
2882,0938;0,0466083
2883,0581;0,0467452
2884,0222;0,0468914
2884,9866;0,047046
2885,9507;0,0472101
2886,9150;0,0473858
2887,8792;0,0475742
2888,8435;0,0477729
2889,8076;0,047976
2890,7720;0,0481757
2891,7361;0,0483664
2892,7004;0,0485471
2893,6646;0,0487225
2894,6289;0,0489006
2895,5930;0,0490893
2896,5574;0,0492922
2897,5215;0,049508
2898,4858;0,0497308
2899,4500;0,0499531
2900,4143;0,0501691
2901,3784;0,0503776
2902,3428;0,0505831
2903,3069;0,0507957
2904,2712;0,0510286
2905,2354;0,0512956
2906,1997;0,0516089
2907,1638;0,0519789
2908,1282;0,052416
2909,0923;0,0529305
2910,0566;0,0535301
2911,0208;0,0542133
2911,9851;0,0549618
2912,9492;0,0557359
2913,9136;0,0564783
2914,8777;0,057125
2915,8420;0,0576212
2916,8062;0,0579349
2917,7705;0,0580625
2918,7346;0,0580248
2919,6990;0,0578554
2920,6631;0,0575875
2921,6274;0,0572452
2922,5916;0,0568414
2923,5559;0,0563826
2924,5200;0,0558754
2925,4844;0,0553313
2926,4485;0,0547668
2927,4128;0,0541993
2928,3770;0,0536422
2929,3413;0,0531015
2930,3054;0,0525753
2931,2698;0,052057
2932,2339;0,0515396
2933,1982;0,0510189
2934,1624;0,0504953
2935,1267;0,0499733
2936,0908;0,0494607
2937,0552;0,0489654
2938,0193;0,0484933
2938,9836;0,0480467
2939,9478;0,0476235
2940,9121;0,0472187
2941,8762;0,0468271
2942,8406;0,0464465
2943,8047;0,0460788
2944,7690;0,0457299
2945,7332;0,0454069
2946,6975;0,0451154
2947,6616;0,0448577
2948,6260;0,0446325
2949,5901;0,0444353
2950,5544;0,0442595
2951,5186;0,0440969
2952,4829;0,0439379
2953,4470;0,0437726
2954,4114;0,0435926
2955,3755;0,0433926
2956,3398;0,0431713
2957,3040;0,0429311
2958,2683;0,0426767
2959,2324;0,0424131
2960,1968;0,0421449
2961,1609;0,0418759
2962,1252;0,0416082
2963,0894;0,0413422
2964,0537;0,0410766
2965,0178;0,0408099
2965,9822;0,0405418
2966,9463;0,0402745
2967,9106;0,0400109
2968,8748;0,0397524
2969,8391;0,0394959
2970,8032;0,0392359
2971,7676;0,0389683
2972,7317;0,0386955
2973,6960;0,0384279
2974,6602;0,0381795
2975,6245;0,0379607
2976,5886;0,0377723
2977,5530;0,0376056
2978,5171;0,0374485
2979,4814;0,0372931
2980,4456;0,0371398
2981,4099;0,0369951
2982,3740;0,0368659
2983,3384;0,0367548
2984,3025;0,0366586
2985,2668;0,036571
2986,2310;0,036487
2987,1953;0,0364046
2988,1594;0,0363246
2989,1238;0,03625
2990,0879;0,0361849
2991,0522;0,0361339
2992,0164;0,0361015
2992,9807;0,0360899
2993,9448;0,0360972
2994,9092;0,0361172
2995,8733;0,0361427
2996,8376;0,0361683
2997,8018;0,0361932
2998,7661;0,0362194
2999,7302;0,036249
3000,6946;0,0362822
3001,6587;0,0363172
3002,6230;0,0363532
3003,5872;0,0363912
3004,5515;0,0364341
3005,5156;0,0364832
3006,4800;0,0365363
3007,4441;0,0365877
3008,4084;0,0366326
3009,3726;0,0366701
3010,3369;0,0367052
3011,3010;0,0367459
3012,2654;0,0367982
3013,2295;0,0368628
3014,1938;0,0369352
3015,1580;0,0370091
3016,1223;0,0370811
3017,0864;0,0371523
3018,0508;0,0372273
3019,0149;0,0373103
3019,9792;0,037402
3020,9434;0,0374992
3021,9077;0,037597
3022,8718;0,0376927
3023,8362;0,0377877
3024,8003;0,037887
3025,7646;0,0379954
3026,7288;0,0381133
3027,6931;0,0382351
3028,6572;0,0383514
3029,6216;0,0384537
3030,5857;0,0385391
3031,5500;0,0386133
3032,5142;0,0386878
3033,4785;0,0387752
3034,4426;0,0388833
3035,4070;0,0390121
3036,3711;0,0391544
3037,3354;0,0392995
3038,2996;0,039437
3039,2639;0,0395614
3040,2280;0,0396737
3041,1924;0,0397816
3042,1565;0,0398958
3043,1208;0,0400251
3044,0850;0,040172
3045,0493;0,040331
3046,0134;0,0404908
3046,9778;0,0406406
3047,9419;0,0407747
3048,9063;0,0408956
3049,8704;0,0410112
3050,8347;0,0411308
3051,7988;0,0412596
3052,7632;0,0413977
3053,7273;0,0415422
3054,6917;0,0416899
3055,6558;0,0418397
3056,6201;0,0419921
3057,5842;0,0421479
3058,5486;0,0423065
3059,5127;0,0424659
3060,4771;0,042623
3061,4412;0,042774
3062,4055;0,042915
3063,3696;0,0430424
3064,3340;0,0431549
3065,2981;0,043256
3066,2625;0,0433542
3067,2266;0,0434613
3068,1909;0,0435873
3069,1550;0,0437362
3070,1194;0,0439037
3071,0835;0,0440791
3072,0479;0,0442496
3073,0120;0,0444046
3073,9763;0,0445384
3074,9404;0,0446513
3075,9048;0,0447487
3076,8689;0,04484
3077,8333;0,0449362
3078,7974;0,0450469
3079,7617;0,0451764
3080,7258;0,0453221
3081,6902;0,0454754
3082,6543;0,0456258
3083,6187;0,0457657
3084,5828;0,045893
3085,5471;0,0460113
3086,5112;0,0461282
3087,4756;0,0462516
3088,4397;0,0463873
3089,4041;0,0465368
3090,3682;0,0466966
3091,3325;0,0468597
3092,2966;0,0470179
3093,2610;0,0471651
3094,2251;0,0472999
3095,1895;0,0474253
3096,1536;0,0475465
3097,1179;0,0476683
3098,0820;0,0477931
3099,0464;0,0479222
3100,0105;0,0480568
3100,9749;0,0481994
3101,9390;0,0483514
3102,9033;0,048511
3103,8674;0,0486721
3104,8318;0,048827
3105,7959;0,0489714
3106,7603;0,0491074
3107,7244;0,0492437
3108,6887;0,049391
3109,6528;0,0495548
3110,6172;0,0497319
3111,5813;0,0499109
3112,5457;0,0500795
3113,5098;0,0502313
3114,4741;0,0503695
3115,4382;0,0505055
3116,4026;0,050651
3117,3667;0,0508116
3118,3311;0,0509834
3119,2952;0,0511561
3120,2595;0,0513201
3121,2236;0,0514723
3122,1880;0,0516177
3123,1521;0,051766
3124,1165;0,0519266
3125,0806;0,0521035
3126,0449;0,0522943
3127,0090;0,0524921
3127,9734;0,0526891
3128,9375;0,0528792
3129,9019;0,0530602
3130,8660;0,053234
3131,8303;0,0534047
3132,7944;0,0535772
3133,7588;0,0537544
3134,7229;0,053936
3135,6873;0,054119
3136,6514;0,0543004
3137,6157;0,0544793
3138,5798;0,0546574
3139,5442;0,0548383
3140,5083;0,0550246
3141,4727;0,0552166
3142,4368;0,0554126
3143,4011;0,0556106
3144,3652;0,05581
3145,3296;0,0560105
3146,2937;0,0562114
3147,2581;0,0564095
3148,2222;0,0566009
3149,1865;0,0567832
3150,1506;0,0569588
3151,1150;0,0571344
3152,0791;0,0573178
3153,0435;0,0575134
3154,0076;0,0577199
3154,9719;0,0579305
3155,9360;0,0581377
3156,9004;0,0583365
3157,8645;0,0585271
3158,8289;0,0587139
3159,7930;0,0589027
3160,7573;0,0590986
3161,7214;0,0593038
3162,6858;0,059517
3163,6499;0,0597334
3164,6143;0,0599463
3165,5784;0,0601504
3166,5427;0,0603443
3167,5068;0,0605321
3168,4712;0,0607213
3169,4353;0,0609004
3170,3997;0,0611097
3171,3638;0,0613274
3172,3281;0,0615471
3173,2922;0,0617623
3174,2566;0,0619692
3175,2207;0,0621669
3176,1851;0,0623564
3177,1492;0,0625397
3178,1135;0,0627202
3179,0776;0,0629024
3180,0420;0,0630896
3181,0061;0,0632821
3181,9705;0,0634753
3182,9346;0,0636618
3183,8989;0,063836
3184,8630;0,0639981
3185,8274;0,064155
3186,7915;0,0643165
3187,7559;0,0644899
3188,7200;0,064677
3189,6843;0,0648741
3190,6484;0,0650757
3191,6128;0,0652773
3192,5769;0,065476
3193,5413;0,0656699
3194,5054;0,0658574
3195,4697;0,0660371
3196,4338;0,0662097
3197,3982;0,0663783
3198,3623;0,0665467
3199,3267;0,0667183
3200,2908;0,0668946
3201,2551;0,0670751
3202,2192;0,0672587
3203,1836;0,0674429
3204,1477;0,0676244
3205,1121;0,0677991
3206,0762;0,0679639
3207,0405;0,0681199
3208,0046;0,0682732
3208,9690;0,0684328
3209,9331;0,0686054
3210,8975;0,0687903
3211,8616;0,0689794
3212,8259;0,069161
3213,7900;0,0693263
3214,7544;0,0694739
3215,7185;0,0696093
3216,6829;0,0697405
3217,6470;0,069873
3218,6113;0,070008
3219,5754;0,0701444
3220,5398;0,0702817
3221,5039;0,0704221
3222,4683;0,0705697
3223,4324;0,0707286
3224,3967;0,0709015
3225,3608;0,0710888
3226,3252;0,0712885
3227,2893;0,071496
3228,2537;0,0717032
3229,2178;0,0718987
3230,1821;0,0720712
3231,1462;0,072214
3232,1106;0,0723297
3233,0747;0,0724312
3234,0391;0,0725378
3235,0032;0,0726674
3235,9675;0,072829
3236,9316;0,0730187
3237,8960;0,0732222
3238,8601;0,073422
3239,8245;0,0736055
3240,7886;0,0737698
3241,7529;0,073921
3242,7170;0,0740688
3243,6814;0,0742205
3244,6455;0,0743779
3245,6099;0,0745378
3246,5740;0,0746975
3247,5383;0,0748578
3248,5024;0,0750238
3249,4668;0,0752027
3250,4309;0,0753989
3251,3953;0,0756123
3252,3594;0,0758377
3253,3237;0,0760675
3254,2878;0,0762941
3255,2522;0,076512
3256,2163;0,0767187
3257,1807;0,0769145
3258,1448;0,0771016
3259,1091;0,0772828
3260,0732;0,0774597
3261,0376;0,077632
3262,0017;0,0777987
3262,9661;0,0779602
3263,9302;0,0781205
3264,8945;0,0782855
3265,8586;0,0784593
3266,8230;0,0786402
3267,7871;0,078819
3268,7515;0,0789823
3269,7156;0,0791188
3270,6799;0,0792251
3271,6440;0,0793074
3272,6084;0,0793777
3273,5725;0,0794479
3274,5369;0,0795245
3275,5010;0,0796069
3276,4653;0,0796897
3277,4294;0,079767
3278,3938;0,0798354
3279,3579;0,0798945
3280,3223;0,0799455
3281,2864;0,079989
3282,2507;0,0800251
3283,2148;0,0800532
3284,1792;0,0800746
3285,1433;0,080092
3286,1077;0,080109
3287,0718;0,0801275
3288,0361;0,0801462
3289,0002;0,0801615
3289,9646;0,0801694
3290,9287;0,0801687
3291,8931;0,080161
3292,8572;0,0801495
3293,8215;0,0801359
3294,7856;0,0801197
3295,7500;0,0801002
3296,7141;0,080079
3297,6785;0,0800607
3298,6426;0,0800514
3299,6069;0,0800535
3300,5710;0,0800627
3301,5354;0,0800683
3302,4995;0,0800581
3303,4639;0,080024
3304,4280;0,0799669
3305,3923;0,0798965
3306,3564;0,0798277
3307,3208;0,0797746
3308,2849;0,0797448
3309,2493;0,0797376
3310,2134;0,0797451
3311,1777;0,0797571
3312,1418;0,0797661
3313,1062;0,0797711
3314,0703;0,0797783
3315,0347;0,0797972
3315,9988;0,0798354
3316,9631;0,0798939
3317,9272;0,0799667
3318,8916;0,0800428
3319,8557;0,0801122
3320,8201;0,0801697
3321,7842;0,0802164
3322,7485;0,0802571
3323,7126;0,0802974
3324,6770;0,0803414
3325,6411;0,0803913
3326,6055;0,0804482
3327,5696;0,0805128
3328,5339;0,0805842
3329,4980;0,0806583
3330,4624;0,0807273
3331,4265;0,0807816
3332,3909;0,0808126
3333,3550;0,0808157
3334,3193;0,0807908
3335,2834;0,0807415
3336,2478;0,080673
3337,2119;0,0805905
3338,1763;0,080498
3339,1404;0,0803982
3340,1047;0,0802923
3341,0688;0,0801799
3342,0332;0,0800594
3342,9973;0,0799292
3343,9617;0,079788
3344,9258;0,0796364
3345,8901;0,0794763
3346,8542;0,0793103
3347,8186;0,0791408
3348,7827;0,0789695
3349,7471;0,0787963
3350,7112;0,0786201
3351,6755;0,0784395
3352,6396;0,0782542
3353,6040;0,0780659
3354,5681;0,0778785
3355,5325;0,077697
3356,4966;0,0775246
3357,4609;0,0773614
3358,4250;0,077204
3359,3894;0,0770473
3360,3535;0,076887
3361,3179;0,0767216
3362,2820;0,0765523
3363,2463;0,0763818
3364,2104;0,0762134
3365,1748;0,0760497
3366,1389;0,0758924
3367,1033;0,0757413
3368,0674;0,075594
3369,0317;0,075445
3369,9958;0,0752873
3370,9602;0,0751155
3371,9243;0,0749286
3372,8887;0,0747317
3373,8528;0,0745348
3374,8171;0,0743481
3375,7813;0,0741774
3376,7456;0,0740203
3377,7097;0,0738678
3378,6741;0,0737082
3379,6382;0,0735334
3380,6025;0,0733422
3381,5667;0,0731416
3382,5310;0,0729434
3383,4951;0,0727598
3384,4595;0,0725993
3385,4236;0,0724636
3386,3879;0,0723468
3387,3521;0,0722368
3388,3164;0,0721191
3389,2805;0,0719811
3390,2449;0,0718164
3391,2090;0,0716279
3392,1733;0,0714272
3393,1375;0,0712301
3394,1018;0,0710499
3395,0659;0,070892
3396,0303;0,0707526
3396,9944;0,0706216
3397,9587;0,0704871
3398,9229;0,07034
3399,8872;0,0701771
3400,8513;0,0700005
3401,8157;0,0698162
3402,7798;0,0696303
3403,7441;0,0694467
3404,7083;0,0692654
3405,6726;0,0690838
3406,6367;0,0688987
3407,6011;0,0687088
3408,5652;0,0685149
3409,5295;0,0683185
3410,4937;0,0681208
3411,4580;0,0679225
3412,4221;0,0677247
3413,3865;0,0675292
3414,3506;0,0673362
3415,3149;0,0671421
3416,2791;0,0669385
3417,2434;0,0667156
3418,2075;0,0664681
3419,1719;0,0662007
3420,1360;0,0659273
3421,1003;0,0656649
3422,0645;0,0654237
3423,0288;0,0652026
3423,9929;0,0649913
3424,9573;0,0647781
3425,9214;0,0645563
3426,8857;0,0643265
3427,8499;0,0640937
3428,8142;0,0638632
3429,7783;0,0636369
3430,7427;0,0634132
3431,7068;0,063189
3432,6711;0,0629629
3433,6353;0,0627363
3434,5996;0,0625119
3435,5637;0,0622909
3436,5281;0,0620717
3437,4922;0,0618501
3438,4565;0,0616225
3439,4207;0,0613887
3440,3850;0,0611522
3441,3491;0,0609159
3442,3135;0,0606777
3443,2776;0,0604296
3444,2419;0,0601626
3445,2061;0,0598745
3446,1704;0,0595757
3447,1345;0,0592858
3448,0989;0,0590219
3449,0630;0,0587873
3450,0273;0,0585703
3450,9915;0,0583525
3451,9558;0,0581211
3452,9199;0,0578757
3453,8843;0,0576275
3454,8484;0,0573901
3455,8127;0,0571703
3456,7769;0,0569624
3457,7412;0,0567517
3458,7053;0,0565223
3459,6697;0,0562659
3460,6338;0,0559858
3461,5981;0,0556951
3462,5623;0,0554093
3463,5266;0,0551378
3464,4907;0,0548802
3465,4551;0,0546287
3466,4192;0,0543752
3467,3835;0,0541173
3468,3477;0,0538594
3469,3120;0,0536072
3470,2761;0,0533607
3471,2405;0,0531136
3472,2046;0,0528581
3473,1689;0,0525948
3474,1331;0,0523355
3475,0974;0,0520977
3476,0615;0,0518907
3477,0259;0,0517059
3477,9900;0,051519
3478,9543;0,0513028
3479,9185;0,0510435
3480,8828;0,0507499
3481,8469;0,0504478
3482,8113;0,0501621
3483,7754;0,0499021
3484,7397;0,0496584
3485,7039;0,0494146
3486,6682;0,049161
3487,6323;0,0489022
3488,5967;0,0486533
3489,5608;0,0484274
3490,5251;0,0482249
3491,4893;0,0480311
3492,4536;0,0478257
3493,4177;0,0475955
3494,3821;0,0473449
3495,3462;0,0470945
3496,3105;0,0468688
3497,2747;0,0466766
3498,2390;0,0465019
3499,2031;0,0463094
3500,1675;0,046065
3501,1316;0,0457587
3502,0959;0,0454172
3503,0601;0,0450922
3504,0244;0,044827
3504,9885;0,0446278
3505,9529;0,0444621
3506,9170;0,0442834
3507,8813;0,0440597
3508,8455;0,0437912
3509,8098;0,0435064
3510,7739;0,0432408
3511,7383;0,0430124
3512,7024;0,0428145
3513,6667;0,0426274
3514,6309;0,0424363
3515,5952;0,042241
3516,5593;0,0420521
3517,5237;0,0418782
3518,4878;0,0417167
3519,4521;0,0415525
3520,4163;0,041367
3521,3806;0,0411489
3522,3447;0,0408989
3523,3091;0,0406255
3524,2732;0,0403366
3525,2375;0,0400345
3526,2017;0,0397214
3527,1660;0,0394086
3528,1301;0,0391199
3529,0945;0,0388818
3530,0586;0,0387049
3531,0229;0,038574
3531,9871;0,0384522
3532,9514;0,038299
3533,9155;0,0380892
3534,8799;0,0378257
3535,8440;0,0375402
3536,8083;0,0372783
3537,7725;0,0370765
3538,7368;0,0369446
3539,7009;0,0368619
3540,6653;0,0367859
3541,6294;0,0366651
3542,5938;0,0364556
3543,5579;0,0361414
3544,5222;0,0357521
3545,4863;0,0353587
3546,4507;0,0350346
3547,4148;0,0348104
3548,3792;0,0346593
3549,3433;0,0345212
3550,3076;0,0343404
3551,2717;0,034095
3552,2361;0,0338087
3553,2002;0,0335337
3554,1646;0,0333133
3555,1287;0,0331541
3556,0930;0,033028
3557,0571;0,0328981
3558,0215;0,0327463
3558,9856;0,0325872
3559,9500;0,0324574
3560,9141;0,0323841
3561,8784;0,0323539
3562,8425;0,0323032
3563,8069;0,0321341
3564,7710;0,0317568
3565,7354;0,0311633
3566,6995;0,0304834
3567,6638;0,0299226
3568,6279;0,0296029
3569,5923;0,0294951
3570,5564;0,0294891
3571,5208;0,0294801
3572,4849;0,0294075
3573,4492;0,0292599
3574,4133;0,029062
3575,3777;0,0288488
3576,3418;0,028641
3577,3062;0,0284407
3578,2703;0,0282485
3579,2346;0,0280824
3580,1987;0,0279754
3581,1631;0,02795
3582,1272;0,0279888
3583,0916;0,0280239
3584,0557;0,0279518
3585,0200;0,0276764
3585,9841;0,0271822
3586,9485;0,0265955
3587,9126;0,0261289
3588,8770;0,025913
3589,8411;0,0259118
3590,8054;0,0259903
3591,7695;0,0260141
3592,7339;0,0259049
3593,6980;0,0256642
3594,6624;0,0253638
3595,6265;0,0250921
3596,5908;0,024889
3597,5549;0,0247296
3598,5193;0,0245665
3599,4834;0,0243815
3600,4478;0,0242042
3601,4119;0,0240824
3602,3762;0,0240342
3603,3403;0,0240268
3604,3047;0,0239943
3605,2688;0,0238741
3606,2332;0,0236421
3607,1973;0,0233313
3608,1616;0,0230144
3609,1257;0,0227528
3610,0901;0,0225603
3611,0542;0,0224157
3612,0186;0,0222978
3612,9827;0,0222031
3613,9470;0,0221314
3614,9111;0,0220604
3615,8755;0,0219371
3616,8396;0,0216995
3617,8040;0,0213274
3618,7681;0,0208915
3619,7324;0,0205417
3620,6965;0,0204095
3621,6609;0,0205201
3622,6250;0,020799
3623,5894;0,0211287
3624,5535;0,0213803
3625,5178;0,0214173
3626,4819;0,0211169
3627,4463;0,0204601
3628,4104;0,0196453
3629,3748;0,018999
3630,3389;0,0186831
3631,3032;0,0186093
3632,2673;0,0186094
3633,2317;0,0185689
3634,1958;0,0184551
3635,1602;0,018294
3636,1243;0,0181324
3637,0886;0,0180017
3638,0527;0,0179056
3639,0171;0,0178353
3639,9812;0,0177941
3640,9456;0,0178049
3641,9097;0,0178957
3642,8740;0,0180726
3643,8381;0,0182998
3644,8025;0,0184901
3645,7666;0,0185017
3646,7310;0,0181632
3647,6951;0,0173995
3648,6594;0,0164391
3649,6235;0,0157349
3650,5879;0,0155081
3651,5520;0,0156174
3652,5164;0,0158171
3653,4805;0,0159252
3654,4448;0,0158535
3655,4089;0,015614
3656,3733;0,0153113
3657,3374;0,0150763
3658,3018;0,0149711
3659,2659;0,0149641
3660,2302;0,0149889
3661,1943;0,0150112
3662,1587;0,0150506
3663,1228;0,0151543
3664,0872;0,0153447
3665,0513;0,0155859
3666,0156;0,0157884
3666,9797;0,0158491
3667,9441;0,0157173
3668,9082;0,0154627
3669,8726;0,0152522
3670,8367;0,015197
3671,8010;0,0152445
3672,7651;0,0152282
3673,7295;0,0149879
3674,6936;0,0144944
3675,6580;0,0139216
3676,6221;0,0135248
3677,5864;0,013409
3678,5505;0,0134967
3679,5149;0,0136698
3680,4790;0,0138639
3681,4434;0,0140746
3682,4075;0,0143236
3683,3718;0,0146176
3684,3359;0,0149215
3685,3003;0,0151557
3686,2644;0,0152138
3687,2288;0,01501
3688,1929;0,0145658
3689,1572;0,014064
3690,1213;0,0137353
3691,0857;0,0136645
3692,0498;0,0137774
3693,0142;0,0139639
3693,9783;0,0141557
3694,9426;0,0143309
3695,9067;0,0144886
3696,8711;0,0146228
3697,8352;0,0147082
3698,7996;0,0147068
3699,7637;0,0145947
3700,7280;0,0143973
3701,6921;0,0142011
3702,6565;0,0141118
3703,6206;0,0141887
3704,5850;0,014416
3705,5491;0,0147232
3706,5134;0,0150116
3707,4775;0,0151663
3708,4419;0,0150708
3709,4060;0,0146635
3710,3704;0,0140341
3711,3345;0,0134372
3712,2988;0,0131115
3713,2629;0,0131079
3714,2273;0,013327
3715,1914;0,0136401
3716,1558;0,0139512
3717,1199;0,0142076
3718,0842;0,0143943
3719,0483;0,0145238
3720,0127;0,0146169
3720,9768;0,0146794
3721,9412;0,0146944
3722,9053;0,0146425
3723,8696;0,014537
3724,8337;0,0144389
3725,7981;0,0144266
3726,7622;0,0145458
3727,7266;0,0147833
3728,6907;0,0150829
3729,6550;0,0153722
3730,6191;0,0155762
3731,5835;0,0156185
3732,5476;0,0154277
3733,5120;0,0149802
3734,4761;0,0143746
3735,4404;0,013836
3736,4045;0,0135726
3737,3689;0,0136388
3738,3330;0,0139531
3739,2974;0,0143828
3740,2615;0,0147888
3741,2258;0,0150354
3742,1899;0,015018
3743,1543;0,0147448
3744,1184;0,0144069
3745,0828;0,0142589
3746,0469;0,0143776
3747,0112;0,0146165
3747,9753;0,0147396
3748,9397;0,0145499
3749,9038;0,01402
3750,8682;0,0133887
3751,8323;0,0129987
3752,7966;0,0129755
3753,7607;0,0131956
3754,7251;0,0134701
3755,6892;0,0136553
3756,6536;0,0136796
3757,6177;0,0135564
3758,5820;0,0133811
3759,5461;0,0132727
3760,5105;0,013292
3761,4746;0,0134182
3762,4390;0,0135878
3763,4031;0,0137393
3764,3674;0,0138338
3765,3315;0,0138552
3766,2959;0,0138014
3767,2600;0,0136762
3768,2244;0,0134927
3769,1885;0,0132869
3770,1528;0,0131213
3771,1169;0,0130607
3772,0813;0,0131333
3773,0454;0,0133143
3774,0098;0,0135391
3774,9739;0,0137288
3775,9382;0,0138147
3776,9023;0,0137659
3777,8667;0,0136134
3778,8308;0,0134428
3779,7952;0,0133394
3780,7593;0,0133297
3781,7236;0,0133786
3782,6877;0,0134277
3783,6521;0,0134337
3784,6162;0,0133865
3785,5806;0,0133076
3786,5447;0,0132358
3787,5090;0,0132089
3788,4731;0,0132503
3789,4375;0,0133621
3790,4016;0,0135254
3791,3660;0,0137055
3792,3301;0,0138664
3793,2944;0,0139884
3794,2585;0,0140807
3795,2229;0,0141747
3796,1870;0,0142922
3797,1514;0,0144127
3798,1155;0,0144695
3799,0798;0,0143901
3800,0439;0,0141653
3801,0083;0,0138885
3801,9724;0,0136937
3802,9368;0,0136314
3803,9009;0,0136308
3804,8652;0,0135754
3805,8293;0,0134035
3806,7937;0,0131708
3807,7578;0,0130254
3808,7222;0,0130898
3809,6863;0,013368
3810,6506;0,0137649
3811,6147;0,0141561
3812,5791;0,0144364
3813,5432;0,0145531
3814,5076;0,0145345
3815,4717;0,0144767
3816,4360;0,0144581
3817,4001;0,0144595
3818,3645;0,0143835
3819,3286;0,0141511
3820,2930;0,0137929
3821,2571;0,0134502
3822,2214;0,0132597
3823,1855;0,0132472
3824,1499;0,0133476
3825,1140;0,0134822
3826,0784;0,0136047
3827,0425;0,0137077
3828,0068;0,013808
3828,9709;0,0139259
3829,9353;0,0140713
3830,8994;0,0142422
3831,8638;0,0144275
3832,8279;0,0146063
3833,7922;0,0147426
3834,7563;0,0147838
3835,7207;0,0146783
3836,6848;0,0144115
3837,6492;0,0140403
3838,6133;0,013678
3839,5776;0,0134187
3840,5417;0,0132806
3841,5061;0,0132249
3842,4702;0,0132137
3843,4346;0,0132467
3844,3987;0,0133587
3845,3630;0,0135906
3846,3271;0,0139586
3847,2915;0,0144405
3848,2556;0,0149742
3849,2200;0,0154514
3850,1841;0,0157031
3851,1484;0,0155162
3852,1125;0,0147875
3853,0769;0,013789
3854,0410;0,0130587
3855,0054;0,0128491
3855,9695;0,0130277
3856,9338;0,0133835
3857,8979;0,0137733
3858,8623;0,0141099
3859,8264;0,0143329
3860,7908;0,0144074
3861,7549;0,0143476
3862,7192;0,014232
3863,6833;0,0141682
3864,6477;0,0142178
3865,6118;0,0143582
3866,5762;0,014509
3867,5403;0,0145804
3868,5046;0,0145118
3869,4688;0,0142984
3870,4331;0,014
3871,3972;0,0137151
3872,3616;0,0135314
3873,3257;0,0134905
3874,2900;0,0135842
3875,2542;0,013769
3876,2185;0,0139838
3877,1826;0,0141663
3878,1470;0,0142721
3879,1111;0,0142928
3880,0754;0,014258
3881,0396;0,0142075
3882,0039;0,0141557
3882,9680;0,0140893
3883,9324;0,0140014
3884,8965;0,0139209
3885,8608;0,0138972
3886,8250;0,0139507
3887,7893;0,0140419
3888,7534;0,014091
3889,7178;0,0140306
3890,6819;0,0138652
3891,6462;0,0136926
3892,6104;0,0136423
3893,5747;0,0137729
3894,5388;0,0140431
3895,5032;0,0143621
3896,4673;0,014642
3897,4316;0,0148235
3898,3958;0,014883
3899,3601;0,0148263
3900,3242;0,014667
3901,2886;0,014412
3902,2527;0,0140792
3903,2170;0,0137282
3904,1812;0,0134495
3905,1455;0,0133091
3906,1096;0,0133091
3907,0740;0,0134005
3908,0381;0,0135228
3909,0024;0,0136345
3909,9666;0,0137249
3910,9309;0,0138082
3911,8950;0,0139043
3912,8594;0,0140171
3913,8235;0,0141232
3914,7878;0,014182
3915,7520;0,0141636
3916,7163;0,0140782
3917,6804;0,0139786
3918,6448;0,013925
3919,6089;0,01394
3920,5732;0,0139967
3921,5374;0,0140428
3922,5017;0,0140365
3923,4658;0,0139751
3924,4302;0,0138984
3925,3943;0,0138598
3926,3586;0,0138857
3927,3228;0,0139584
3928,2871;0,0140311
3929,2512;0,0140551
3930,2156;0,0140073
3931,1797;0,0139033
3932,1440;0,0137868
3933,1082;0,0137012
3934,0725;0,0136685
3935,0366;0,0136898
3936,0010;0,0137556
3936,9651;0,0138518
3937,9294;0,0139582
3938,8936;0,0140477
3939,8579;0,0140945
3940,8220;0,0140885
3941,7864;0,014047
3942,7505;0,0140077
3943,7148;0,0140028
3944,6790;0,014036
3945,6433;0,0140797
3946,6074;0,0140934
3947,5718;0,0140498
3948,5359;0,0139534
3949,5002;0,0138397
3950,4644;0,0137523
3951,4287;0,013717
3952,3928;0,0137319
3953,3572;0,0137773
3954,3213;0,0138304
3955,2856;0,0138756
3956,2498;0,0139055
3957,2141;0,0139186
3958,1782;0,0139152
3959,1426;0,0138978
3960,1067;0,0138731
3961,0710;0,0138526
3962,0352;0,0138483
3962,9995;0,0138656
3963,9636;0,0138996
3964,9280;0,0139377
3965,8921;0,0139665
3966,8564;0,0139792
3967,8206;0,0139782
3968,7849;0,0139717
3969,7490;0,0139672
3970,7134;0,0139655
3971,6775;0,0139605
3972,6418;0,0139454
3973,6060;0,0139194
3974,5703;0,0138907
3975,5344;0,0138725
3976,4988;0,0138748
3977,4629;0,0138974
3978,4272;0,0139297
3979,3914;0,0139569
3980,3557;0,0139685
3981,3198;0,0139643
3982,2842;0,0139529
3983,2483;0,0139461
3984,2126;0,0139509
3985,1768;0,0139664
3986,1411;0,0139863
3987,1052;0,0140039
3988,0696;0,0140171
3989,0337;0,0140279
3989,9980;0,0140389
3990,9622;0,0140496
3991,9265;0,0140549
3992,8906;0,014049
3993,8550;0,0140301
3994,8191;0,0140032
3995,7834;0,0139781
3996,7476;0,0139635
3997,7119;0,0139626
3998,6760;0,0139717
3999,6404;0,0139842
4000,6045;0,0139333

##### Extended Information
[Comments]
Sample name
Comment
Username
Division
Organization;UNIVERSIDAD INDUSTRIAL DE SANTANDER

[Detailed Information]
Creation date;18/03/2025 11:52 a.m.

Data array type;Linear data array
Horizontal axis;Wavenumber [cm-1]
Vertical axis;Abs
Start;399,193 cm-1
End;4000,6 cm-1
Data interval;0,964233 cm-1
Data points;3736    

[Measurement Information]
Model name;FT/IR-4X1typeA
Serial No.;A035162111

Accessory;ATR PRO 4X
Accessory S/N;A021162126
Incident angle;45 deg

Measurement date;18/03/2025 11:52 a.m.

Light source;Standard
Detector;TGS
Accumulation;40
Resolution;4 cm-1
Zero filling;On
Apodization;Cosine
Gain;Auto (8)
Aperture;Auto (7 mm)
Scan speed;Auto (2 mm/sec)
Filter;Auto (12800 Hz)

