TITLE;
DATA TYPE;INFRARED SPECTRUM
ORIGIN;JASCO
OWNER;
DATE;25/03/18
TIME;13:30:34
SPECTROMETER/DATA SYSTEM;
LOCALE;9226
RESOLUTION;
DELTAX;0,964233
XUNITS;1/CM
YUNITS;ABSORBANCE
FIRSTX;  399,1927
LASTX; 4000,6047
NPOINTS;    3736
FIRSTY;     0,15351
MAXY;     0,19966
MINY;     0,01353
XYDATA
399,1927;0,153508
400,1569;0,15312
401,1211;0,152412
402,0854;0,151616
403,0496;0,150848
404,0138;0,150218
404,9781;0,149902
405,9423;0,150113
406,9065;0,150985
407,8708;0,152448
408,8350;0,154199
409,7992;0,155799
410,7635;0,156853
411,7277;0,157191
412,6919;0,156943
413,6562;0,156452
414,6204;0,15611
415,5846;0,156265
416,5489;0,157207
417,5131;0,159058
418,4773;0,161494
419,4416;0,163674
420,4058;0,164863
421,3700;0,165026
422,3343;0,164585
423,2985;0,163972
424,2627;0,163474
425,2270;0,163231
426,1912;0,163269
427,1554;0,16355
428,1197;0,164028
429,0839;0,164686
430,0481;0,165518
431,0124;0,166478
431,9766;0,167451
432,9408;0,168274
433,9051;0,168802
434,8693;0,168984
435,8335;0,168896
436,7978;0,168695
437,7620;0,168528
438,7262;0,168452
439,6905;0,168417
440,6547;0,168316
441,6189;0,168054
442,5832;0,167624
443,5474;0,167136
444,5116;0,166752
445,4759;0,166569
446,4401;0,166518
447,4043;0,166391
448,3686;0,165941
449,3328;0,165033
450,2970;0,163746
451,2613;0,162372
452,2255;0,161278
453,1897;0,160709
454,1540;0,160681
455,1182;0,161002
456,0824;0,161404
457,0467;0,161682
458,0109;0,161774
458,9751;0,161719
459,9394;0,161532
460,9036;0,161154
461,8678;0,160525
462,8321;0,159687
463,7963;0,158821
464,7605;0,158182
465,7248;0,157943
466,6890;0,158069
467,6532;0,158332
468,6175;0,158479
469,5817;0,158403
470,5459;0,158224
471,5102;0,15819
472,4744;0,158481
473,4386;0,159039
474,4029;0,159602
475,3671;0,15992
476,3313;0,159921
477,2956;0,159732
478,2598;0,159576
479,2240;0,159637
480,1883;0,159973
481,1525;0,160497
482,1167;0,161047
483,0810;0,161479
484,0452;0,16174
485,0094;0,161887
485,9737;0,162044
486,9379;0,162317
487,9021;0,162749
488,8664;0,163302
489,8306;0,163892
490,7948;0,164416
491,7591;0,164802
492,7233;0,165023
493,6875;0,165102
494,6518;0,165087
495,6160;0,165027
496,5802;0,164974
497,5445;0,164984
498,5087;0,16511
499,4729;0,165393
500,4372;0,165825
501,4014;0,166343
502,3656;0,166845
503,3299;0,167238
504,2941;0,167488
505,2583;0,167621
506,2226;0,167706
507,1868;0,16782
508,1510;0,168034
509,1153;0,168398
510,0795;0,168926
511,0437;0,169591
512,0080;0,170335
512,9722;0,171084
513,9365;0,171775
514,9007;0,172373
515,8649;0,172864
516,8292;0,173238
517,7934;0,173476
518,7576;0,173554
519,7219;0,17347
520,6861;0,173255
521,6503;0,17296
522,6146;0,172634
523,5788;0,172315
524,5430;0,172033
525,5073;0,171813
526,4715;0,171674
527,4357;0,171606
528,4000;0,171561
529,3642;0,171464
530,3284;0,171241
531,2927;0,170858
532,2569;0,170344
533,2211;0,16979
534,1854;0,169311
535,1496;0,168999
536,1138;0,168887
537,0781;0,168942
538,0423;0,169091
539,0065;0,16926
539,9708;0,169401
540,9350;0,16951
541,8992;0,16962
542,8635;0,169783
543,8277;0,170044
544,7919;0,17042
545,7562;0,170896
546,7204;0,171434
547,6846;0,171993
548,6489;0,172549
549,6131;0,1731
550,5773;0,17366
551,5416;0,174244
552,5058;0,174864
553,4700;0,175516
554,4343;0,176177
555,3985;0,176797
556,3627;0,17729
557,3270;0,177551
558,2912;0,177471
559,2554;0,176981
560,2197;0,176077
561,1839;0,174833
562,1481;0,173385
563,1124;0,171884
564,0766;0,170462
565,0408;0,169195
566,0051;0,168109
566,9693;0,167195
567,9335;0,166432
568,8978;0,165806
569,8620;0,165304
570,8262;0,164913
571,7905;0,164611
572,7547;0,164373
573,7189;0,164168
574,6832;0,163975
575,6474;0,16378
576,6116;0,163586
577,5759;0,163404
578,5401;0,163248
579,5043;0,163121
580,4686;0,163015
581,4328;0,16291
582,3970;0,162794
583,3613;0,16267
584,3255;0,162565
585,2897;0,162509
586,2540;0,162521
587,2182;0,162583
588,1824;0,162652
589,1467;0,162673
590,1109;0,162613
591,0751;0,162475
592,0394;0,162293
593,0036;0,162107
593,9678;0,161932
594,9321;0,161748
595,8963;0,161509
596,8605;0,161176
597,8248;0,160736
598,7890;0,160214
599,7532;0,159663
600,7175;0,159143
601,6817;0,158698
602,6459;0,158339
603,6102;0,158051
604,5744;0,157803
605,5386;0,157557
606,5029;0,157275
607,4671;0,15693
608,4313;0,156505
609,3956;0,155997
610,3598;0,155423
611,3240;0,154809
612,2883;0,154187
613,2525;0,153573
614,2167;0,152961
615,1810;0,152322
616,1452;0,15161
617,1094;0,150785
618,0737;0,149835
619,0379;0,148779
620,0021;0,147653
620,9664;0,146495
621,9306;0,14533
622,8948;0,144182
623,8591;0,143082
624,8233;0,142071
625,7875;0,141185
626,7518;0,140438
627,7160;0,139807
628,6802;0,139235
629,6445;0,138653
630,6087;0,138009
631,5729;0,137289
632,5372;0,13652
633,5014;0,135756
634,4656;0,13505
635,4299;0,134426
636,3941;0,133869
637,3583;0,133343
638,3226;0,132815
639,2868;0,132277
640,2510;0,131748
641,2153;0,131258
642,1795;0,130823
643,1437;0,130435
644,1080;0,130063
645,0722;0,129672
646,0364;0,129248
647,0007;0,128801
647,9649;0,128372
648,9291;0,128012
649,8934;0,127763
650,8576;0,127646
651,8218;0,127657
652,7861;0,12778
653,7503;0,127995
654,7145;0,128284
655,6788;0,128632
656,6430;0,129013
657,6072;0,129393
658,5715;0,129722
659,5357;0,129944
660,4999;0,130019
661,4642;0,129956
662,4284;0,12982
663,3926;0,129693
664,3569;0,129633
665,3211;0,129633
666,2853;0,129574
667,2496;0,129183
668,2138;0,128157
669,1780;0,126555
670,1423;0,124824
671,1065;0,123267
672,0707;0,121886
673,0350;0,120573
673,9992;0,119243
674,9634;0,117866
675,9277;0,116458
676,8919;0,115048
677,8561;0,113653
678,8204;0,112291
679,7846;0,111
680,7488;0,109846
681,7131;0,108881
682,6773;0,108114
683,6415;0,107495
684,6058;0,106952
685,5700;0,106428
686,5342;0,105911
687,4985;0,105417
688,4627;0,10498
689,4269;0,104622
690,3912;0,104343
691,3554;0,104121
692,3196;0,103921
693,2839;0,103705
694,2481;0,103453
695,2123;0,103164
696,1766;0,102853
697,1408;0,102538
698,1050;0,102226
699,0693;0,101906
700,0335;0,101562
700,9977;0,101181
701,9620;0,10076
702,9262;0,100304
703,8904;0,0998207
704,8547;0,0993175
705,8189;0,0988046
706,7831;0,0982956
707,7474;0,0978042
708,7116;0,0973345
709,6758;0,0968736
710,6401;0,0963914
711,6043;0,0958524
712,5685;0,0952348
713,5328;0,0945453
714,4970;0,0938193
715,4612;0,0931206
716,4255;0,0924377
717,3897;0,0917889
718,3539;0,0911409
719,3182;0,0904493
720,2824;0,0896869
721,2466;0,0888597
722,2109;0,0879986
723,1751;0,0871338
724,1393;0,0862757
725,1036;0,085417
726,0678;0,0845501
727,0320;0,0836865
727,9963;0,0828605
728,9605;0,0821136
729,9247;0,0814707
730,8890;0,0809239
731,8532;0,0804356
732,8174;0,0799578
733,7817;0,0794548
734,7459;0,0789172
735,7101;0,0783618
736,6744;0,0778192
737,6386;0,0773182
738,6028;0,0768731
739,5671;0,0764794
740,5313;0,0761165
741,4955;0,0757578
742,4598;0,0753823
743,4240;0,0749834
744,3882;0,0745698
745,3525;0,0741587
746,3167;0,0737632
747,2809;0,0733828
748,2452;0,0730036
749,2094;0,0726082
750,1736;0,07219
751,1379;0,071761
752,1021;0,0713474
753,0663;0,0709744
754,0306;0,0706501
754,9948;0,0703592
755,9590;0,0700715
756,9233;0,0697582
757,8875;0,0694079
758,8517;0,0690307
759,8160;0,0686519
760,7802;0,0682984
761,7444;0,0679875
762,7087;0,0677211
763,6729;0,0674874
764,6371;0,0672672
765,6014;0,0670414
766,5656;0,066798
767,5298;0,0665353
768,4941;0,066261
769,4583;0,0659857
770,4225;0,0657163
771,3868;0,065452
772,3510;0,0651866
773,3152;0,0649155
774,2795;0,0646424
775,2437;0,0643801
776,2079;0,0641445
777,1722;0,0639449
778,1364;0,0637782
779,1006;0,0636294
780,0649;0,0634788
781,0291;0,0633093
781,9933;0,0631108
782,9576;0,0628799
783,9218;0,0626185
784,8860;0,0623334
785,8503;0,0620364
786,8145;0,0617432
787,7787;0,0614692
788,7430;0,0612233
789,7072;0,0610038
790,6714;0,060802
791,6357;0,0606089
792,5999;0,060423
793,5641;0,0602506
794,5284;0,0600991
795,4926;0,059968
796,4568;0,0598453
797,4211;0,059713
798,3853;0,0595581
799,3495;0,059381
800,3138;0,0591964
801,2780;0,0590245
802,2422;0,0588802
803,2065;0,058767
804,1707;0,0586777
805,1349;0,0585997
806,0992;0,0585201
807,0634;0,0584292
808,0276;0,0583207
808,9919;0,058194
809,9561;0,0580553
810,9203;0,0579188
811,8846;0,0578027
812,8488;0,0577219
813,8130;0,0576797
814,7773;0,0576659
815,7415;0,0576613
816,7057;0,0576484
817,6700;0,0576199
818,6342;0,0575803
819,5984;0,0575391
820,5627;0,0575016
821,5269;0,0574628
822,4911;0,0574093
823,4554;0,0573282
824,4196;0,0572165
825,3839;0,0570847
826,3481;0,0569531
827,3123;0,0568411
828,2766;0,0567572
829,2408;0,0566937
830,2050;0,056629
831,1693;0,0565369
832,1335;0,0563982
833,0977;0,0562093
834,0620;0,0559831
835,0262;0,0557427
835,9904;0,0555105
836,9547;0,0552986
837,9189;0,0551056
838,8831;0,0549213
839,8474;0,054735
840,8116;0,0545438
841,7758;0,0543545
842,7401;0,0541803
843,7043;0,0540324
844,6685;0,0539127
845,6328;0,0538114
846,5970;0,0537092
847,5612;0,053586
848,5255;0,0534301
849,4897;0,0532447
850,4539;0,0530483
851,4182;0,0528663
852,3824;0,0527199
853,3466;0,0526166
854,3109;0,0525492
855,2751;0,0525022
856,2393;0,0524623
857,2036;0,0524246
858,1678;0,052393
859,1320;0,052374
860,0963;0,0523706
861,0605;0,0523808
862,0247;0,0524015
862,9890;0,0524335
863,9532;0,0524843
864,9174;0,0525648
865,8817;0,0526832
866,8459;0,0528397
867,8101;0,0530261
868,7744;0,0532294
869,7386;0,0534388
870,7028;0,0536496
871,6671;0,0538641
872,6313;0,0540878
873,5955;0,0543235
874,5598;0,0545683
875,5240;0,0548149
876,4882;0,055057
877,4525;0,0552961
878,4167;0,0555443
879,3809;0,055822
880,3452;0,0561498
881,3094;0,0565403
882,2736;0,0569934
883,2379;0,0574993
884,2021;0,0580455
885,1663;0,0586242
886,1306;0,059237
887,0948;0,0598921
888,0590;0,0605967
889,0233;0,0613482
889,9875;0,0621274
890,9517;0,062899
891,9160;0,0636184
892,8802;0,0642433
893,8444;0,0647446
894,8087;0,0651101
895,7729;0,0653418
896,7371;0,0654466
897,7014;0,0654286
898,6656;0,0652877
899,6298;0,0650258
900,5941;0,0646544
901,5583;0,0641992
902,5225;0,0636961
903,4868;0,0631815
904,4510;0,0626826
905,4152;0,0622134
906,3795;0,0617789
907,3437;0,0613817
908,3079;0,0610284
909,2722;0,0607291
910,2364;0,0604939
911,2007;0,0603272
912,1649;0,060226
913,1292;0,060182
914,0934;0,0601869
915,0576;0,0602359
916,0219;0,0603287
916,9861;0,0604659
917,9503;0,0606453
918,9146;0,0608584
919,8788;0,0610921
920,8430;0,0613321
921,8073;0,0615677
922,7715;0,0617942
923,7357;0,0620124
924,7000;0,0622256
925,6642;0,0624377
926,6284;0,0626522
927,5927;0,0628731
928,5569;0,0631049
929,5211;0,0633499
930,4854;0,0636057
931,4496;0,063864
932,4138;0,0641158
933,3781;0,0643601
934,3423;0,0646112
935,3065;0,0648974
936,2708;0,0652503
937,2350;0,065691
938,1992;0,0662199
939,1635;0,0668192
940,1277;0,0674656
941,0919;0,0681448
942,0562;0,0688587
943,0204;0,069622
943,9846;0,0704522
944,9489;0,0713604
945,9131;0,0723485
946,8773;0,073411
947,8416;0,0745376
948,8058;0,0757135
949,7700;0,0769185
950,7343;0,0781312
951,6985;0,0793368
952,6627;0,0805363
953,6270;0,0817491
954,5912;0,0830044
955,5554;0,0843259
956,5197;0,0857192
957,4839;0,087169
958,4481;0,0886493
959,4124;0,0901384
960,3766;0,0916278
961,3408;0,0931219
962,3051;0,0946286
963,2693;0,096151
964,2335;0,0976865
965,1978;0,0992323
966,1620;0,100794
967,1262;0,102391
968,0905;0,104049
969,0547;0,105795
970,0189;0,107648
970,9832;0,109622
971,9474;0,111726
972,9116;0,113977
973,8759;0,116392
974,8401;0,118989
975,8043;0,121776
976,7686;0,124738
977,7328;0,127839
978,6970;0,131016
979,6613;0,134189
980,6255;0,137264
981,5897;0,140149
982,5540;0,142762
983,5182;0,145051
984,4824;0,147005
985,4467;0,148653
986,4109;0,150058
987,3751;0,151287
988,3394;0,152402
989,3036;0,153437
990,2678;0,15441
991,2321;0,155323
992,1963;0,156175
993,1605;0,156965
994,1248;0,157693
995,0890;0,158353
996,0532;0,158937
997,0175;0,159443
997,9817;0,159879
998,9459;0,16027
999,9102;0,160658
1000,8744;0,161093
1001,8386;0,161626
1002,8029;0,162301
1003,7671;0,163142
1004,7313;0,164157
1005,6956;0,165336
1006,6598;0,166665
1007,6240;0,168125
1008,5883;0,169706
1009,5525;0,171397
1010,5167;0,173181
1011,4810;0,17503
1012,4452;0,176901
1013,4094;0,17875
1014,3737;0,180541
1015,3379;0,182255
1016,3021;0,18389
1017,2664;0,185448
1018,2306;0,186927
1019,1948;0,18832
1020,1591;0,189621
1021,1233;0,190833
1022,0875;0,191974
1023,0518;0,193067
1024,0160;0,194132
1024,9802;0,195178
1025,9445;0,196198
1026,9087;0,197173
1027,8729;0,198072
1028,8372;0,198841
1029,8014;0,199403
1030,7656;0,199655
1031,7299;0,199485
1032,6941;0,198802
1033,6583;0,19757
1034,6226;0,195824
1035,5868;0,193678
1036,5510;0,191299
1037,5153;0,18888
1038,4795;0,186609
1039,4437;0,184643
1040,4080;0,183088
1041,3722;0,181995
1042,3364;0,181352
1043,3007;0,181098
1044,2649;0,181134
1045,2291;0,18135
1046,1934;0,181644
1047,1576;0,181932
1048,1218;0,182149
1049,0861;0,182241
1050,0503;0,182157
1051,0145;0,18185
1051,9788;0,181287
1052,9430;0,180458
1053,9072;0,179378
1054,8715;0,178072
1055,8357;0,176555
1056,7999;0,174799
1057,7642;0,172743
1058,7284;0,170309
1059,6926;0,167451
1060,6569;0,164193
1061,6211;0,16064
1062,5853;0,156952
1063,5496;0,153303
1064,5138;0,149826
1065,4780;0,1466
1066,4423;0,143646
1067,4065;0,140953
1068,3707;0,138496
1069,3350;0,136247
1070,2992;0,134172
1071,2634;0,132228
1072,2277;0,130354
1073,1919;0,128487
1074,1561;0,126571
1075,1204;0,124577
1076,0846;0,122507
1077,0488;0,120394
1078,0131;0,118299
1078,9773;0,116293
1079,9415;0,114448
1080,9058;0,11282
1081,8700;0,111442
1082,8342;0,110318
1083,7985;0,109427
1084,7627;0,108732
1085,7269;0,108193
1086,6912;0,107777
1087,6554;0,107464
1088,6196;0,107244
1089,5839;0,107113
1090,5481;0,107065
1091,5123;0,107095
1092,4766;0,107193
1093,4408;0,107355
1094,4050;0,107575
1095,3693;0,107848
1096,3335;0,108168
1097,2977;0,108526
1098,2620;0,108908
1099,2262;0,109301
1100,1904;0,109683
1101,1547;0,110027
1102,1189;0,110298
1103,0831;0,110465
1104,0474;0,110513
1105,0116;0,110451
1105,9758;0,11031
1106,9401;0,110124
1107,9043;0,109904
1108,8685;0,109622
1109,8328;0,109206
1110,7970;0,108568
1111,7612;0,107633
1112,7255;0,106374
1113,6897;0,104829
1114,6539;0,103093
1115,6182;0,101296
1116,5824;0,0995588
1117,5466;0,0979723
1118,5109;0,0965716
1119,4751;0,0953363
1120,4393;0,0942011
1121,4036;0,0930759
1122,3678;0,0918696
1123,3320;0,0905109
1124,2963;0,0889619
1125,2605;0,0872238
1126,2247;0,085332
1127,1890;0,0833428
1128,1532;0,0813166
1129,1174;0,0793018
1130,0817;0,0773275
1131,0459;0,0754054
1132,0101;0,0735408
1132,9744;0,0717461
1133,9386;0,0700488
1134,9028;0,0684899
1135,8671;0,0671154
1136,8313;0,0659647
1137,7955;0,0650627
1138,7598;0,0644187
1139,7240;0,064029
1140,6882;0,0638802
1141,6525;0,0639505
1142,6167;0,064209
1143,5809;0,0646163
1144,5452;0,0651285
1145,5094;0,0657048
1146,4736;0,0663159
1147,4379;0,0669484
1148,4021;0,067603
1149,3663;0,0682869
1150,3306;0,0690033
1151,2948;0,0697444
1152,2590;0,0704888
1153,2233;0,0712065
1154,1875;0,0718638
1155,1517;0,0724273
1156,1160;0,0728623
1157,0802;0,073129
1158,0444;0,0731785
1159,0087;0,0729535
1159,9729;0,0723941
1160,9371;0,071448
1161,9014;0,0700811
1162,8656;0,0682889
1163,8298;0,066104
1164,7941;0,0635991
1165,7583;0,0608815
1166,7225;0,0580793
1167,6868;0,0553198
1168,6510;0,0527088
1169,6152;0,0503158
1170,5795;0,0481729
1171,5437;0,0462833
1172,5079;0,0446349
1173,4722;0,0432103
1174,4364;0,0419907
1175,4006;0,0409548
1176,3649;0,0400779
1177,3291;0,0393336
1178,2933;0,0386981
1179,2576;0,0381537
1180,2218;0,037689
1181,1860;0,0372963
1182,1503;0,0369688
1183,1145;0,0367004
1184,0787;0,036488
1185,0430;0,0363339
1186,0072;0,0362464
1186,9714;0,0362361
1187,9357;0,0363114
1188,8999;0,0364739
1189,8641;0,036718
1190,8284;0,0370327
1191,7926;0,0374052
1192,7568;0,0378243
1193,7211;0,0382819
1194,6853;0,0387721
1195,6495;0,0392895
1196,6138;0,0398277
1197,5780;0,0403777
1198,5422;0,0409284
1199,5065;0,0414589
1200,4707;0,0419763
1201,4349;0,0424611
1202,3992;0,0429059
1203,3634;0,0433046
1204,3276;0,0436522
1205,2919;0,0439463
1206,2561;0,0441888
1207,2203;0,044389
1208,1846;0,0445654
1209,1488;0,0447443
1210,1130;0,0449558
1211,0773;0,0452278
1212,0415;0,0455791
1213,0057;0,0460162
1213,9700;0,0465323
1214,9342;0,0471117
1215,8984;0,0477344
1216,8627;0,0483818
1217,8269;0,0490389
1218,7911;0,0496953
1219,7554;0,0503433
1220,7196;0,050976
1221,6838;0,0515858
1222,6481;0,0521656
1223,6123;0,0527109
1224,5765;0,0532218
1225,5408;0,0537024
1226,5050;0,0541583
1227,4692;0,054593
1228,4335;0,0550058
1229,3977;0,055392
1230,3619;0,055745
1231,3262;0,0560583
1232,2904;0,0563255
1233,2546;0,0565398
1234,2189;0,0566957
1235,1831;0,0567916
1236,1473;0,0568337
1237,1116;0,056837
1238,0758;0,0568211
1239,0400;0,0568029
1240,0043;0,056789
1240,9685;0,0567731
1241,9327;0,0567399
1242,8970;0,0566732
1243,8612;0,0565623
1244,8254;0,0564053
1245,7897;0,0562071
1246,7539;0,0559749
1247,7181;0,0557152
1248,6824;0,0554332
1249,6466;0,055134
1250,6108;0,0548252
1251,5751;0,0545176
1252,5393;0,0542233
1253,5035;0,0539527
1254,4678;0,0537099
1255,4320;0,0534905
1256,3962;0,0532826
1257,3605;0,0530707
1258,3247;0,0528416
1259,2889;0,0525891
1260,2532;0,0523144
1261,2174;0,0520231
1262,1816;0,0517204
1263,1459;0,051408
1264,1101;0,0510844
1265,0743;0,0507471
1266,0386;0,050395
1267,0028;0,0500289
1267,9670;0,0496506
1268,9313;0,0492617
1269,8955;0,048864
1270,8597;0,0484593
1271,8240;0,04805
1272,7882;0,0476391
1273,7524;0,0472302
1274,7167;0,0468284
1275,6809;0,0464403
1276,6451;0,0460716
1277,6094;0,0457242
1278,5736;0,0453927
1279,5378;0,0450643
1280,5021;0,0447241
1281,4663;0,0443624
1282,4305;0,0439804
1283,3948;0,0435907
1284,3590;0,0432125
1285,3232;0,0428652
1286,2875;0,0425645
1287,2517;0,0423204
1288,2159;0,0421381
1289,1802;0,042018
1290,1444;0,0419561
1291,1086;0,0419456
1292,0729;0,0419799
1293,0371;0,0420564
1294,0013;0,0421781
1294,9656;0,0423523
1295,9298;0,0425863
1296,8940;0,0428832
1297,8583;0,0432407
1298,8225;0,0436529
1299,7867;0,044113
1300,7510;0,0446148
1301,7152;0,0451537
1302,6794;0,0457266
1303,6437;0,0463315
1304,6079;0,0469678
1305,5721;0,0476344
1306,5364;0,0483274
1307,5006;0,0490394
1308,4648;0,0497601
1309,4291;0,050478
1310,3933;0,0511809
1311,3575;0,0518541
1312,3218;0,0524777
1313,2860;0,0530267
1314,2502;0,0534741
1315,2145;0,0537959
1316,1787;0,0539763
1317,1429;0,0540117
1318,1072;0,0539134
1319,0714;0,0537081
1320,0356;0,0534333
1320,9999;0,0531268
1321,9641;0,0528186
1322,9283;0,0525278
1323,8926;0,0522658
1324,8568;0,0520407
1325,8210;0,0518582
1326,7853;0,0517204
1327,7495;0,0516236
1328,7137;0,0515575
1329,6780;0,0515064
1330,6422;0,0514526
1331,6064;0,0513788
1332,5707;0,0512697
1333,5349;0,0511119
1334,4991;0,0508911
1335,4634;0,0505903
1336,4276;0,0501927
1337,3918;0,049692
1338,3561;0,0491091
1339,3203;0,0484981
1340,2845;0,0479264
1341,2488;0,0474398
1342,2130;0,0470454
1343,1772;0,0467237
1344,1415;0,0464516
1345,1057;0,0462179
1346,0699;0,0460268
1347,0342;0,0458928
1347,9984;0,0458322
1348,9626;0,0458549
1349,9269;0,0459602
1350,8911;0,0461361
1351,8553;0,0463635
1352,8196;0,046622
1353,7838;0,0468965
1354,7480;0,0471817
1355,7123;0,0474807
1356,6765;0,0477982
1357,6407;0,0481329
1358,6050;0,0484745
1359,5692;0,0488066
1360,5334;0,0491131
1361,4977;0,0493867
1362,4619;0,0496355
1363,4261;0,0498792
1364,3904;0,0501345
1365,3546;0,0504031
1366,3188;0,050672
1367,2831;0,0509189
1368,2473;0,0511182
1369,2115;0,0512456
1370,1758;0,0512791
1371,1400;0,0511999
1372,1042;0,0509936
1373,0685;0,0506608
1374,0327;0,0502297
1374,9969;0,049753
1375,9612;0,0492762
1376,9254;0,0488066
1377,8896;0,0483139
1378,8539;0,0477616
1379,8181;0,0471399
1380,7823;0,0464786
1381,7466;0,0458276
1382,7108;0,0452194
1383,6750;0,0446469
1384,6393;0,0440738
1385,6035;0,043471
1386,5677;0,0428582
1387,5320;0,0423095
1388,4962;0,0419019
1389,4604;0,0416551
1390,4247;0,0415299
1391,3889;0,0414668
1392,3531;0,0414191
1393,3174;0,041366
1394,2816;0,0413111
1395,2458;0,0412739
1396,2101;0,0412748
1397,1743;0,0413259
1398,1385;0,0414303
1399,1028;0,0415855
1400,0670;0,0417835
1401,0313;0,0420099
1401,9955;0,0422471
1402,9597;0,0424813
1403,9240;0,0427096
1404,8882;0,0429418
1405,8524;0,0431939
1406,8167;0,0434766
1407,7809;0,0437889
1408,7451;0,0441248
1409,7094;0,0444828
1410,6736;0,0448695
1411,6378;0,0452932
1412,6021;0,0457527
1413,5663;0,0462335
1414,5305;0,0467124
1415,4948;0,0471655
1416,4590;0,0475723
1417,4232;0,0479188
1418,3875;0,048203
1419,3517;0,0484346
1420,3159;0,0486173
1421,2802;0,048735
1422,2444;0,0487598
1423,2086;0,0486745
1424,1729;0,0484869
1425,1371;0,048223
1426,1013;0,0479013
1427,0656;0,0475099
1428,0298;0,0470145
1428,9940;0,0463988
1429,9583;0,0457042
1430,9225;0,0450173
1431,8867;0,0444032
1432,8510;0,0438513
1433,8152;0,0432818
1434,7794;0,0426027
1435,7437;0,0417982
1436,7079;0,0409913
1437,6721;0,0403713
1438,6364;0,0400269
1439,6006;0,0399051
1440,5648;0,0399057
1441,5291;0,0399581
1442,4933;0,0400371
1443,4575;0,0401447
1444,4218;0,0402874
1445,3860;0,0404608
1446,3502;0,0406495
1447,3145;0,0408393
1448,2787;0,0410295
1449,2429;0,0412334
1450,2072;0,0414652
1451,1714;0,0417263
1452,1356;0,0420015
1453,0999;0,0422574
1454,0641;0,0424345
1455,0283;0,0424344
1455,9926;0,0421498
1456,9568;0,0416131
1457,9210;0,0410945
1458,8853;0,0408314
1459,8495;0,0408031
1460,8137;0,0408615
1461,7780;0,0408606
1462,7422;0,0406786
1463,7064;0,0402359
1464,6707;0,0395558
1465,6349;0,0387886
1466,5991;0,0381023
1467,5634;0,0375495
1468,5276;0,0370606
1469,4918;0,0365052
1470,4561;0,0357381
1471,4203;0,034652
1472,3845;0,0332818
1473,3488;0,0318713
1474,3130;0,0307059
1475,2772;0,0298741
1476,2415;0,0292876
1477,2057;0,028831
1478,1699;0,0284327
1479,1342;0,0280628
1480,0984;0,0277175
1481,0626;0,0274091
1482,0269;0,0271592
1482,9911;0,0269868
1483,9553;0,0268955
1484,9196;0,026866
1485,8838;0,0268605
1486,8480;0,0268379
1487,8123;0,0267812
1488,7765;0,0267305
1489,7407;0,0267714
1490,7050;0,0269587
1491,6692;0,0272743
1492,6334;0,0276653
1493,5977;0,0280874
1494,5619;0,0285141
1495,5261;0,028932
1496,4904;0,0293406
1497,4546;0,0297561
1498,4188;0,0302038
1499,3831;0,0306946
1500,3473;0,031215
1501,3115;0,0317376
1502,2758;0,0322308
1503,2400;0,0326544
1504,2042;0,0329391
1505,1685;0,0329612
1506,1327;0,0325837
1507,0969;0,031881
1508,0612;0,0312309
1509,0254;0,0308749
1509,9896;0,0307411
1510,9539;0,0306861
1511,9181;0,0306162
1512,8823;0,0304828
1513,8466;0,0302654
1514,8108;0,0299701
1515,7750;0,0296299
1516,7393;0,0292867
1517,7035;0,0289598
1518,6677;0,0286289
1519,6320;0,0282549
1520,5962;0,027828
1521,5604;0,0273973
1522,5247;0,0270394
1523,4889;0,0267961
1524,4531;0,0266581
1525,4174;0,0265978
1526,3816;0,0266009
1527,3458;0,0266673
1528,3101;0,0267937
1529,2743;0,0269625
1530,2385;0,0271479
1531,2028;0,0273305
1532,1670;0,027513
1533,1312;0,0277249
1534,0955;0,028
1535,0597;0,0283444
1536,0239;0,0287318
1536,9882;0,0291177
1537,9524;0,0294409
1538,9166;0,0296091
1539,8809;0,0295248
1540,8451;0,0292231
1541,8093;0,0289286
1542,7736;0,0288008
1543,7378;0,0288162
1544,7020;0,0289036
1545,6663;0,0290216
1546,6305;0,0291538
1547,5947;0,0292884
1548,5590;0,0294096
1549,5232;0,0295053
1550,4874;0,0295812
1551,4517;0,0296674
1552,4159;0,0298032
1553,3801;0,0300087
1554,3444;0,0302646
1555,3086;0,0305086
1556,2728;0,03063
1557,2371;0,0304864
1558,2013;0,030056
1559,1655;0,0296442
1560,1298;0,0295767
1561,0940;0,0298231
1562,0582;0,0302143
1563,0225;0,0306418
1563,9867;0,0310565
1564,9509;0,0314326
1565,9152;0,0317528
1566,8794;0,0320136
1567,8436;0,0322414
1568,8079;0,0324943
1569,7721;0,0328276
1570,7363;0,033248
1571,7006;0,0337159
1572,6648;0,0341826
1573,6290;0,0346137
1574,5933;0,0349942
1575,5575;0,0353321
1576,5217;0,0356609
1577,4860;0,0360191
1578,4502;0,0364194
1579,4144;0,0368512
1580,3787;0,0373002
1581,3429;0,0377588
1582,3071;0,0382264
1583,2714;0,0387085
1584,2356;0,0392122
1585,1998;0,0397413
1586,1641;0,0402898
1587,1283;0,0408402
1588,0925;0,0413658
1589,0568;0,0418374
1590,0210;0,04223
1590,9852;0,0425256
1591,9495;0,042711
1592,9137;0,0427783
1593,8779;0,0427301
1594,8422;0,0425841
1595,8064;0,0423706
1596,7706;0,04212
1597,7349;0,0418516
1598,6991;0,0415715
1599,6633;0,0412787
1600,6276;0,0409745
1601,5918;0,0406686
1602,5560;0,0403782
1603,5203;0,0401206
1604,4845;0,0399024
1605,4487;0,0397132
1606,4130;0,0395306
1607,3772;0,0393352
1608,3414;0,0391316
1609,3057;0,0389554
1610,2699;0,0388524
1611,2341;0,0388436
1612,1984;0,0389072
1613,1626;0,0389867
1614,1268;0,0390104
1615,0911;0,0389248
1616,0553;0,038749
1617,0195;0,0385906
1617,9838;0,0385529
1618,9480;0,0386416
1619,9122;0,0387888
1620,8765;0,038918
1621,8407;0,0389813
1622,8049;0,038976
1623,7692;0,0389422
1624,7334;0,0389276
1625,6976;0,0389486
1626,6619;0,0389913
1627,6261;0,0390449
1628,5903;0,0391216
1629,5546;0,0392459
1630,5188;0,0394273
1631,4830;0,0396446
1632,4473;0,0398444
1633,4115;0,0399455
1634,3757;0,0398629
1635,3400;0,039588
1636,3042;0,0392622
1637,2684;0,0390627
1638,2327;0,0390342
1639,1969;0,0391217
1640,1611;0,0392681
1641,1254;0,0394419
1642,0896;0,0396199
1643,0538;0,0397629
1644,0181;0,0398036
1644,9823;0,039669
1645,9465;0,0393661
1646,9108;0,0390483
1647,8750;0,0388955
1648,8392;0,0389363
1649,8035;0,0390497
1650,7677;0,0390358
1651,7319;0,0386512
1652,6962;0,0377751
1653,6604;0,0367428
1654,6246;0,0360933
1655,5889;0,0359001
1656,5531;0,0359234
1657,5173;0,0359668
1658,4816;0,0359255
1659,4458;0,0357387
1660,4100;0,0353734
1661,3743;0,0348536
1662,3385;0,0342876
1663,3027;0,0338144
1664,2670;0,0335008
1665,2312;0,0333079
1666,1954;0,0331334
1667,1597;0,0328583
1668,1239;0,0323985
1669,0881;0,0317753
1670,0524;0,0311367
1671,0166;0,0306373
1671,9808;0,0302976
1672,9451;0,0300173
1673,9093;0,0296812
1674,8735;0,0292475
1675,8378;0,0287798
1676,8020;0,0283954
1677,7662;0,0281651
1678,7305;0,0280711
1679,6947;0,0280348
1680,6589;0,0279453
1681,6232;0,0276708
1682,5874;0,027105
1683,5516;0,0263045
1684,5159;0,0255477
1685,4801;0,025066
1686,4443;0,0248367
1687,4086;0,0247222
1688,3728;0,0246268
1689,3370;0,0245248
1690,3013;0,0244316
1691,2655;0,0243685
1692,2297;0,0243379
1693,1940;0,024319
1694,1582;0,0242769
1695,1224;0,0241792
1696,0867;0,024008
1697,0509;0,0237636
1698,0151;0,0234636
1698,9794;0,0231501
1699,9436;0,0228916
1700,9078;0,0227506
1701,8721;0,02274
1702,8363;0,0228193
1703,8005;0,0229269
1704,7648;0,0230138
1705,7290;0,0230674
1706,6932;0,0231165
1707,6575;0,0232099
1708,6217;0,023381
1709,5859;0,0236322
1710,5502;0,0239438
1711,5144;0,0242884
1712,4786;0,0246355
1713,4429;0,0249483
1714,4071;0,0251803
1715,3713;0,0252874
1716,3356;0,025273
1717,2998;0,0252268
1718,2640;0,0252653
1719,2283;0,025427
1720,1925;0,0256742
1721,1567;0,0259541
1722,1210;0,0262302
1723,0852;0,026485
1724,0494;0,0267175
1725,0137;0,0269387
1725,9779;0,0271642
1726,9421;0,027405
1727,9064;0,0276602
1728,8706;0,0279118
1729,8348;0,0281217
1730,7991;0,0282297
1731,7633;0,0281686
1732,7275;0,0279169
1733,6918;0,0275636
1734,6560;0,0272663
1735,6202;0,0271054
1736,5845;0,0270376
1737,5487;0,0269683
1738,5129;0,0268171
1739,4772;0,0265486
1740,4414;0,026184
1741,4056;0,0257861
1742,3699;0,0254151
1743,3341;0,0250909
1744,2983;0,0247964
1745,2626;0,0244993
1746,2268;0,0241638
1747,1910;0,023749
1748,1553;0,0232199
1749,1195;0,0225838
1750,0837;0,0219198
1751,0480;0,0213389
1752,0122;0,0208996
1752,9764;0,0205788
1753,9407;0,0203104
1754,9049;0,020035
1755,8691;0,0197279
1756,8334;0,0194025
1757,7976;0,0190873
1758,7618;0,0187948
1759,7261;0,0185111
1760,6903;0,0182178
1761,6545;0,0179226
1762,6188;0,0176632
1763,5830;0,0174779
1764,5472;0,0173746
1765,5115;0,0173285
1766,4757;0,0173011
1767,4399;0,017257
1768,4042;0,0171698
1769,3684;0,0170199
1770,3326;0,0167955
1771,2969;0,016509
1772,2611;0,0162157
1773,2253;0,0159946
1774,1896;0,0158932
1775,1538;0,0159004
1776,1180;0,0159672
1777,0823;0,0160384
1778,0465;0,0160734
1779,0107;0,0160563
1779,9750;0,0159974
1780,9392;0,015922
1781,9034;0,0158516
1782,8677;0,0157956
1783,8319;0,015758
1784,7961;0,0157483
1785,7604;0,0157798
1786,7246;0,0158569
1787,6888;0,0159652
1788,6531;0,0160704
1789,6173;0,0161257
1790,5815;0,0160916
1791,5458;0,0159667
1792,5100;0,015808
1793,4742;0,0156945
1794,4385;0,0156652
1795,4027;0,0157033
1796,3669;0,0157668
1797,3312;0,0158154
1798,2954;0,0158236
1799,2596;0,0157875
1800,2239;0,0157249
1801,1881;0,015665
1802,1523;0,0156312
1803,1166;0,015631
1804,0808;0,0156584
1805,0450;0,0157019
1806,0093;0,0157485
1806,9735;0,0157848
1807,9377;0,0157987
1808,9020;0,0157833
1809,8662;0,0157421
1810,8304;0,0156902
1811,7947;0,0156463
1812,7589;0,0156213
1813,7231;0,0156132
1814,6874;0,0156117
1815,6516;0,0156072
1816,6158;0,0155994
1817,5801;0,0155985
1818,5443;0,0156186
1819,5085;0,0156653
1820,4728;0,0157302
1821,4370;0,0157948
1822,4012;0,0158411
1823,3655;0,0158626
1824,3297;0,015868
1825,2939;0,0158736
1826,2582;0,0158877
1827,2224;0,0159021
1828,1866;0,0158968
1829,1509;0,0158581
1830,1151;0,0157938
1831,0793;0,0157309
1832,0436;0,0156942
1833,0078;0,0156887
1833,9720;0,0157024
1834,9363;0,0157187
1835,9005;0,0157305
1836,8647;0,0157453
1837,8290;0,0157792
1838,7932;0,0158408
1839,7574;0,0159207
1840,7217;0,0159923
1841,6859;0,0160212
1842,6501;0,0159824
1843,6144;0,0158813
1844,5786;0,0157599
1845,5428;0,0156686
1846,5071;0,0156283
1847,4713;0,0156255
1848,4355;0,0156363
1849,3998;0,0156454
1850,3640;0,0156518
1851,3282;0,0156631
1852,2925;0,0156855
1853,2567;0,0157166
1854,2209;0,0157466
1855,1852;0,0157662
1856,1494;0,0157732
1857,1136;0,0157744
1858,0779;0,0157812
1859,0421;0,0158032
1860,0063;0,0158443
1860,9706;0,0159029
1861,9348;0,0159731
1862,8990;0,0160455
1863,8633;0,016108
1864,8275;0,0161461
1865,7917;0,0161461
1866,7560;0,0161033
1867,7202;0,0160315
1868,6844;0,0159632
1869,6487;0,0159275
1870,6129;0,015929
1871,5771;0,0159482
1872,5414;0,0159594
1873,5056;0,0159459
1874,4698;0,0159062
1875,4341;0,0158536
1876,3983;0,01581
1877,3625;0,015793
1878,3268;0,0158061
1879,2910;0,0158389
1880,2552;0,0158757
1881,2195;0,0159069
1882,1837;0,0159351
1883,1479;0,0159699
1884,1122;0,016018
1885,0764;0,0160736
1886,0406;0,0161176
1887,0049;0,0161275
1887,9691;0,0160914
1888,9333;0,0160202
1889,8976;0,015945
1890,8618;0,0158981
1891,8260;0,0158927
1892,7903;0,015917
1893,7545;0,0159452
1894,7188;0,0159538
1895,6830;0,0159349
1896,6472;0,0158998
1897,6115;0,0158692
1898,5757;0,0158588
1899,5399;0,0158708
1900,5042;0,0158941
1901,4684;0,0159128
1902,4326;0,015916
1903,3969;0,0159032
1904,3611;0,0158834
1905,3253;0,0158682
1906,2896;0,0158659
1907,2538;0,0158787
1908,2180;0,0159051
1909,1823;0,015943
1910,1465;0,0159919
1911,1107;0,0160499
1912,0750;0,0161107
1913,0392;0,0161641
1914,0034;0,0162001
1914,9677;0,0162158
1915,9319;0,0162202
1916,8961;0,0162318
1917,8604;0,0162676
1918,8246;0,0163294
1919,7888;0,0163997
1920,7531;0,0164529
1921,7173;0,0164679
1922,6815;0,0164366
1923,6458;0,0163632
1924,6100;0,0162595
1925,5742;0,0161392
1926,5385;0,0160174
1927,5027;0,0159112
1928,4669;0,0158392
1929,4312;0,0158144
1930,3954;0,0158359
1931,3596;0,0158848
1932,3239;0,0159332
1933,2881;0,0159588
1934,2523;0,0159552
1935,2166;0,0159318
1936,1808;0,0159054
1937,1450;0,015891
1938,1093;0,0158986
1939,0735;0,0159335
1940,0377;0,0159972
1941,0020;0,0160837
1941,9662;0,0161765
1942,9304;0,0162519
1943,8947;0,0162897
1944,8589;0,0162828
1945,8231;0,0162374
1946,7874;0,0161659
1947,7516;0,016083
1948,7158;0,0160062
1949,6801;0,0159581
1950,6443;0,0159619
1951,6085;0,0160287
1952,5728;0,0161454
1953,5370;0,0162727
1954,5012;0,0163604
1955,4655;0,0163726
1956,4297;0,0163082
1957,3939;0,0162023
1958,3582;0,0161084
1959,3224;0,0160691
1960,2866;0,0160955
1961,2509;0,0161637
1962,2151;0,0162315
1963,1793;0,0162609
1964,1436;0,0162343
1965,1078;0,0161599
1966,0720;0,0160689
1967,0363;0,0160062
1968,0005;0,0160154
1968,9647;0,0161198
1969,9290;0,0163087
1970,8932;0,0165355
1971,8574;0,0167295
1972,8217;0,0168214
1973,7859;0,016776
1974,7501;0,0166186
1975,7144;0,0164317
1976,6786;0,0163133
1977,6428;0,0163172
1978,6071;0,0164228
1979,5713;0,0165581
1980,5355;0,0166561
1981,4998;0,0166936
1982,4640;0,0166905
1983,4282;0,0166802
1984,3925;0,0166783
1985,3567;0,0166726
1986,3209;0,0166424
1987,2852;0,0165895
1988,2494;0,0165546
1989,2136;0,0166014
1990,1779;0,016775
1991,1421;0,0170592
1992,1063;0,017369
1993,0706;0,0175917
1994,0348;0,0176501
1994,9990;0,0175403
1995,9633;0,0173242
1996,9275;0,0170903
1997,8917;0,0169123
1998,8560;0,0168243
1999,8202;0,0168218
2000,7844;0,0168826
2001,7487;0,0169907
2002,7129;0,0171432
2003,6771;0,0173376
2004,6414;0,0175527
2005,6056;0,0177421
2006,5698;0,0178545
2007,5341;0,0178679
2008,4983;0,0178124
2009,4625;0,0177559
2010,4268;0,0177633
2011,3910;0,0178574
2012,3552;0,0180063
2013,3195;0,018143
2014,2837;0,0182005
2015,2479;0,0181446
2016,2122;0,0179916
2017,1764;0,017803
2018,1406;0,0176624
2019,1049;0,0176453
2020,0691;0,0177924
2021,0333;0,0180931
2021,9976;0,0184811
2022,9618;0,0188464
2023,9260;0,0190689
2024,8903;0,0190673
2025,8545;0,0188397
2026,8187;0,0184695
2027,7830;0,0180887
2028,7472;0,017817
2029,7114;0,0177102
2030,6757;0,017748
2031,6399;0,0178605
2032,6041;0,0179759
2033,5684;0,018055
2034,5326;0,018096
2035,4968;0,0181151
2036,4611;0,0181259
2037,4253;0,0181342
2038,3895;0,0181457
2039,3538;0,0181737
2040,3180;0,0182361
2041,2822;0,0183435
2042,2465;0,0184897
2043,2107;0,0186533
2044,1749;0,0188077
2045,1392;0,0189307
2046,1034;0,0190053
2047,0676;0,0190164
2048,0320;0,0189502
2048,9961;0,0188026
2049,9604;0,018588
2050,9246;0,0183409
2051,8889;0,0181051
2052,8530;0,0179192
2053,8174;0,017804
2054,7815;0,017759
2055,7458;0,01777
2056,7100;0,0178241
2057,6743;0,0179196
2058,6384;0,0180622
2059,6028;0,0182483
2060,5669;0,0184482
2061,5313;0,0186059
2062,4954;0,0186605
2063,4597;0,0185818
2064,4238;0,0183965
2065,3882;0,0181847
2066,3523;0,0180429
2067,3167;0,0180352
2068,2808;0,0181638
2069,2451;0,0183747
2070,2092;0,0185905
2071,1736;0,0187485
2072,1377;0,0188207
2073,1021;0,0188101
2074,0662;0,0187335
2075,0305;0,0186071
2075,9946;0,0184463
2076,9590;0,0182741
2077,9231;0,0181255
2078,8875;0,0180388
2079,8516;0,018038
2080,8159;0,0181186
2081,7800;0,018249
2082,7444;0,0183871
2083,7085;0,0185002
2084,6729;0,0185769
2085,6370;0,0186232
2086,6013;0,01865
2087,5654;0,01866
2088,5298;0,0186456
2089,4939;0,0185968
2090,4583;0,0185134
2091,4224;0,0184107
2092,3867;0,0183152
2093,3508;0,0182537
2094,3152;0,0182414
2095,2793;0,0182782
2096,2437;0,0183519
2097,2078;0,0184452
2098,1721;0,0185381
2099,1362;0,0186074
2100,1006;0,0186277
2101,0647;0,0185802
2102,0291;0,018466
2102,9932;0,018315
2103,9575;0,0181783
2104,9216;0,0181055
2105,8860;0,0181194
2106,8501;0,0182047
2107,8145;0,0183197
2108,7786;0,0184216
2109,7429;0,018489
2110,7070;0,0185251
2111,6714;0,0185459
2112,6355;0,0185624
2113,5999;0,0185732
2114,5640;0,0185694
2115,5283;0,018546
2116,4924;0,0185083
2117,4568;0,0184701
2118,4209;0,0184464
2119,3853;0,0184445
2120,3494;0,0184607
2121,3137;0,0184807
2122,2778;0,0184857
2123,2422;0,0184607
2124,2063;0,0184042
2125,1707;0,0183339
2126,1348;0,0182833
2127,0991;0,0182882
2128,0632;0,0183687
2129,0276;0,0185166
2129,9917;0,0186969
2130,9561;0,0188629
2131,9202;0,0189778
2132,8845;0,01903
2133,8486;0,0190368
2134,8130;0,019034
2135,7771;0,0190568
2136,7415;0,0191226
2137,7056;0,0192216
2138,6699;0,0193223
2139,6340;0,01939
2140,5984;0,0194108
2141,5625;0,0194087
2142,5269;0,0194397
2143,4910;0,0195603
2144,4553;0,0197865
2145,4194;0,0200699
2146,3838;0,0203157
2147,3479;0,0204351
2148,3123;0,0203983
2149,2764;0,0202494
2150,2407;0,0200731
2151,2048;0,0199407
2152,1692;0,0198784
2153,1333;0,0198777
2154,0977;0,0199302
2155,0618;0,0200499
2156,0261;0,0202531
2156,9902;0,0205064
2157,9546;0,0206973
2158,9187;0,0206865
2159,8831;0,0204241
2160,8472;0,0200135
2161,8115;0,0196501
2162,7756;0,0194945
2163,7400;0,0195839
2164,7041;0,0198257
2165,6685;0,020062
2166,6326;0,020161
2167,5969;0,0200821
2168,5610;0,0198805
2169,5254;0,0196582
2170,4895;0,0195009
2171,4539;0,0194388
2172,4180;0,0194438
2173,3823;0,0194586
2174,3464;0,0194356
2175,3108;0,0193642
2176,2749;0,0192735
2177,2393;0,0192113
2178,2034;0,0192157
2179,1677;0,0192954
2180,1318;0,0194279
2181,0962;0,0195741
2182,0603;0,019699
2183,0247;0,0197858
2183,9888;0,0198357
2184,9531;0,0198576
2185,9172;0,0198586
2186,8816;0,0198431
2187,8457;0,019818
2188,8101;0,0197961
2189,7742;0,0197908
2190,7385;0,0198051
2191,7026;0,019825
2192,6670;0,0198239
2193,6311;0,0197781
2194,5955;0,0196829
2195,5596;0,0195595
2196,5239;0,0194468
2197,4880;0,0193825
2198,4524;0,0193841
2199,4165;0,0194377
2200,3809;0,0195014
2201,3450;0,0195236
2202,3093;0,0194683
2203,2734;0,0193365
2204,2378;0,0191718
2205,2019;0,0190425
2206,1663;0,0190059
2207,1304;0,0190748
2208,0947;0,0192066
2209,0588;0,0193257
2210,0232;0,0193666
2210,9873;0,0193128
2211,9517;0,0192049
2212,9158;0,0191127
2213,8801;0,0190907
2214,8442;0,0191443
2215,8086;0,0192317
2216,7727;0,0192947
2217,7371;0,0192979
2218,7012;0,0192484
2219,6655;0,0191872
2220,6296;0,0191593
2221,5940;0,0191874
2222,5581;0,0192614
2223,5225;0,0193501
2224,4866;0,0194203
2225,4509;0,0194529
2226,4150;0,0194468
2227,3794;0,0194129
2228,3435;0,0193653
2229,3079;0,0193144
2230,2720;0,0192645
2231,2363;0,0192147
2232,2004;0,019162
2233,1648;0,0191047
2234,1289;0,0190457
2235,0933;0,0189928
2236,0574;0,0189551
2237,0217;0,0189369
2237,9858;0,0189331
2238,9502;0,0189308
2239,9143;0,0189167
2240,8787;0,0188866
2241,8428;0,0188489
2242,8071;0,0188194
2243,7712;0,0188106
2244,7356;0,0188224
2245,6997;0,0188414
2246,6641;0,0188494
2247,6282;0,0188357
2248,5925;0,0188043
2249,5566;0,0187724
2250,5210;0,0187605
2251,4851;0,0187807
2252,4495;0,0188299
2253,4136;0,0188909
2254,3779;0,01894
2255,3420;0,0189582
2256,3064;0,018939
2257,2705;0,0188908
2258,2349;0,018831
2259,1990;0,0187772
2260,1633;0,018739
2261,1274;0,0187153
2262,0918;0,018699
2263,0559;0,018685
2264,0203;0,0186758
2264,9844;0,0186813
2265,9487;0,0187108
2266,9128;0,0187655
2267,8772;0,0188343
2268,8413;0,0188991
2269,8057;0,0189442
2270,7698;0,0189626
2271,7341;0,0189564
2272,6982;0,0189311
2273,6626;0,0188907
2274,6267;0,018837
2275,5911;0,0187754
2276,5552;0,0187183
2277,5195;0,0186834
2278,4836;0,0186839
2279,4480;0,0187178
2280,4121;0,0187669
2281,3765;0,0188058
2282,3406;0,0188179
2283,3049;0,0188061
2284,2690;0,018791
2285,2334;0,0187976
2286,1975;0,0188396
2287,1619;0,0189116
2288,1260;0,0189922
2289,0903;0,0190572
2290,0544;0,0190922
2291,0188;0,0190986
2291,9829;0,0190898
2292,9473;0,0190832
2293,9114;0,0190916
2294,8757;0,019119
2295,8398;0,019161
2296,8042;0,0192075
2297,7683;0,0192471
2298,7327;0,0192714
2299,6968;0,0192788
2300,6611;0,019275
2301,6252;0,0192719
2302,5896;0,019282
2303,5537;0,0193124
2304,5181;0,0193604
2305,4822;0,0194123
2306,4465;0,0194473
2307,4106;0,019446
2308,3750;0,0194
2309,3391;0,0193189
2310,3035;0,0192303
2311,2676;0,019169
2312,2319;0,0191615
2313,1960;0,0192132
2314,1604;0,0193066
2315,1245;0,0194123
2316,0889;0,0195041
2317,0530;0,0195698
2318,0173;0,0196133
2318,9814;0,0196471
2319,9458;0,019683
2320,9099;0,019725
2321,8743;0,01977
2322,8384;0,0198125
2323,8027;0,0198462
2324,7668;0,0198635
2325,7312;0,0198563
2326,6953;0,0198201
2327,6597;0,0197609
2328,6238;0,0196959
2329,5881;0,019648
2330,5522;0,0196332
2331,5166;0,0196513
2332,4807;0,0196855
2333,4451;0,0197121
2334,4092;0,0197112
2335,3735;0,0196734
2336,3376;0,0195998
2337,3020;0,0194997
2338,2661;0,0193879
2339,2305;0,0192793
2340,1946;0,0191812
2341,1589;0,0190869
2342,1230;0,0189812
2343,0874;0,0188666
2344,0515;0,0187931
2345,0159;0,0188383
2345,9800;0,0190381
2346,9443;0,0193481
2347,9084;0,019678
2348,8728;0,0199451
2349,8369;0,0201054
2350,8013;0,0201604
2351,7654;0,0201505
2352,7297;0,0201375
2353,6938;0,0201797
2354,6582;0,0203036
2355,6223;0,020485
2356,5867;0,0206492
2357,5508;0,0207012
2358,5151;0,0205753
2359,4792;0,0202771
2360,4436;0,0198792
2361,4077;0,0194696
2362,3721;0,0191021
2363,3362;0,018792
2364,3005;0,0185433
2365,2646;0,018369
2366,2290;0,0182841
2367,1931;0,0182841
2368,1575;0,0183362
2369,1216;0,0183911
2370,0859;0,018407
2371,0500;0,0183674
2372,0144;0,0182852
2372,9785;0,018192
2373,9429;0,0181235
2374,9070;0,0181063
2375,8713;0,0181506
2376,8354;0,0182496
2377,7998;0,018385
2378,7639;0,0185343
2379,7283;0,0186787
2380,6924;0,018808
2381,6567;0,0189207
2382,6208;0,0190208
2383,5852;0,0191129
2384,5493;0,0191981
2385,5137;0,0192723
2386,4778;0,0193291
2387,4421;0,019363
2388,4063;0,0193748
2389,3706;0,0193723
2390,3347;0,0193682
2391,2991;0,019374
2392,2632;0,0193953
2393,2275;0,0194289
2394,1917;0,0194659
2395,1560;0,0194969
2396,1201;0,0195168
2397,0845;0,0195261
2398,0486;0,0195286
2399,0129;0,0195272
2399,9771;0,0195229
2400,9414;0,0195157
2401,9055;0,0195083
2402,8699;0,0195075
2403,8340;0,0195217
2404,7983;0,0195564
2405,7625;0,0196091
2406,7268;0,0196693
2407,6909;0,0197233
2408,6553;0,0197606
2409,6194;0,0197785
2410,5837;0,0197822
2411,5479;0,0197806
2412,5122;0,0197817
2413,4763;0,0197896
2414,4407;0,0198047
2415,4048;0,0198246
2416,3691;0,0198463
2417,3333;0,0198673
2418,2976;0,019887
2419,2617;0,0199081
2420,2261;0,0199357
2421,1902;0,019974
2422,1545;0,0200225
2423,1187;0,0200722
2424,0830;0,0201083
2425,0471;0,0201171
2426,0115;0,0200954
2426,9756;0,0200539
2427,9399;0,0200132
2428,9041;0,0199932
2429,8684;0,0200033
2430,8325;0,0200388
2431,7969;0,0200866
2432,7610;0,0201341
2433,7253;0,0201752
2434,6895;0,0202102
2435,6538;0,0202406
2436,6179;0,0202645
2437,5823;0,0202769
2438,5464;0,0202746
2439,5107;0,0202606
2440,4749;0,0202448
2441,4392;0,0202393
2442,4033;0,0202518
2443,3677;0,0202814
2444,3318;0,0203198
2445,2961;0,0203554
2446,2603;0,0203794
2447,2246;0,0203885
2448,1887;0,0203858
2449,1531;0,020379
2450,1172;0,0203772
2451,0815;0,0203877
2452,0457;0,0204123
2453,0100;0,0204463
2453,9741;0,02048
2454,9385;0,0205034
2455,9026;0,0205112
2456,8669;0,0205055
2457,8311;0,0204942
2458,7954;0,0204854
2459,7595;0,0204833
2460,7239;0,0204865
2461,6880;0,0204914
2462,6523;0,0204967
2463,6165;0,0205048
2464,5808;0,0205197
2465,5449;0,0205428
2466,5093;0,0205706
2467,4734;0,0205975
2468,4377;0,0206203
2469,4019;0,0206425
2470,3662;0,0206721
2471,3303;0,0207165
2472,2947;0,0207753
2473,2588;0,0208384
2474,2231;0,02089
2475,1873;0,0209162
2476,1516;0,0209128
2477,1157;0,0208868
2478,0801;0,020853
2479,0442;0,0208264
2480,0085;0,0208158
2480,9727;0,0208208
2481,9370;0,0208344
2482,9011;0,0208481
2483,8655;0,0208578
2484,8296;0,0208655
2485,7939;0,0208769
2486,7581;0,0208957
2487,7224;0,0209197
2488,6865;0,0209403
2489,6509;0,0209482
2490,6150;0,0209397
2491,5793;0,0209207
2492,5435;0,0209045
2493,5078;0,0209047
2494,4719;0,0209281
2495,4363;0,0209709
2496,4004;0,0210206
2497,3647;0,0210624
2498,3289;0,0210851
2499,2932;0,0210845
2500,2573;0,021064
2501,2217;0,0210328
2502,1858;0,0210031
2503,1501;0,0209857
2504,1143;0,0209873
2505,0786;0,0210077
2506,0427;0,0210404
2507,0071;0,0210761
2507,9712;0,0211075
2508,9355;0,0211322
2509,8997;0,0211528
2510,8640;0,0211723
2511,8281;0,0211905
2512,7925;0,0212025
2513,7566;0,0212021
2514,7209;0,0211867
2515,6851;0,0211602
2516,6494;0,0211326
2517,6135;0,0211151
2518,5779;0,0211152
2519,5420;0,0211334
2520,5063;0,0211646
2521,4705;0,0212011
2522,4348;0,0212363
2523,3989;0,0212659
2524,3633;0,0212877
2525,3274;0,0213007
2526,2917;0,0213045
2527,2559;0,0212998
2528,2202;0,0212896
2529,1843;0,0212792
2530,1487;0,0212756
2531,1128;0,0212845
2532,0771;0,0213073
2533,0413;0,0213387
2534,0056;0,0213678
2534,9697;0,021383
2535,9341;0,0213784
2536,8982;0,021358
2537,8625;0,0213349
2538,8267;0,0213244
2539,7910;0,0213352
2540,7551;0,0213643
2541,7195;0,0213993
2542,6836;0,0214262
2543,6479;0,0214379
2544,6121;0,0214381
2545,5764;0,0214372
2546,5405;0,0214442
2547,5049;0,0214608
2548,4690;0,0214803
2549,4333;0,0214925
2550,3975;0,0214906
2551,3618;0,0214753
2552,3259;0,0214548
2553,2903;0,0214403
2554,2544;0,0214406
2555,2188;0,0214591
2556,1829;0,0214923
2557,1472;0,0215323
2558,1113;0,0215697
2559,0757;0,0215974
2560,0398;0,0216119
2561,0042;0,0216133
2561,9683;0,0216036
2562,9326;0,0215853
2563,8967;0,0215618
2564,8611;0,0215375
2565,8252;0,0215183
2566,7896;0,0215094
2567,7537;0,0215123
2568,7180;0,021523
2569,6821;0,0215333
2570,6465;0,0215361
2571,6106;0,0215296
2572,5750;0,021519
2573,5391;0,0215129
2574,5034;0,021517
2575,4675;0,0215304
2576,4319;0,0215461
2577,3960;0,0215569
2578,3604;0,0215607
2579,3245;0,0215628
2580,2888;0,0215717
2581,2529;0,0215934
2582,2173;0,0216266
2583,1814;0,0216633
2584,1458;0,0216926
2585,1099;0,0217071
2586,0742;0,0217061
2587,0383;0,0216947
2588,0027;0,0216809
2588,9668;0,0216709
2589,9312;0,0216683
2590,8953;0,0216736
2591,8596;0,0216863
2592,8237;0,0217063
2593,7881;0,0217334
2594,7522;0,0217662
2595,7166;0,0218007
2596,6807;0,0218314
2597,6450;0,0218538
2598,6091;0,0218672
2599,5735;0,0218761
2600,5376;0,021888
2601,5020;0,0219103
2602,4661;0,0219458
2603,4304;0,0219909
2604,3945;0,0220368
2605,3589;0,0220737
2606,3230;0,0220953
2607,2874;0,0221015
2608,2515;0,0220985
2609,2158;0,0220954
2610,1799;0,0220994
2611,1443;0,0221126
2612,1084;0,0221314
2613,0728;0,0221495
2614,0369;0,0221618
2615,0012;0,0221668
2615,9653;0,0221667
2616,9297;0,0221655
2617,8938;0,0221668
2618,8582;0,0221729
2619,8223;0,0221859
2620,7866;0,0222074
2621,7507;0,0222375
2622,7151;0,0222735
2623,6792;0,022309
2624,6436;0,0223363
2625,6077;0,0223505
2626,5720;0,0223527
2627,5361;0,0223497
2628,5005;0,0223499
2629,4646;0,0223591
2630,4290;0,0223774
2631,3931;0,0224008
2632,3574;0,0224248
2633,3215;0,022447
2634,2859;0,022467
2635,2500;0,0224847
2636,2144;0,0224993
2637,1785;0,0225105
2638,1428;0,0225198
2639,1069;0,0225313
2640,0713;0,0225497
2641,0354;0,0225765
2641,9998;0,0226087
2642,9639;0,02264
2643,9282;0,0226649
2644,8923;0,0226827
2645,8567;0,0226973
2646,8208;0,0227139
2647,7852;0,0227353
2648,7493;0,0227591
2649,7136;0,0227804
2650,6777;0,0227953
2651,6421;0,0228037
2652,6062;0,0228094
2653,5706;0,0228172
2654,5347;0,02283
2655,4990;0,0228472
2656,4631;0,0228662
2657,4275;0,0228841
2658,3916;0,0228996
2659,3560;0,0229129
2660,3201;0,0229247
2661,2844;0,0229354
2662,2485;0,022945
2663,2129;0,0229534
2664,1770;0,0229611
2665,1414;0,0229693
2666,1055;0,0229791
2667,0698;0,0229906
2668,0339;0,0230027
2668,9983;0,0230136
2669,9624;0,023022
2670,9268;0,0230285
2671,8909;0,023036
2672,8552;0,0230483
2673,8193;0,0230685
2674,7837;0,0230966
2675,7478;0,0231292
2676,7122;0,0231607
2677,6763;0,023186
2678,6406;0,0232034
2679,6047;0,0232152
2680,5691;0,0232268
2681,5332;0,0232434
2682,4976;0,0232681
2683,4617;0,0233002
2684,4260;0,0233358
2685,3901;0,02337
2686,3545;0,0233987
2687,3186;0,0234202
2688,2830;0,0234359
2689,2471;0,0234493
2690,2114;0,0234646
2691,1755;0,0234847
2692,1399;0,0235096
2693,1040;0,0235363
2694,0684;0,0235602
2695,0325;0,0235779
2695,9968;0,0235895
2696,9609;0,0235988
2697,9253;0,0236116
2698,8894;0,0236324
2699,8538;0,0236622
2700,8179;0,0236978
2701,7822;0,0237343
2702,7463;0,0237672
2703,7107;0,0237951
2704,6748;0,0238193
2705,6392;0,0238428
2706,6033;0,0238675
2707,5676;0,0238934
2708,5317;0,0239188
2709,4961;0,0239414
2710,4602;0,0239608
2711,4246;0,0239789
2712,3887;0,023999
2713,3530;0,024024
2714,3171;0,0240544
2715,2815;0,0240874
2716,2456;0,0241189
2717,2100;0,0241449
2718,1741;0,024164
2719,1384;0,0241775
2720,1025;0,0241882
2721,0669;0,0241978
2722,0310;0,0242066
2722,9954;0,0242135
2723,9595;0,0242184
2724,9238;0,0242232
2725,8879;0,0242322
2726,8523;0,0242504
2727,8164;0,0242808
2728,7808;0,0243229
2729,7449;0,0243724
2730,7092;0,0244223
2731,6733;0,0244653
2732,6377;0,0244953
2733,6018;0,0245095
2734,5662;0,0245088
2735,5303;0,0244978
2736,4946;0,0244838
2737,4587;0,0244749
2738,4231;0,024477
2739,3872;0,0244923
2740,3516;0,024519
2741,3157;0,0245518
2742,2800;0,0245843
2743,2441;0,0246109
2744,2085;0,0246282
2745,1726;0,0246359
2746,1370;0,0246366
2747,1011;0,0246357
2748,0654;0,0246395
2749,0295;0,0246536
2749,9939;0,0246798
2750,9580;0,0247153
2751,9224;0,0247536
2752,8865;0,0247871
2753,8508;0,0248108
2754,8149;0,0248246
2755,7793;0,0248324
2756,7434;0,0248405
2757,7078;0,0248539
2758,6719;0,024875
2759,6362;0,0249035
2760,6003;0,0249378
2761,5647;0,024976
2762,5288;0,025016
2763,4932;0,0250552
2764,4573;0,0250903
2765,4216;0,0251187
2766,3857;0,0251395
2767,3501;0,0251551
2768,3142;0,0251701
2769,2786;0,0251889
2770,2427;0,0252135
2771,2070;0,0252425
2772,1711;0,025273
2773,1355;0,0253026
2774,0996;0,025332
2775,0640;0,0253639
2776,0281;0,0254014
2776,9924;0,0254452
2777,9565;0,025493
2778,9209;0,0255407
2779,8850;0,0255848
2780,8494;0,0256239
2781,8135;0,0256586
2782,7778;0,0256898
2783,7419;0,0257187
2784,7063;0,0257461
2785,6704;0,0257735
2786,6348;0,0258037
2787,5989;0,0258398
2788,5632;0,0258843
2789,5273;0,0259372
2790,4917;0,0259959
2791,4558;0,0260564
2792,4202;0,0261143
2793,3843;0,0261668
2794,3486;0,0262133
2795,3127;0,0262553
2796,2771;0,0262965
2797,2412;0,026341
2798,2056;0,0263917
2799,1697;0,0264494
2800,1340;0,0265126
2801,0981;0,0265784
2802,0625;0,0266449
2803,0266;0,026712
2803,9910;0,0267809
2804,9551;0,0268531
2805,9194;0,0269284
2806,8835;0,0270052
2807,8479;0,0270814
2808,8120;0,0271556
2809,7764;0,0272283
2810,7405;0,0273007
2811,7048;0,0273739
2812,6689;0,0274481
2813,6333;0,0275229
2814,5974;0,0275985
2815,5618;0,027676
2816,5259;0,0277575
2817,4902;0,0278448
2818,4543;0,0279387
2819,4187;0,0280391
2820,3828;0,0281448
2821,3472;0,0282548
2822,3113;0,0283681
2823,2756;0,0284837
2824,2397;0,0286007
2825,2041;0,0287187
2826,1682;0,0288382
2827,1326;0,0289613
2828,0967;0,0290912
2829,0610;0,0292316
2830,0251;0,0293847
2830,9895;0,0295508
2831,9536;0,0297273
2832,9180;0,0299091
2833,8821;0,0300911
2834,8464;0,0302708
2835,8105;0,0304497
2836,7749;0,0306344
2837,7390;0,0308344
2838,7034;0,0310589
2839,6675;0,0313142
2840,6318;0,0316027
2841,5959;0,0319246
2842,5603;0,0322786
2843,5244;0,032662
2844,4888;0,0330679
2845,4529;0,0334813
2846,4172;0,0338776
2847,3813;0,0342257
2848,3457;0,0344947
2849,3098;0,0346633
2850,2742;0,0347259
2851,2383;0,0346947
2852,2026;0,0345958
2853,1667;0,0344616
2854,1311;0,0343232
2855,0952;0,0342037
2856,0596;0,0341149
2857,0237;0,0340581
2857,9880;0,0340268
2858,9521;0,0340125
2859,9165;0,0340087
2860,8806;0,0340139
2861,8450;0,0340314
2862,8091;0,0340672
2863,7734;0,0341269
2864,7375;0,034213
2865,7019;0,0343222
2866,6660;0,0344457
2867,6304;0,0345707
2868,5945;0,0346832
2869,5588;0,0347731
2870,5229;0,0348368
2871,4873;0,0348783
2872,4514;0,0349069
2873,4158;0,0349339
2874,3799;0,0349682
2875,3442;0,0350147
2876,3083;0,0350736
2877,2727;0,0351418
2878,2368;0,0352144
2879,2012;0,0352866
2880,1653;0,0353549
2881,1296;0,0354186
2882,0938;0,0354799
2883,0581;0,0355432
2884,0222;0,0356121
2884,9866;0,0356879
2885,9507;0,0357685
2886,9150;0,0358498
2887,8792;0,0359283
2888,8435;0,0360031
2889,8076;0,0360757
2890,7720;0,0361487
2891,7361;0,0362239
2892,7004;0,0363018
2893,6646;0,0363822
2894,6289;0,0364652
2895,5930;0,0365513
2896,5574;0,0366403
2897,5215;0,0367293
2898,4858;0,0368127
2899,4500;0,0368848
2900,4143;0,0369419
2901,3784;0,0369855
2902,3428;0,0370219
2903,3069;0,0370598
2904,2712;0,0371073
2905,2354;0,0371701
2906,1997;0,0372518
2907,1638;0,0373556
2908,1282;0,0374852
2909,0923;0,0376444
2910,0566;0,0378343
2911,0208;0,0380504
2911,9851;0,03828
2912,9492;0,0385032
2913,9136;0,0386965
2914,8777;0,0388384
2915,8420;0,0389142
2916,8062;0,0389184
2917,7705;0,0388537
2918,7346;0,0387273
2919,6990;0,038548
2920,6631;0,0383251
2921,6274;0,0380692
2922,5916;0,0377934
2923,5559;0,0375133
2924,5200;0,0372423
2925,4844;0,0369877
2926,4485;0,0367485
2927,4128;0,0365177
2928,3770;0,0362881
2929,3413;0,0360581
2930,3054;0,0358322
2931,2698;0,0356181
2932,2339;0,0354206
2933,1982;0,0352388
2934,1624;0,0350666
2935,1267;0,0348969
2936,0908;0,0347259
2937,0552;0,0345544
2938,0193;0,0343854
2938,9836;0,0342208
2939,9478;0,0340592
2940,9121;0,0338964
2941,8762;0,0337273
2942,8406;0,0335493
2943,8047;0,0333631
2944,7690;0,0331722
2945,7332;0,0329818
2946,6975;0,0327967
2947,6616;0,0326209
2948,6260;0,0324575
2949,5901;0,0323085
2950,5544;0,0321752
2951,5186;0,032057
2952,4829;0,031951
2953,4470;0,0318526
2954,4114;0,0317559
2955,3755;0,0316558
2956,3398;0,0315487
2957,3040;0,0314332
2958,2683;0,0313095
2959,2324;0,0311794
2960,1968;0,031046
2961,1609;0,0309133
2962,1252;0,0307859
2963,0894;0,0306674
2964,0537;0,0305582
2965,0178;0,0304556
2965,9822;0,030354
2966,9463;0,0302475
2967,9106;0,0301317
2968,8748;0,0300047
2969,8391;0,0298672
2970,8032;0,0297213
2971,7676;0,0295711
2972,7317;0,0294231
2973,6960;0,0292849
2974,6602;0,0291638
2975,6245;0,0290629
2976,5886;0,0289795
2977,5530;0,0289064
2978,5171;0,0288359
2979,4814;0,0287648
2980,4456;0,0286961
2981,4099;0,0286372
2982,3740;0,0285941
2983,3384;0,0285674
2984,3025;0,0285513
2985,2668;0,0285365
2986,2310;0,028515
2987,1953;0,0284838
2988,1594;0,0284449
2989,1238;0,0284041
2990,0879;0,0283679
2991,0522;0,0283417
2992,0164;0,0283283
2992,9807;0,0283279
2993,9448;0,028338
2994,9092;0,0283548
2995,8733;0,0283747
2996,8376;0,0283958
2997,8018;0,0284182
2998,7661;0,0284429
2999,7302;0,0284694
3000,6946;0,0284959
3001,6587;0,0285198
3002,6230;0,028541
3003,5872;0,0285625
3004,5515;0,0285898
3005,5156;0,0286274
3006,4800;0,0286747
3007,4441;0,0287254
3008,4084;0,0287705
3009,3726;0,0288035
3010,3369;0,0288246
3011,3010;0,0288415
3012,2654;0,028865
3013,2295;0,0289031
3014,1938;0,0289557
3015,1580;0,0290159
3016,1223;0,0290746
3017,0864;0,0291269
3018,0508;0,0291747
3019,0149;0,0292245
3019,9792;0,0292825
3020,9434;0,0293495
3021,9077;0,02942
3022,8718;0,0294871
3023,8362;0,0295466
3024,8003;0,0296011
3025,7646;0,0296572
3026,7288;0,0297212
3027,6931;0,0297941
3028,6572;0,0298706
3029,6216;0,029942
3030,5857;0,0300013
3031,5500;0,0300475
3032,5142;0,0300857
3033,4785;0,0301249
3034,4426;0,0301737
3035,4070;0,0302367
3036,3711;0,0303134
3037,3354;0,0303987
3038,2996;0,0304858
3039,2639;0,0305687
3040,2280;0,030645
3041,1924;0,0307162
3042,1565;0,0307863
3043,1208;0,0308593
3044,0850;0,0309358
3045,0493;0,0310134
3046,0134;0,0310886
3046,9778;0,0311606
3047,9419;0,0312337
3048,9063;0,0313153
3049,8704;0,0314117
3050,8347;0,0315225
3051,7988;0,0316399
3052,7632;0,0317513
3053,7273;0,031846
3054,6917;0,0319204
3055,6558;0,0319799
3056,6201;0,0320363
3057,5842;0,0321014
3058,5486;0,032183
3059,5127;0,0322822
3060,4771;0,0323942
3061,4412;0,0325106
3062,4055;0,0326217
3063,3696;0,0327189
3064,3340;0,0327977
3065,2981;0,0328589
3066,2625;0,0329094
3067,2266;0,0329596
3068,1909;0,0330194
3069,1550;0,0330945
3070,1194;0,0331853
3071,0835;0,033288
3072,0479;0,0333966
3073,0120;0,0335053
3073,9763;0,0336089
3074,9404;0,0337039
3075,9048;0,0337887
3076,8689;0,0338639
3077,8333;0,0339325
3078,7974;0,0339994
3079,7617;0,0340694
3080,7258;0,0341461
3081,6902;0,034231
3082,6543;0,0343229
3083,6187;0,0344186
3084,5828;0,0345135
3085,5471;0,0346036
3086,5112;0,0346867
3087,4756;0,0347636
3088,4397;0,0348379
3089,4041;0,0349132
3090,3682;0,0349912
3091,3325;0,0350709
3092,2966;0,0351503
3093,2610;0,0352288
3094,2251;0,035309
3095,1895;0,0353952
3096,1536;0,0354901
3097,1179;0,0355916
3098,0820;0,0356935
3099,0464;0,0357887
3100,0105;0,0358744
3100,9749;0,0359544
3101,9390;0,0360377
3102,9033;0,036133
3103,8674;0,0362436
3104,8318;0,036365
3105,7959;0,0364878
3106,7603;0,0366028
3107,7244;0,0367063
3108,6887;0,0368016
3109,6528;0,0368959
3110,6172;0,0369955
3111,5813;0,0371005
3112,5457;0,0372049
3113,5098;0,0373007
3114,4741;0,0373838
3115,4382;0,0374575
3116,4026;0,0375313
3117,3667;0,0376152
3118,3311;0,0377139
3119,2952;0,0378245
3120,2595;0,0379391
3121,2236;0,0380498
3122,1880;0,0381532
3123,1521;0,0382514
3124,1165;0,03835
3125,0806;0,0384545
3126,0449;0,038568
3127,0090;0,0386899
3127,9734;0,0388161
3128,9375;0,0389406
3129,9019;0,0390567
3130,8660;0,03916
3131,8303;0,039251
3132,7944;0,0393353
3133,7588;0,0394223
3134,7229;0,0395207
3135,6873;0,0396347
3136,6514;0,039763
3137,6157;0,0399004
3138,5798;0,0400406
3139,5442;0,0401789
3140,5083;0,0403128
3141,4727;0,0404411
3142,4368;0,0405632
3143,4011;0,0406796
3144,3652;0,040793
3145,3296;0,0409082
3146,2937;0,0410305
3147,2581;0,0411626
3148,2222;0,0413024
3149,1865;0,0414423
3150,1506;0,0415729
3151,1150;0,0416874
3152,0791;0,0417854
3153,0435;0,0418738
3154,0076;0,0419639
3154,9719;0,0420658
3155,9360;0,0421846
3156,9004;0,0423185
3157,8645;0,0424614
3158,8289;0,0426058
3159,7930;0,0427461
3160,7573;0,0428795
3161,7214;0,043005
3162,6858;0,0431232
3163,6499;0,0432358
3164,6143;0,0433465
3165,5784;0,0434604
3166,5427;0,043583
3167,5068;0,0437168
3168,4712;0,0438603
3169,4353;0,0439998
3170,3997;0,0441449
3171,3638;0,0442832
3172,3281;0,0444141
3173,2922;0,0445396
3174,2566;0,044662
3175,2207;0,0447824
3176,1851;0,0449008
3177,1492;0,045018
3178,1135;0,0451363
3179,0776;0,0452589
3180,0420;0,0453878
3181,0061;0,0455215
3181,9705;0,0456556
3182,9346;0,0457851
3183,8989;0,045907
3184,8630;0,0460224
3185,8274;0,0461352
3186,7915;0,0462501
3187,7559;0,0463703
3188,7200;0,0464967
3189,6843;0,0466281
3190,6484;0,0467617
3191,6128;0,0468936
3192,5769;0,0470195
3193,5413;0,0471358
3194,5054;0,0472419
3195,4697;0,047342
3196,4338;0,0474444
3197,3982;0,0475581
3198,3623;0,0476876
3199,3267;0,0478302
3200,2908;0,047977
3201,2551;0,0481177
3202,2192;0,0482459
3203,1836;0,048362
3204,1477;0,0484722
3205,1121;0,0485835
3206,0762;0,0486996
3207,0405;0,0488189
3208,0046;0,0489364
3208,9690;0,0490477
3209,9331;0,0491522
3210,8975;0,0492541
3211,8616;0,0493601
3212,8259;0,0494759
3213,7900;0,0496028
3214,7544;0,0497372
3215,7185;0,049872
3216,6829;0,0500004
3217,6470;0,0501186
3218,6113;0,0502276
3219,5754;0,050332
3220,5398;0,0504374
3221,5039;0,0505476
3222,4683;0,0506632
3223,4324;0,0507824
3224,3967;0,0509025
3225,3608;0,0510219
3226,3252;0,0511401
3227,2893;0,051258
3228,2537;0,0513764
3229,2178;0,0514966
3230,1821;0,0516194
3231,1462;0,0517455
3232,1106;0,0518745
3233,0747;0,0520054
3234,0391;0,0521366
3235,0032;0,0522679
3235,9675;0,0524012
3236,9316;0,0525395
3237,8960;0,052685
3238,8601;0,0528358
3239,8245;0,0529851
3240,7886;0,0531234
3241,7529;0,0532432
3242,7170;0,0533435
3243,6814;0,0534316
3244,6455;0,0535211
3245,6099;0,0536266
3246,5740;0,0537573
3247,5383;0,0539146
3248,5024;0,0540914
3249,4668;0,0542754
3250,4309;0,0544529
3251,3953;0,0546135
3252,3594;0,0547527
3253,3237;0,0548742
3254,2878;0,0549883
3255,2522;0,055108
3256,2163;0,0552431
3257,1807;0,0553959
3258,1448;0,0555607
3259,1091;0,0557271
3260,0732;0,0558857
3261,0376;0,0560321
3262,0017;0,0561684
3262,9661;0,0563003
3263,9302;0,0564333
3264,8945;0,0565695
3265,8586;0,0567063
3266,8230;0,0568382
3267,7871;0,0569593
3268,7515;0,0570652
3269,7156;0,0571543
3270,6799;0,0572273
3271,6440;0,0572873
3272,6084;0,0573388
3273,5725;0,0573874
3274,5369;0,057438
3275,5010;0,0574939
3276,4653;0,0575552
3277,4294;0,0576193
3278,3938;0,0576817
3279,3579;0,0577383
3280,3223;0,0577874
3281,2864;0,0578305
3282,2507;0,0578713
3283,2148;0,0579138
3284,1792;0,0579601
3285,1433;0,0580091
3286,1077;0,0580575
3287,0718;0,0581008
3288,0361;0,0581358
3289,0002;0,0581614
3289,9646;0,0581777
3290,9287;0,0581851
3291,8931;0,0581839
3292,8572;0,0581742
3293,8215;0,0581571
3294,7856;0,0581354
3295,7500;0,0581128
3296,7141;0,0580929
3297,6785;0,0580771
3298,6426;0,0580648
3299,6069;0,0580545
3300,5710;0,0580461
3301,5354;0,0580415
3302,4995;0,0580436
3303,4639;0,0580531
3304,4280;0,0580664
3305,3923;0,0580761
3306,3564;0,0580749
3307,3208;0,0580595
3308,2849;0,0580337
3309,2493;0,0580062
3310,2134;0,0579867
3311,1777;0,0579803
3312,1418;0,0579862
3313,1062;0,0579998
3314,0703;0,0580169
3315,0347;0,0580366
3315,9988;0,0580627
3316,9631;0,0581011
3317,9272;0,0581559
3318,8916;0,0582276
3319,8557;0,0583116
3320,8201;0,0584
3321,7842;0,058484
3322,7485;0,0585573
3323,7126;0,0586178
3324,6770;0,0586686
3325,6411;0,0587163
3326,6055;0,0587683
3327,5696;0,058829
3328,5339;0,0588985
3329,4980;0,0589727
3330,4624;0,0590449
3331,4265;0,0591089
3332,3909;0,0591594
3333,3550;0,0591923
3334,3193;0,0592038
3335,2834;0,0591905
3336,2478;0,0591509
3337,2119;0,0590863
3338,1763;0,0590022
3339,1404;0,0589055
3340,1047;0,0588021
3341,0688;0,0586942
3342,0332;0,0585805
3342,9973;0,0584583
3343,9617;0,0583268
3344,9258;0,0581889
3345,8901;0,05805
3346,8542;0,057915
3347,8186;0,0577844
3348,7827;0,0576539
3349,7471;0,0575161
3350,7112;0,0573662
3351,6755;0,0572051
3352,6396;0,0570398
3353,6040;0,0568797
3354,5681;0,056731
3355,5325;0,0565936
3356,4966;0,0564625
3357,4609;0,0563326
3358,4250;0,0562037
3359,3894;0,0560801
3360,3535;0,0559671
3361,3179;0,0558649
3362,2820;0,0557659
3363,2463;0,055658
3364,2104;0,055531
3365,1748;0,0553822
3366,1389;0,0552177
3367,1033;0,0550481
3368,0674;0,0548829
3369,0317;0,054727
3369,9958;0,0545815
3370,9602;0,0544453
3371,9243;0,0543175
3372,8887;0,0541964
3373,8528;0,0540792
3374,8171;0,0539618
3375,7813;0,053841
3376,7456;0,0537168
3377,7097;0,0535918
3378,6741;0,0534679
3379,6382;0,0533433
3380,6025;0,0532125
3381,5667;0,0530698
3382,5310;0,0529156
3383,4951;0,0527593
3384,4595;0,0526163
3385,4236;0,0525002
3386,3879;0,0524149
3387,3521;0,0523521
3388,3164;0,0522957
3389,2805;0,0522296
3390,2449;0,0521444
3391,2090;0,0520392
3392,1733;0,0519185
3393,1375;0,0517879
3394,1018;0,051652
3395,0659;0,0515148
3396,0303;0,0513811
3396,9944;0,051257
3397,9587;0,051146
3398,9229;0,0510459
3399,8872;0,0509483
3400,8513;0,0508426
3401,8157;0,050722
3402,7798;0,050587
3403,7441;0,0504445
3404,7083;0,0503029
3405,6726;0,0501665
3406,6367;0,0500336
3407,6011;0,0498989
3408,5652;0,049757
3409,5295;0,0496051
3410,4937;0,0494433
3411,4580;0,0492745
3412,4221;0,0491029
3413,3865;0,0489335
3414,3506;0,0487704
3415,3149;0,0486138
3416,2791;0,0484583
3417,2434;0,0482948
3418,2075;0,0481153
3419,1719;0,0479185
3420,1360;0,0477129
3421,1003;0,0475123
3422,0645;0,0473281
3423,0288;0,0471622
3423,9929;0,0470068
3424,9573;0,0468507
3425,9214;0,0466861
3426,8857;0,0465126
3427,8499;0,0463353
3428,8142;0,0461594
3429,7783;0,0459858
3430,7427;0,0458115
3431,7068;0,0456335
3432,6711;0,0454522
3433,6353;0,0452718
3434,5996;0,0450972
3435,5637;0,0449289
3436,5281;0,0447625
3437,4922;0,0445922
3438,4565;0,0444162
3439,4207;0,0442393
3440,3850;0,0440699
3441,3491;0,0439123
3442,3135;0,0437607
3443,2776;0,0436002
3444,2419;0,0434153
3445,2061;0,0432006
3446,1704;0,0429674
3447,1345;0,0427383
3448,0989;0,0425342
3449,0630;0,0423619
3450,0273;0,0422114
3450,9915;0,0420647
3451,9558;0,0419066
3452,9199;0,0417322
3453,8843;0,0415476
3454,8484;0,0413642
3455,8127;0,0411914
3456,7769;0,041031
3457,7412;0,0408778
3458,7053;0,0407224
3459,6697;0,0405567
3460,6338;0,0403775
3461,5981;0,0401877
3462,5623;0,0399939
3463,5266;0,0398032
3464,4907;0,0396191
3465,4551;0,0394411
3466,4192;0,0392662
3467,3835;0,0390921
3468,3477;0,0389188
3469,3120;0,0387472
3470,2761;0,0385772
3471,2405;0,0384065
3472,2046;0,0382321
3473,1689;0,0380541
3474,1331;0,0378764
3475,0974;0,037705
3476,0615;0,0375418
3477,0259;0,0373812
3477,9900;0,0372117
3478,9543;0,0370236
3479,9185;0,0368172
3480,8828;0,0366057
3481,8469;0,0364084
3482,8113;0,0362384
3483,7754;0,036093
3484,7397;0,035956
3485,7039;0,0358081
3486,6682;0,0356401
3487,6323;0,0354583
3488,5967;0,035281
3489,5608;0,0351249
3490,5251;0,0349934
3491,4893;0,0348731
3492,4536;0,0347427
3493,4177;0,0345869
3494,3821;0,0344081
3495,3462;0,0342279
3496,3105;0,0340739
3497,2747;0,0339598
3498,2390;0,0338731
3499,2031;0,0337795
3500,1675;0,0336405
3501,1316;0,0334378
3502,0959;0,0331875
3503,0601;0,0329345
3504,0244;0,0327227
3504,9885;0,0325663
3505,9529;0,032444
3506,9170;0,0323178
3507,8813;0,0321594
3508,8455;0,031967
3509,8098;0,0317653
3510,7739;0,0315854
3511,7383;0,0314424
3512,7024;0,031327
3513,6667;0,0312165
3514,6309;0,0310934
3515,5952;0,0309566
3516,5593;0,0308195
3517,5237;0,0306975
3518,4878;0,0305949
3519,4521;0,0305013
3520,4163;0,0303988
3521,3806;0,0302733
3522,3447;0,0301221
3523,3091;0,0299517
3524,2732;0,0297688
3525,2375;0,0295741
3526,2017;0,0293657
3527,1660;0,0291482
3528,1301;0,0289385
3529,0945;0,0287597
3530,0586;0,0286254
3531,0229;0,0285282
3531,9871;0,0284414
3532,9514;0,0283328
3533,9155;0,0281826
3534,8799;0,0279954
3535,8440;0,0278019
3536,8083;0,0276435
3537,7725;0,0275502
3538,7368;0,0275239
3539,7009;0,0275369
3540,6653;0,0275425
3541,6294;0,0274902
3542,5938;0,0273429
3543,5579;0,0270951
3544,5222;0,0267861
3545,4863;0,0264883
3546,4507;0,0262666
3547,4148;0,0261388
3548,3792;0,0260701
3549,3433;0,0260009
3550,3076;0,0258812
3551,2717;0,0256966
3552,2361;0,025475
3553,2002;0,0252688
3554,1646;0,0251193
3555,1287;0,0250316
3556,0930;0,0249785
3557,0571;0,0249244
3558,0215;0,0248514
3558,9856;0,0247721
3559,9500;0,0247207
3560,9141;0,0247244
3561,8784;0,0247748
3562,8425;0,0248161
3563,8069;0,0247569
3564,7710;0,0245076
3565,7354;0,0240503
3566,6995;0,0234963
3567,6638;0,023034
3568,6279;0,0227827
3569,5923;0,0227263
3570,5564;0,0227716
3571,5208;0,0228237
3572,4849;0,0228218
3573,4492;0,0227483
3574,4133;0,0226213
3575,3777;0,0224746
3576,3418;0,0223338
3577,3062;0,0222075
3578,2703;0,0220992
3579,2346;0,0220222
3580,1987;0,0220004
3581,1631;0,0220478
3582,1272;0,0221455
3583,0916;0,0222333
3584,0557;0,0222219
3585,0200;0,0220307
3585,9841;0,0216521
3586,9485;0,0212011
3587,9126;0,0208582
3588,8770;0,020725
3589,8411;0,0207625
3590,8054;0,0208573
3591,7695;0,0209026
3592,7339;0,020842
3593,6980;0,0206843
3594,6624;0,0204915
3595,6265;0,0203295
3596,5908;0,0202173
3597,5549;0,020122
3598,5193;0,0200007
3599,4834;0,0198463
3600,4478;0,0196991
3601,4119;0,019615
3602,3762;0,0196183
3603,3403;0,0196822
3604,3047;0,0197457
3605,2688;0,019746
3606,2332;0,0196502
3607,1973;0,0194728
3608,1616;0,0192656
3609,1257;0,0190786
3610,0901;0,01893
3611,0542;0,0188138
3612,0186;0,0187244
3612,9827;0,0186673
3613,9470;0,0186445
3614,9111;0,0186325
3615,8755;0,0185768
3616,8396;0,0184152
3617,8040;0,018126
3618,7681;0,0177744
3619,7324;0,0174996
3620,6965;0,0174239
3621,6609;0,017572
3622,6250;0,0178801
3623,5894;0,0182453
3624,5535;0,0185518
3625,5178;0,0186715
3626,4819;0,0184846
3627,4463;0,0179649
3628,4104;0,0172847
3629,3748;0,0167324
3630,3389;0,0164531
3631,3032;0,0163797
3632,2673;0,0163797
3633,2317;0,0163646
3634,1958;0,0163079
3635,1602;0,0162251
3636,1243;0,0161428
3637,0886;0,0160749
3638,0527;0,0160188
3639,0171;0,015972
3639,9812;0,0159514
3640,9456;0,0159943
3641,9097;0,0161375
3642,8740;0,0163885
3643,8381;0,0167074
3644,8025;0,0169985
3645,7666;0,0171093
3646,7310;0,0168598
3647,6951;0,0161762
3648,6594;0,015294
3649,6235;0,0146581
3650,5879;0,0144732
3651,5520;0,0146015
3652,5164;0,0148161
3653,4805;0,0149515
3654,4448;0,0149243
3655,4089;0,0147394
3656,3733;0,0144879
3657,3374;0,0142895
3658,3018;0,0142061
3659,2659;0,0142168
3660,2302;0,0142665
3661,1943;0,0143243
3662,1587;0,0144052
3663,1228;0,0145487
3664,0872;0,0147749
3665,0513;0,0150522
3666,0156;0,0152999
3666,9797;0,0154215
3667,9441;0,0153676
3668,9082;0,0152027
3669,8726;0,0150824
3670,8367;0,0151094
3671,8010;0,0152322
3672,7651;0,0152894
3673,7295;0,0151184
3674,6936;0,014676
3675,6580;0,0141186
3676,6221;0,0136964
3677,5864;0,0135277
3678,5505;0,0135568
3679,5149;0,0136808
3680,4790;0,0138393
3681,4434;0,0140254
3682,4075;0,0142576
3683,3718;0,0145434
3684,3359;0,0148527
3685,3003;0,0151103
3686,2644;0,0152097
3687,2288;0,0150588
3688,1929;0,0146655
3689,1572;0,0141962
3690,1213;0,01387
3691,0857;0,0137763
3692,0498;0,0138578
3693,0142;0,0140196
3693,9783;0,0141985
3694,9426;0,0143677
3695,9067;0,0145181
3696,8711;0,014638
3697,8352;0,0147048
3698,7996;0,014692
3699,7637;0,0145919
3700,7280;0,0144415
3701,6921;0,0143223
3702,6565;0,0143168
3703,6206;0,0144574
3704,5850;0,0147143
3705,5491;0,0150204
3706,5134;0,0152927
3707,4775;0,0154381
3708,4419;0,0153641
3709,4060;0,0150256
3710,3704;0,0145015
3711,3345;0,0139976
3712,2988;0,0137016
3713,2629;0,0136576
3714,2273;0,0138006
3715,1914;0,0140447
3716,1558;0,0143218
3717,1199;0,0145837
3718,0842;0,0147987
3719,0483;0,01495
3720,0127;0,0150352
3720,9768;0,0150599
3721,9412;0,0150324
3722,9053;0,0149665
3723,8696;0,0148904
3724,8337;0,0148492
3725,7981;0,0148884
3726,7622;0,0150292
3727,7266;0,0152595
3728,6907;0,0155427
3729,6550;0,0158271
3730,6191;0,0160471
3731,5835;0,0161204
3732,5476;0,0159619
3733,5120;0,0155403
3734,4761;0,0149607
3735,4404;0,0144559
3736,4045;0,0142255
3737,3689;0,014307
3738,3330;0,0146139
3739,2974;0,0150222
3740,2615;0,0154053
3741,2258;0,0156363
3742,1899;0,015614
3743,1543;0,0153474
3744,1184;0,0150265
3745,0828;0,0148995
3746,0469;0,0150373
3747,0112;0,0152951
3747,9753;0,0154415
3748,9397;0,0152789
3749,9038;0,0147728
3750,8682;0,0141527
3751,8323;0,0137532
3752,7966;0,0137005
3753,7607;0,0138811
3754,7251;0,0141165
3755,6892;0,0142682
3756,6536;0,0142658
3757,6177;0,0141256
3758,5820;0,0139474
3759,5461;0,0138514
3760,5105;0,0138931
3761,4746;0,0140432
3762,4390;0,0142313
3763,4031;0,0143918
3764,3674;0,0144836
3765,3315;0,0144916
3766,2959;0,0144187
3767,2600;0,014277
3768,2244;0,0140878
3769,1885;0,0138904
3770,1528;0,0137419
3771,1169;0,0136944
3772,0813;0,0137655
3773,0454;0,0139279
3774,0098;0,0141242
3774,9739;0,0142873
3775,9382;0,0143605
3776,9023;0,0143195
3777,8667;0,0141926
3778,8308;0,0140511
3779,7952;0,0139618
3780,7593;0,0139418
3781,7236;0,0139613
3782,6877;0,0139779
3783,6521;0,0139651
3784,6162;0,0139226
3785,5806;0,01387
3786,5447;0,0138337
3787,5090;0,0138356
3788,4731;0,0138874
3789,4375;0,0139887
3790,4016;0,014126
3791,3660;0,0142753
3792,3301;0,0144106
3793,2944;0,0145186
3794,2585;0,0146094
3795,2229;0,0147096
3796,1870;0,0148338
3797,1514;0,0149556
3798,1155;0,0150075
3799,0798;0,0149213
3800,0439;0,0146952
3801,0083;0,014428
3801,9724;0,0142518
3802,9368;0,0142114
3803,9009;0,0142334
3804,8652;0,0142016
3805,8293;0,0140522
3806,7937;0,0138327
3807,7578;0,0136809
3808,7222;0,0137166
3809,6863;0,0139533
3810,6506;0,0143123
3811,6147;0,0146835
3812,5791;0,0149678
3813,5432;0,0151098
3814,5076;0,0151275
3815,4717;0,0151036
3816,4360;0,0151073
3817,4001;0,0151203
3818,3645;0,015054
3819,3286;0,0148361
3820,2930;0,0144938
3821,2571;0,0141563
3822,2214;0,0139505
3823,1855;0,0139068
3824,1499;0,0139752
3825,1140;0,0140915
3826,0784;0,0142153
3827,0425;0,0143343
3828,0068;0,0144537
3828,9709;0,0145819
3829,9353;0,0147233
3830,8994;0,0148783
3831,8638;0,0150452
3832,8279;0,0152151
3833,7922;0,015362
3834,7563;0,0154389
3835,7207;0,0153912
3836,6848;0,0151911
3837,6492;0,0148742
3838,6133;0,0145328
3839,5776;0,0142551
3840,5417;0,0140715
3841,5061;0,0139635
3842,4702;0,013909
3843,4346;0,0139129
3844,3987;0,0140065
3845,3630;0,0142248
3846,3271;0,0145806
3847,2915;0,0150531
3848,2556;0,0155842
3849,2200;0,0160682
3850,1841;0,0163364
3851,1484;0,0161775
3852,1125;0,0154947
3853,0769;0,0145558
3854,0410;0,0138623
3855,0054;0,0136323
3855,9695;0,013741
3856,9338;0,0140087
3857,8979;0,0143199
3858,8623;0,0146037
3859,8264;0,0148057
3860,7908;0,0148895
3861,7549;0,0148614
3862,7192;0,0147863
3863,6833;0,0147567
3864,6477;0,0148249
3865,6118;0,0149679
3866,5762;0,0151099
3867,5403;0,0151654
3868,5046;0,0150767
3869,4688;0,0148441
3870,4331;0,0145364
3871,3972;0,014261
3872,3616;0,0141068
3873,3257;0,0141069
3874,2900;0,0142396
3875,2542;0,0144503
3876,2185;0,014672
3877,1826;0,014843
3878,1470;0,0149241
3879,1111;0,0149159
3880,0754;0,0148566
3881,0396;0,0147901
3882,0039;0,0147293
3882,9680;0,0146573
3883,9324;0,0145656
3884,8965;0,0144842
3885,8608;0,0144636
3886,8250;0,0145233
3887,7893;0,0146219
3888,7534;0,0146763
3889,7178;0,0146158
3890,6819;0,0144416
3891,6462;0,0142516
3892,6104;0,0141789
3893,5747;0,0142886
3894,5388;0,0145466
3895,5032;0,0148669
3896,4673;0,0151625
3897,4316;0,0153712
3898,3958;0,015466
3899,3601;0,0154507
3900,3242;0,015338
3901,2886;0,0151308
3902,2527;0,0148363
3903,2170;0,0144968
3904,1812;0,014189
3905,1455;0,0139801
3906,1096;0,0138908
3907,0740;0,0138996
3908,0381;0,0139704
3909,0024;0,0140747
3909,9666;0,0141985
3910,9309;0,014338
3911,8950;0,0144883
3912,8594;0,0146325
3913,8235;0,0147411
3914,7878;0,0147826
3915,7520;0,0147448
3916,7163;0,0146515
3917,6804;0,0145556
3918,6448;0,014505
3919,6089;0,0145101
3920,5732;0,0145435
3921,5374;0,0145631
3922,5017;0,0145416
3923,4658;0,0144866
3924,4302;0,0144381
3925,3943;0,0144391
3926,3586;0,0145015
3927,3228;0,014596
3928,2871;0,0146686
3929,2512;0,0146696
3930,2156;0,0145816
3931,1797;0,0144343
3932,1440;0,0142896
3933,1082;0,0142033
3934,0725;0,0141969
3935,0366;0,0142588
3936,0010;0,014362
3936,9651;0,0144766
3937,9294;0,0145744
3938,8936;0,0146307
3939,8579;0,0146314
3940,8220;0,0145823
3941,7864;0,0145135
3942,7505;0,014465
3943,7148;0,014462
3944,6790;0,0144983
3945,6433;0,0145413
3946,6074;0,0145537
3947,5718;0,0145167
3948,5359;0,0144411
3949,5002;0,0143601
3950,4644;0,0143057
3951,4287;0,01429
3952,3928;0,014304
3953,3572;0,0143308
3954,3213;0,0143586
3955,2856;0,0143848
3956,2498;0,0144118
3957,2141;0,0144395
3958,1782;0,0144631
3959,1426;0,0144753
3960,1067;0,0144731
3961,0710;0,0144605
3962,0352;0,0144473
3962,9995;0,0144425
3963,9636;0,0144493
3964,9280;0,0144648
3965,8921;0,0144822
3966,8564;0,0144949
3967,8206;0,0144989
3968,7849;0,0144934
3969,7490;0,0144796
3970,7134;0,0144596
3971,6775;0,0144363
3972,6418;0,0144135
3973,6060;0,0143965
3974,5703;0,0143911
3975,5344;0,0144012
3976,4988;0,0144264
3977,4629;0,0144606
3978,4272;0,0144938
3979,3914;0,0145156
3980,3557;0,0145195
3981,3198;0,0145059
3982,2842;0,0144819
3983,2483;0,0144582
3984,2126;0,0144448
3985,1768;0,0144477
3986,1411;0,0144673
3987,1052;0,0144992
3988,0696;0,0145356
3989,0337;0,014567
3989,9980;0,0145847
3990,9622;0,0145832
3991,9265;0,0145627
3992,8906;0,0145296
3993,8550;0,0144949
3994,8191;0,0144698
3995,7834;0,0144612
3996,7476;0,0144692
3997,7119;0,0144891
3998,6760;0,014514
3999,6404;0,0145388
4000,6045;0,0144803

##### Extended Information
[Comments]
Sample name
Comment
Username
Division
Organization;UNIVERSIDAD INDUSTRIAL DE SANTANDER

[Detailed Information]
Creation date;18/03/2025 1:30 p.m.

Data array type;Linear data array
Horizontal axis;Wavenumber [cm-1]
Vertical axis;Abs
Start;399,193 cm-1
End;4000,6 cm-1
Data interval;0,964233 cm-1
Data points;3736    

[Measurement Information]
Model name;FT/IR-4X1typeA
Serial No.;A035162111

Accessory;ATR PRO 4X
Accessory S/N;A021162126
Incident angle;45 deg

Measurement date;18/03/2025 1:30 p.m.

Light source;Standard
Detector;TGS
Accumulation;40
Resolution;4 cm-1
Zero filling;On
Apodization;Cosine
Gain;Auto (8)
Aperture;Auto (7 mm)
Scan speed;Auto (2 mm/sec)
Filter;Auto (12800 Hz)

