TITLE;
DATA TYPE;INFRARED SPECTRUM
ORIGIN;JASCO
OWNER;
DATE;25/03/18
TIME;12:22:51
SPECTROMETER/DATA SYSTEM;
LOCALE;9226
RESOLUTION;
DELTAX;0,964233
XUNITS;1/CM
YUNITS;ABSORBANCE
FIRSTX;  399,1927
LASTX; 4000,6047
NPOINTS;    3736
FIRSTY;     0,16832
MAXY;     0,21448
MINY;     0,01045
XYDATA
399,1927;0,168323
400,1569;0,167538
401,1211;0,167721
402,0854;0,168748
403,0496;0,170303
404,0138;0,172016
404,9781;0,17352
405,9423;0,174506
406,9065;0,174795
407,8708;0,174383
408,8350;0,173417
409,7992;0,172165
410,7635;0,170988
411,7277;0,170257
412,6919;0,170208
413,6562;0,170831
414,6204;0,171887
415,5846;0,173006
416,5489;0,173794
417,5131;0,173966
418,4773;0,173597
419,4416;0,173239
420,4058;0,173472
421,3700;0,174381
422,3343;0,175668
423,2985;0,177011
424,2627;0,178217
425,2270;0,179235
426,1912;0,180104
427,1554;0,180897
428,1197;0,181665
429,0839;0,182429
430,0481;0,183187
431,0124;0,183929
431,9766;0,184618
432,9408;0,185171
433,9051;0,185472
434,8693;0,185433
435,8335;0,185068
436,7978;0,184522
437,7620;0,183991
438,7262;0,183599
439,6905;0,183331
440,6547;0,183058
441,6189;0,182636
442,5832;0,182024
443,5474;0,181353
444,5116;0,180863
445,4759;0,180747
446,4401;0,181027
447,4043;0,181544
448,3686;0,182046
449,3328;0,182308
450,2970;0,182227
451,2613;0,181874
452,2255;0,181438
453,1897;0,181116
454,1540;0,180986
455,1182;0,180974
456,0824;0,180895
457,0467;0,18058
458,0109;0,180025
458,9751;0,17942
459,9394;0,179007
460,9036;0,178891
461,8678;0,178986
462,8321;0,179107
463,7963;0,179079
464,7605;0,178821
465,7248;0,178382
466,6890;0,177898
467,6532;0,177504
468,6175;0,177262
469,5817;0,177157
470,5459;0,17714
471,5102;0,177193
472,4744;0,177356
473,4386;0,177695
474,4029;0,17823
475,3671;0,178898
476,3313;0,179568
477,2956;0,180089
478,2598;0,180351
479,2240;0,180317
480,1883;0,180042
481,1525;0,179648
482,1167;0,179283
483,0810;0,17907
484,0452;0,179076
485,0094;0,1793
485,9737;0,179696
486,9379;0,18021
487,9021;0,18081
488,8664;0,181484
489,8306;0,182211
490,7948;0,182929
491,7591;0,18353
492,7233;0,18391
493,6875;0,184032
494,6518;0,18397
495,6160;0,183877
496,5802;0,183906
497,5445;0,184132
498,5087;0,18451
499,4729;0,184905
500,4372;0,185162
501,4014;0,185203
502,3656;0,185074
503,3299;0,184922
504,2941;0,184891
505,2583;0,185044
506,2226;0,185348
507,1868;0,185726
508,1510;0,186119
509,1153;0,186519
510,0795;0,186967
511,0437;0,187512
512,0080;0,188179
512,9722;0,188947
513,9365;0,189757
514,9007;0,190518
515,8649;0,191119
516,8292;0,191458
517,7934;0,191488
518,7576;0,191253
519,7219;0,190888
520,6861;0,190544
521,6503;0,190323
522,6146;0,190248
523,5788;0,19028
524,5430;0,190351
525,5073;0,190396
526,4715;0,190376
527,4357;0,190274
528,4000;0,19008
529,3642;0,189784
530,3284;0,189384
531,2927;0,188905
532,2569;0,188402
533,2211;0,187943
534,1854;0,187585
535,1496;0,187355
536,1138;0,187259
537,0781;0,187296
538,0423;0,18746
539,0065;0,187722
539,9708;0,188022
540,9350;0,188275
541,8992;0,188416
542,8635;0,188432
543,8277;0,18838
544,7919;0,188349
545,7562;0,188417
546,7204;0,188608
547,6846;0,188898
548,6489;0,189248
549,6131;0,189637
550,5773;0,190075
551,5416;0,190582
552,5058;0,191159
553,4700;0,191781
554,4343;0,192393
555,3985;0,19292
556,3627;0,193265
557,3270;0,193319
558,2912;0,192984
559,2554;0,192208
560,2197;0,191027
561,1839;0,189567
562,1481;0,188013
563,1124;0,186537
564,0766;0,185242
565,0408;0,184142
566,0051;0,183195
566,9693;0,182357
567,9335;0,181612
568,8978;0,180978
569,8620;0,180474
570,8262;0,180094
571,7905;0,179799
572,7547;0,179543
573,7189;0,179297
574,6832;0,179055
575,6474;0,178828
576,6116;0,178624
577,5759;0,17844
578,5401;0,178268
579,5043;0,178102
580,4686;0,177949
581,4328;0,177818
582,3970;0,177708
583,3613;0,177602
584,3255;0,17748
585,2897;0,177333
586,2540;0,177172
587,2182;0,177022
588,1824;0,176904
589,1467;0,176822
590,1109;0,176762
591,0751;0,176703
592,0394;0,17663
593,0036;0,17653
593,9678;0,176391
594,9321;0,176195
595,8963;0,175918
596,8605;0,17555
597,8248;0,175104
598,7890;0,174619
599,7532;0,174143
600,7175;0,173708
601,6817;0,173318
602,6459;0,172949
603,6102;0,172575
604,5744;0,172177
605,5386;0,171755
606,5029;0,171307
607,4671;0,170825
608,4313;0,170291
609,3956;0,169692
610,3598;0,169044
611,3240;0,168393
612,2883;0,167802
613,2525;0,16731
614,2167;0,166897
615,1810;0,166474
616,1452;0,165909
617,1094;0,165086
618,0737;0,163972
619,0379;0,162635
620,0021;0,1612
620,9664;0,159787
621,9306;0,158466
622,8948;0,157267
623,8591;0,156195
624,8233;0,155245
625,7875;0,154449
626,7518;0,1538
627,7160;0,153268
628,6802;0,152797
629,6445;0,152327
630,6087;0,15181
631,5729;0,151227
632,5372;0,150587
633,5014;0,149929
634,4656;0,149303
635,4299;0,148763
636,3941;0,148336
637,3583;0,148013
638,3226;0,147746
639,2868;0,147467
640,2510;0,14712
641,2153;0,146691
642,1795;0,146216
643,1437;0,145759
644,1080;0,145382
645,0722;0,145102
646,0364;0,144894
647,0007;0,144701
647,9649;0,144473
648,9291;0,144202
649,8934;0,143928
650,8576;0,143718
651,8218;0,143628
652,7861;0,143672
653,7503;0,143821
654,7145;0,144023
655,6788;0,144235
656,6430;0,144434
657,6072;0,144621
658,5715;0,144784
659,5357;0,144883
660,4999;0,144853
661,4642;0,144649
662,4284;0,144284
663,3926;0,143819
664,3569;0,143344
665,3211;0,142974
666,2853;0,142819
667,2496;0,142819
668,2138;0,142537
669,1780;0,141555
670,1423;0,140108
671,1065;0,138632
672,0707;0,137222
673,0350;0,135774
673,9992;0,134215
674,9634;0,132572
675,9277;0,130942
676,8919;0,129427
677,8561;0,128061
678,8204;0,126815
679,7846;0,125637
680,7488;0,124505
681,7131;0,123433
682,6773;0,122458
683,6415;0,121609
684,6058;0,120899
685,5700;0,120316
686,5342;0,11983
687,4985;0,119399
688,4627;0,11898
689,4269;0,118543
690,3912;0,118078
691,3554;0,117594
692,3196;0,117105
693,2839;0,116616
694,2481;0,116127
695,2123;0,115633
696,1766;0,115141
697,1408;0,114659
698,1050;0,114195
699,0693;0,113746
700,0335;0,113299
700,9977;0,112837
701,9620;0,112342
702,9262;0,111801
703,8904;0,111208
704,8547;0,110568
705,8189;0,109897
706,7831;0,109215
707,7474;0,108542
708,7116;0,107889
709,6758;0,107253
710,6401;0,106616
711,6043;0,105955
712,5685;0,10526
713,5328;0,104544
714,4970;0,103849
715,4612;0,102967
716,4255;0,102504
717,3897;0,102141
718,3539;0,101781
719,3182;0,101288
720,2824;0,100551
721,2466;0,0995513
722,2109;0,0983712
723,1751;0,0971452
724,1393;0,0959913
725,1036;0,0949694
726,0678;0,0940804
727,0320;0,09329
727,9963;0,0925559
728,9605;0,0918458
729,9247;0,0911425
730,8890;0,0904404
731,8532;0,0897428
732,8174;0,0890607
733,7817;0,0884111
734,7459;0,0878102
735,7101;0,0872659
736,6744;0,0867731
737,6386;0,0863161
738,6028;0,0858765
739,5671;0,0854412
740,5313;0,085006
741,4955;0,0845727
742,4598;0,0841446
743,4240;0,0837229
744,3882;0,0833062
745,3525;0,0828913
746,3167;0,0824758
747,2809;0,0820576
748,2452;0,0816365
749,2094;0,0812143
750,1736;0,0807951
751,1379;0,0803838
752,1021;0,0799821
753,0663;0,0795845
754,0306;0,0791782
754,9948;0,0787477
755,9590;0,0782835
756,9233;0,0777895
757,8875;0,0772843
758,8517;0,0767958
759,8160;0,0763519
760,7802;0,0759715
761,7444;0,0756596
762,7087;0,0754072
763,6729;0,0751941
764,6371;0,0749932
765,6014;0,0747775
766,5656;0,0745274
767,5298;0,0742363
768,4941;0,0739126
769,4583;0,0735749
770,4225;0,0732437
771,3868;0,0729328
772,3510;0,0726456
773,3152;0,0723763
774,2795;0,0721163
775,2437;0,0718598
776,2079;0,0716064
777,1722;0,0713592
778,1364;0,0711197
779,1006;0,0708838
780,0649;0,0706403
781,0291;0,0703751
781,9933;0,0700778
782,9576;0,0697485
783,9218;0,0693982
784,8860;0,0690432
785,8503;0,0686967
786,8145;0,0683633
787,7787;0,0680405
788,7430;0,0677256
789,7072;0,0674232
790,6714;0,0671443
791,6357;0,066899
792,5999;0,0666875
793,5641;0,0664967
794,5284;0,0663067
795,4926;0,0661035
796,4568;0,0658875
797,4211;0,0656734
798,3853;0,0654801
799,3495;0,0653192
800,3138;0,0651883
801,2780;0,0650737
802,2422;0,0649578
803,2065;0,0648282
804,1707;0,0646819
805,1349;0,0645249
806,0992;0,0643689
807,0634;0,0642259
808,0276;0,0641036
808,9919;0,0640013
809,9561;0,0639102
810,9203;0,0638178
811,8846;0,0637151
812,8488;0,0636028
813,8130;0,0634921
814,7773;0,0633993
815,7415;0,0633368
816,7057;0,0633062
817,6700;0,0632987
818,6342;0,0632996
819,5984;0,0632963
820,5627;0,0632822
821,5269;0,0632569
822,4911;0,0632221
823,4554;0,0631769
824,4196;0,0631159
825,3839;0,06303
826,3481;0,0629097
827,3123;0,0627512
828,2766;0,0625595
829,2408;0,0623492
830,2050;0,0621393
831,1693;0,0619452
832,1335;0,0617714
833,0977;0,0616103
834,0620;0,0614466
835,0262;0,0612658
835,9904;0,0610604
836,9547;0,0608306
837,9189;0,0605804
838,8831;0,0603137
839,8474;0,0600355
840,8116;0,0597558
841,7758;0,0594934
842,7401;0,0592716
843,7043;0,059107
844,6685;0,0589979
845,6328;0,05892
846,5970;0,0588355
847,5612;0,0587115
848,5255;0,0585378
849,4897;0,058331
850,4539;0,058125
851,4182;0,0579515
852,3824;0,057824
853,3466;0,0577352
854,3109;0,0576663
855,2751;0,0576014
856,2393;0,0575367
857,2036;0,057479
858,1678;0,0574375
859,1320;0,0574168
860,0963;0,0574158
861,0605;0,057433
862,0247;0,0574713
862,9890;0,0575376
863,9532;0,0576374
864,9174;0,0577703
865,8817;0,0579304
866,8459;0,0581119
867,8101;0,0583152
868,7744;0,0585454
869,7386;0,0588053
870,7028;0,0590859
871,6671;0,0593657
872,6313;0,0596186
873,5955;0,0598288
874,5598;0,0600001
875,5240;0,0601541
876,4882;0,0603179
877,4525;0,0605113
878,4167;0,0607416
879,3809;0,0610089
880,3452;0,0613162
881,3094;0,0616754
882,2736;0,0621043
883,2379;0,0626174
884,2021;0,0632177
885,1663;0,0638958
886,1306;0,064636
887,0948;0,0654232
888,0590;0,0662462
889,0233;0,0670946
889,9875;0,0679532
890,9517;0,068799
891,9160;0,0696023
892,8802;0,0703319
893,8444;0,0709598
894,8087;0,0714638
895,7729;0,0718264
896,7371;0,0720337
897,7014;0,0720751
898,6656;0,0719469
899,6298;0,071656
900,5941;0,0712242
901,5583;0,0706884
902,5225;0,0700952
903,4868;0,0694926
904,4510;0,0689187
905,4152;0,068396
906,3795;0,0679317
907,3437;0,0675248
908,3079;0,0671749
909,2722;0,066887
910,2364;0,0666691
911,2007;0,0665254
912,1649;0,0664518
913,1292;0,0664371
914,0934;0,0664702
915,0576;0,0665465
916,0219;0,0666695
916,9861;0,0668451
917,9503;0,067073
918,9146;0,0673423
919,8788;0,0676346
920,8430;0,0679322
921,8073;0,0682257
922,7715;0,0685169
923,7357;0,0688138
924,7000;0,0691231
925,6642;0,0694437
926,6284;0,0697652
927,5927;0,0700726
928,5569;0,0703533
929,5211;0,0706043
930,4854;0,0708348
931,4496;0,0710636
932,4138;0,0713131
933,3781;0,0716014
934,3423;0,0719394
935,3065;0,0723312
936,2708;0,0727788
937,2350;0,0732854
938,1992;0,0738567
939,1635;0,0744977
940,1277;0,0752105
941,0919;0,0759936
942,0562;0,076845
943,0204;0,0777642
943,9846;0,0787539
944,9489;0,0798176
945,9131;0,0809569
946,8773;0,08217
947,8416;0,083451
948,8058;0,084791
949,7700;0,0861785
950,7343;0,0876002
951,6985;0,0890436
952,6627;0,0905015
953,6270;0,0919757
954,5912;0,0934781
955,5554;0,0950255
956,5197;0,0966328
957,4839;0,0983055
958,4481;0,100038
959,4124;0,101815
960,3766;0,10362
961,3408;0,105437
962,3051;0,107255
963,2693;0,109069
964,2335;0,110881
965,1978;0,112699
966,1620;0,114533
967,1262;0,116392
968,0905;0,118285
969,0547;0,120223
970,0189;0,122225
970,9832;0,12432
971,9474;0,126552
972,9116;0,128964
973,8759;0,131583
974,8401;0,134412
975,8043;0,137421
976,7686;0,140562
977,7328;0,143774
978,6970;0,146995
979,6613;0,150162
980,6255;0,153207
981,5897;0,156058
982,5540;0,158644
983,5182;0,160916
984,4824;0,162864
985,4467;0,164516
986,4109;0,165933
987,3751;0,167184
988,3394;0,168325
989,3036;0,169389
990,2678;0,170378
991,2321;0,171281
992,1963;0,17208
993,1605;0,172766
994,1248;0,173346
995,0890;0,173846
996,0532;0,1743
997,0175;0,174746
997,9817;0,175211
998,9459;0,175703
999,9102;0,176226
1000,8744;0,176781
1001,8386;0,177387
1002,8029;0,178077
1003,7671;0,178896
1004,7313;0,17988
1005,6956;0,181048
1006,6598;0,182396
1007,6240;0,183905
1008,5883;0,18555
1009,5525;0,187311
1010,5167;0,189171
1011,4810;0,191106
1012,4452;0,193082
1013,4094;0,195054
1014,3737;0,196971
1015,3379;0,198785
1016,3021;0,200466
1017,2664;0,202004
1018,2306;0,203406
1019,1948;0,20469
1020,1591;0,205878
1021,1233;0,206994
1022,0875;0,20806
1023,0518;0,209093
1024,0160;0,2101
1024,9802;0,211078
1025,9445;0,212007
1026,9087;0,212852
1027,8729;0,213573
1028,8372;0,214122
1029,8014;0,214446
1030,7656;0,214482
1031,7299;0,21416
1032,6941;0,213415
1033,6583;0,212208
1034,6226;0,210556
1035,5868;0,208546
1036,5510;0,20633
1037,5153;0,204095
1038,4795;0,202024
1039,4437;0,200259
1040,4080;0,198875
1041,3722;0,197884
1042,3364;0,197238
1043,3007;0,196855
1044,2649;0,19664
1045,2291;0,196502
1046,1934;0,196367
1047,1576;0,196186
1048,1218;0,195921
1049,0861;0,195541
1050,0503;0,195006
1051,0145;0,194274
1051,9788;0,193311
1052,9430;0,192104
1053,9072;0,190668
1054,8715;0,18903
1055,8357;0,187212
1056,7999;0,185202
1057,7642;0,182959
1058,7284;0,18043
1059,6926;0,177584
1060,6569;0,174449
1061,6211;0,171115
1062,5853;0,167719
1063,5496;0,164399
1064,5138;0,161266
1065,4780;0,158377
1066,4423;0,15574
1067,4065;0,153332
1068,3707;0,151122
1069,3350;0,149076
1070,2992;0,14716
1071,2634;0,14533
1072,2277;0,143535
1073,1919;0,141716
1074,1561;0,13983
1075,1204;0,137859
1076,0846;0,135818
1077,0488;0,133752
1078,0131;0,131714
1078,9773;0,12976
1079,9415;0,127934
1080,9058;0,126267
1081,8700;0,124782
1082,8342;0,123488
1083,7985;0,122389
1084,7627;0,121472
1085,7269;0,120718
1086,6912;0,120101
1087,6554;0,119597
1088,6196;0,119192
1089,5839;0,118879
1090,5481;0,118658
1091,5123;0,118527
1092,4766;0,118482
1093,4408;0,118512
1094,4050;0,118603
1095,3693;0,118742
1096,3335;0,118919
1097,2977;0,119124
1098,2620;0,119347
1099,2262;0,119576
1100,1904;0,119794
1101,1547;0,119979
1102,1189;0,120106
1103,0831;0,120147
1104,0474;0,120085
1105,0116;0,119915
1105,9758;0,119652
1106,9401;0,119324
1107,9043;0,118952
1108,8685;0,118531
1109,8328;0,118018
1110,7970;0,117345
1111,7612;0,116445
1112,7255;0,115286
1113,6897;0,113895
1114,6539;0,112354
1115,6182;0,110774
1116,5824;0,109258
1117,5466;0,107871
1118,5109;0,106628
1119,4751;0,105495
1120,4393;0,10441
1121,4036;0,103295
1122,3678;0,102078
1123,3320;0,100705
1124,2963;0,0991439
1125,2605;0,097396
1126,2247;0,0954882
1127,1890;0,0934659
1128,1532;0,0913799
1129,1174;0,0892746
1130,0817;0,0871822
1131,0459;0,0851255
1132,0101;0,0831248
1132,9744;0,081205
1133,9386;0,0793985
1134,9028;0,0777429
1135,8671;0,076275
1136,8313;0,0750257
1137,7955;0,0740159
1138,7598;0,0732562
1139,7240;0,0727467
1140,6882;0,0724766
1141,6525;0,0724236
1142,6167;0,0725556
1143,5809;0,0728336
1144,5452;0,0732184
1145,5094;0,073677
1146,4736;0,0741877
1147,4379;0,074741
1148,4021;0,0753362
1149,3663;0,0759746
1150,3306;0,0766518
1151,2948;0,077352
1152,2590;0,078047
1153,2233;0,0787006
1154,1875;0,0792756
1155,1517;0,0797399
1156,1160;0,0800652
1157,0802;0,0802217
1158,0444;0,0801691
1159,0087;0,0798527
1159,9729;0,0792092
1160,9371;0,0781812
1161,9014;0,0767358
1162,8656;0,0748784
1163,8298;0,0726566
1164,7941;0,0701534
1165,7583;0,0674741
1166,7225;0,0647304
1167,6868;0,0620269
1168,6510;0,0594496
1169,6152;0,057059
1170,5795;0,0548873
1171,5437;0,0529425
1172,5079;0,0512162
1173,4722;0,0496938
1174,4364;0,0483615
1175,4006;0,0472075
1176,3649;0,0462196
1177,3291;0,0453816
1178,2933;0,0446722
1179,2576;0,044068
1180,2218;0,0435492
1181,1860;0,0431038
1182,1503;0,0427286
1183,1145;0,0424265
1184,0787;0,0422017
1185,0430;0,0420559
1186,0072;0,041988
1186,9714;0,0419964
1187,9357;0,0420816
1188,8999;0,0422461
1189,8641;0,0424929
1190,8284;0,0428217
1191,7926;0,043227
1192,7568;0,0436986
1193,7211;0,0442248
1194,6853;0,0447947
1195,6495;0,0453989
1196,6138;0,046028
1197,5780;0,0466713
1198,5422;0,0473181
1199,5065;0,0479134
1200,4707;0,0485509
1201,4349;0,0491769
1202,3992;0,0497883
1203,3634;0,0503766
1204,3276;0,0509289
1205,2919;0,0514326
1206,2561;0,0518829
1207,2203;0,052289
1208,1846;0,0526741
1209,1488;0,0530703
1210,1130;0,0535101
1211,0773;0,0540179
1212,0415;0,0546047
1213,0057;0,0552676
1213,9700;0,0559933
1214,9342;0,0567643
1215,8984;0,0575642
1216,8627;0,0583806
1217,8269;0,0592042
1218,7911;0,0600274
1219,7554;0,060841
1220,7196;0,0616343
1221,6838;0,062396
1222,6481;0,0631176
1223,6123;0,0637952
1224,5765;0,0644293
1225,5408;0,0650229
1226,5050;0,0655789
1227,4692;0,0660985
1228,4335;0,0665809
1229,3977;0,0670243
1230,3619;0,0674267
1231,3262;0,0677862
1232,2904;0,0681003
1233,2546;0,0683656
1234,2189;0,068578
1235,1831;0,068735
1236,1473;0,0688376
1237,1116;0,0688917
1238,0758;0,0689068
1239,0400;0,0688924
1240,0043;0,0688542
1240,9685;0,0687923
1241,9327;0,0687015
1242,8970;0,0685743
1243,8612;0,0684036
1244,8254;0,0681853
1245,7897;0,0679186
1246,7539;0,0676064
1247,7181;0,0672562
1248,6824;0,0668789
1249,6466;0,0664871
1250,6108;0,0660925
1251,5751;0,0657032
1252,5393;0,065324
1253,5035;0,0649571
1254,4678;0,0646041
1255,4320;0,0642652
1256,3962;0,0639366
1257,3605;0,063609
1258,3247;0,0632686
1259,2889;0,0629015
1260,2532;0,0624999
1261,2174;0,062065
1262,1816;0,0616047
1263,1459;0,0611284
1264,1101;0,0606412
1265,0743;0,0601425
1266,0386;0,0596279
1267,0028;0,0590929
1267,9670;0,0585358
1268,9313;0,0579579
1269,8955;0,0573627
1270,8597;0,0567543
1271,8240;0,0561368
1272,7882;0,0555152
1273,7524;0,0548974
1274,7167;0,0542943
1275,6809;0,0537176
1276,6451;0,0531753
1277,6094;0,052667
1278,5736;0,0521825
1279,5378;0,0517052
1280,5021;0,0512209
1281,4663;0,0507247
1282,4305;0,0502242
1283,3948;0,0497357
1284,3590;0,0492772
1285,3232;0,0488634
1286,2875;0,0485046
1287,2517;0,0482072
1288,2159;0,0479744
1289,1802;0,047805
1290,1444;0,0476922
1291,1086;0,0476264
1292,0729;0,0476007
1293,0371;0,0476167
1294,0013;0,047685
1294,9656;0,0478201
1295,9298;0,0480313
1296,8940;0,0483174
1297,8583;0,048668
1298,8225;0,0490705
1299,7867;0,0495174
1300,7510;0,0500074
1301,7152;0,0505424
1302,6794;0,0511206
1303,6437;0,0517356
1304,6079;0,052379
1305,5721;0,0530452
1306,5364;0,0537337
1307,5006;0,0544461
1308,4648;0,0551821
1309,4291;0,0559343
1310,3933;0,0566874
1311,3575;0,0574194
1312,3218;0,0581048
1313,2860;0,0587174
1314,2502;0,0592313
1315,2145;0,0596204
1316,1787;0,0598598
1317,1429;0,0599313
1318,1072;0,0598342
1319,0714;0,0595939
1320,0356;0,0592598
1320,9999;0,0588894
1321,9641;0,0585288
1322,9283;0,0582033
1323,8926;0,0579209
1324,8568;0,0576813
1325,8210;0,0574839
1326,7853;0,0573284
1327,7495;0,0572119
1328,7137;0,0571246
1329,6780;0,0570495
1330,6422;0,0569669
1331,6064;0,0568616
1332,5707;0,0567264
1333,5349;0,0565615
1334,4991;0,0563654
1335,4634;0,0561252
1336,4276;0,055812
1337,3918;0,0553897
1338,3561;0,0548384
1339,3203;0,0541835
1340,2845;0,0534983
1341,2488;0,0528661
1342,2130;0,0523383
1343,1772;0,0519229
1344,1415;0,051603
1345,1057;0,0513578
1346,0699;0,0511743
1347,0342;0,0510498
1347,9984;0,0509893
1348,9626;0,0510008
1349,9269;0,0510887
1350,8911;0,0512487
1351,8553;0,0514672
1352,8196;0,0517271
1353,7838;0,0520176
1354,7480;0,052341
1355,7123;0,0527105
1356,6765;0,0531378
1357,6407;0,0536195
1358,6050;0,0541331
1359,5692;0,0546409
1360,5334;0,0551003
1361,4977;0,0554799
1362,4619;0,0557804
1363,4261;0,0560386
1364,3904;0,0563
1365,3546;0,056586
1366,3188;0,0568871
1367,2831;0,0571778
1368,2473;0,0574314
1369,2115;0,0576265
1370,1758;0,057744
1371,1400;0,0577606
1372,1042;0,0576492
1373,0685;0,0573936
1374,0327;0,0570108
1374,9969;0,0565561
1375,9612;0,0560887
1376,9254;0,0556239
1377,8896;0,0551254
1378,8539;0,0545438
1379,8181;0,0538647
1380,7823;0,0531303
1381,7466;0,0524136
1382,7108;0,0517649
1383,6750;0,0511752
1384,6393;0,0505853
1385,6035;0,0499348
1386,5677;0,0492243
1387,5320;0,048543
1388,4962;0,0480117
1389,4604;0,0476876
1390,4247;0,0475372
1391,3889;0,0474833
1392,3531;0,0474576
1393,3174;0,0474245
1394,2816;0,04738
1395,2458;0,0473382
1396,2101;0,0473148
1397,1743;0,0473202
1398,1385;0,0473646
1399,1028;0,0474628
1400,0670;0,0476267
1401,0313;0,0478534
1401,9955;0,0481222
1402,9597;0,0484046
1403,9240;0,0486808
1404,8882;0,0489532
1405,8524;0,0492452
1406,8167;0,0495824
1407,7809;0,0499719
1408,7451;0,0504008
1409,7094;0,0508533
1410,6736;0,0513274
1411,6378;0,0518368
1412,6021;0,0523959
1413,5663;0,0529995
1414,5305;0,0536157
1415,4948;0,0541922
1416,4590;0,0546659
1417,4232;0,0549818
1418,3875;0,0551341
1419,3517;0,0551943
1420,3159;0,055253
1421,2802;0,0553278
1422,2444;0,0553611
1423,2086;0,0552867
1424,1729;0,0550819
1425,1371;0,0547697
1426,1013;0,0543808
1427,0656;0,0539154
1428,0298;0,0533454
1428,9940;0,0526612
1429,9583;0,0519178
1430,9225;0,0512179
1431,8867;0,0506299
1432,8510;0,0501259
1433,8152;0,0495947
1434,7794;0,0489116
1435,7437;0,0480417
1436,7079;0,047127
1437,6721;0,0464153
1438,6364;0,0460469
1439,6006;0,0459711
1440,5648;0,0460567
1441,5291;0,0462044
1442,4933;0,0463764
1443,4575;0,0465744
1444,4218;0,0468058
1445,3860;0,0470608
1446,3502;0,0473155
1447,3145;0,0475539
1448,2787;0,0477894
1449,2429;0,0480603
1450,2072;0,0483972
1451,1714;0,0487947
1452,1356;0,0492109
1453,0999;0,0495829
1454,0641;0,0498286
1455,0283;0,0498286
1455,9926;0,0494422
1456,9568;0,0486934
1457,9210;0,0479608
1458,8853;0,0476252
1459,8495;0,0476733
1460,8137;0,0478685
1461,7780;0,0479833
1462,7422;0,0478515
1463,7064;0,0473804
1464,6707;0,0466081
1465,6349;0,045729
1466,5991;0,0449561
1467,5634;0,0443511
1468,5276;0,0438186
1469,4918;0,0431938
1470,4561;0,0423014
1471,4203;0,0410026
1472,3845;0,0393073
1473,3488;0,0374845
1474,3130;0,0359106
1475,2772;0,0347571
1476,2415;0,033953
1477,2057;0,0333585
1478,1699;0,0328716
1479,1342;0,0324391
1480,0984;0,0320407
1481,0626;0,0316819
1482,0269;0,0313889
1482,9911;0,0311959
1483,9553;0,0311219
1484,9196;0,0311571
1485,8838;0,0312634
1486,8480;0,0313855
1487,8123;0,0314704
1488,7765;0,0315093
1489,7407;0,0315744
1490,7050;0,0317699
1491,6692;0,0321348
1492,6334;0,032634
1493,5977;0,0332148
1494,5619;0,0338432
1495,5261;0,0345047
1496,4904;0,0351922
1497,4546;0,0359038
1498,4188;0,0366509
1499,3831;0,0374436
1500,3473;0,0382611
1501,3115;0,0390549
1502,2758;0,0397757
1503,2400;0,040393
1504,2042;0,0408904
1505,1685;0,0412271
1506,1327;0,0412895
1507,0969;0,0410076
1508,0612;0,040613
1509,0254;0,0404077
1509,9896;0,040419
1510,9539;0,0405241
1511,9181;0,0406138
1512,8823;0,0406211
1513,8466;0,0405073
1514,8108;0,0402579
1515,7750;0,0398895
1516,7393;0,0394454
1517,7035;0,0389666
1518,6677;0,0384646
1519,6320;0,037932
1520,5962;0,0373863
1521,5604;0,0368981
1522,5247;0,0365517
1523,4889;0,0363752
1524,4531;0,0363319
1525,4174;0,0363717
1526,3816;0,0364755
1527,3458;0,036652
1528,3101;0,0369069
1529,2743;0,0372227
1530,2385;0,0375674
1531,2028;0,0379156
1532,1670;0,0382637
1533,1312;0,0386316
1534,0955;0,0390454
1535,0597;0,0395076
1536,0239;0,0399869
1536,9882;0,0404354
1537,9524;0,0408
1538,9166;0,0410013
1539,8809;0,0409222
1540,8451;0,0405521
1541,8093;0,0401452
1542,7736;0,0399333
1543,7378;0,0398898
1544,7020;0,0398983
1545,6663;0,0398947
1546,6305;0,0398697
1547,5947;0,0398261
1548,5590;0,0397529
1549,5232;0,0396299
1550,4874;0,0394551
1551,4517;0,0392657
1552,4159;0,0391244
1553,3801;0,0390732
1554,3444;0,039094
1555,3086;0,0390983
1556,2728;0,0389178
1557,2371;0,038309
1558,2013;0,0371804
1559,1655;0,0360396
1560,1298;0,0355622
1561,0940;0,0357543
1562,0582;0,0362587
1563,0225;0,036811
1563,9867;0,0372933
1564,9509;0,0376676
1565,9152;0,0379282
1566,8794;0,0380863
1567,8436;0,0381806
1568,8079;0,0382904
1569,7721;0,0385092
1570,7363;0,0388773
1571,7006;0,0393532
1572,6648;0,0398521
1573,6290;0,040294
1574,5933;0,0406264
1575,5575;0,0408441
1576,5217;0,0410185
1577,4860;0,041269
1578,4502;0,0416577
1579,4144;0,0421489
1580,3787;0,0426711
1581,3429;0,043174
1582,3071;0,0436441
1583,2714;0,0440972
1584,2356;0,0445627
1585,1998;0,0450656
1586,1641;0,0456138
1587,1283;0,0461968
1588,0925;0,046792
1589,0568;0,0473702
1590,0210;0,0478991
1590,9852;0,0483457
1591,9495;0,0486784
1592,9137;0,0488733
1593,8779;0,0489244
1594,8422;0,0488519
1595,8064;0,0486972
1596,7706;0,0485058
1597,7349;0,0483086
1598,6991;0,0481169
1599,6633;0,0479292
1600,6276;0,0477451
1601,5918;0,0475747
1602,5560;0,0474393
1603,5203;0,0473594
1604,4845;0,0473391
1605,4487;0,0473588
1606,4130;0,0473858
1607,3772;0,0473984
1608,3414;0,0474108
1609,3057;0,0474738
1610,2699;0,0476381
1611,2341;0,0479097
1612,1984;0,0482397
1613,1626;0,0485495
1614,1268;0,0487668
1615,0911;0,0488637
1616,0553;0,0489011
1617,0195;0,0490213
1617,9838;0,0493304
1618,9480;0,0498044
1619,9122;0,05034
1620,8765;0,0508431
1621,8407;0,0512655
1622,8049;0,0516057
1623,7692;0,0518956
1624,7334;0,0521739
1625,6976;0,0524608
1626,6619;0,05276
1627,6261;0,0530807
1628,5903;0,0534444
1629,5546;0,0538655
1630,5188;0,0543267
1631,4830;0,0547764
1632,4473;0,0551404
1633,4115;0,055331
1634,3757;0,0552704
1635,3400;0,0549803
1636,3042;0,0546769
1637,2684;0,0546142
1638,2327;0,0548373
1639,1969;0,0552282
1640,1611;0,0556658
1641,1254;0,05608
1642,0896;0,0564312
1643,0538;0,056676
1644,0181;0,0567452
1644,9823;0,0565629
1645,9465;0,056146
1646,9108;0,0557026
1647,8750;0,0554842
1648,8392;0,0555277
1649,8035;0,055648
1650,7677;0,0555504
1651,7319;0,0548772
1652,6962;0,0534219
1653,6604;0,0516747
1654,6246;0,0505412
1655,5889;0,0502043
1656,5531;0,0502545
1657,5173;0,050321
1658,4816;0,0502061
1659,4458;0,0498126
1660,4100;0,0491017
1661,3743;0,0481255
1662,3385;0,0470709
1663,3027;0,0461777
1664,2670;0,0455652
1665,2312;0,0451714
1666,1954;0,0448265
1667,1597;0,0443393
1668,1239;0,0435728
1669,0881;0,0425442
1670,0524;0,0414653
1671,0166;0,0405741
1671,9808;0,0399138
1672,9451;0,039342
1673,9093;0,0386963
1674,8735;0,0379354
1675,8378;0,0371781
1676,8020;0,0366033
1677,7662;0,0362927
1678,7305;0,0361806
1679,6947;0,0361181
1680,6589;0,0359291
1681,6232;0,0354217
1682,5874;0,0344379
1683,5516;0,0330546
1684,5159;0,0317163
1685,4801;0,0308387
1686,4443;0,0304109
1687,4086;0,0301867
1688,3728;0,0299724
1689,3370;0,0297031
1690,3013;0,0294028
1691,2655;0,0291202
1692,2297;0,0288801
1693,1940;0,0286685
1694,1582;0,0284426
1695,1224;0,028153
1696,0867;0,0277609
1697,0509;0,0272491
1698,0151;0,0266331
1698,9794;0,0259844
1699,9436;0,0254339
1700,9078;0,0251056
1701,8721;0,0250273
1702,8363;0,0251212
1703,8005;0,0252691
1704,7648;0,0253798
1705,7290;0,0254293
1706,6932;0,0254643
1707,6575;0,025562
1708,6217;0,0257719
1709,5859;0,0260916
1710,5502;0,0264873
1711,5144;0,0269201
1712,4786;0,0273539
1713,4429;0,0277453
1714,4071;0,0280275
1715,3713;0,0281156
1716,3356;0,0279775
1717,2998;0,0277421
1718,2640;0,0276436
1719,2283;0,0277991
1720,1925;0,0281493
1721,1567;0,028572
1722,1210;0,0289716
1723,0852;0,0293024
1724,0494;0,029565
1725,0137;0,0297942
1725,9779;0,0300373
1726,9421;0,0303288
1727,9064;0,0306721
1728,8706;0,031033
1729,8348;0,0313402
1730,7991;0,0314886
1731,7633;0,0313601
1732,7275;0,0309052
1733,6918;0,0302615
1734,6560;0,0297102
1735,6202;0,0294205
1736,5845;0,0293348
1737,5487;0,0292892
1738,5129;0,0291455
1739,4772;0,0288462
1740,4414;0,0284225
1741,4056;0,0279625
1742,3699;0,0275437
1743,3341;0,0271843
1744,2983;0,0268523
1745,2626;0,0265013
1746,2268;0,0260861
1747,1910;0,0255549
1748,1553;0,0248545
1749,1195;0,0239791
1750,0837;0,0230289
1751,0480;0,0221735
1752,0122;0,0215251
1752,9764;0,0210737
1753,9407;0,0207324
1754,9049;0,0204118
1755,8691;0,0200653
1756,8334;0,0196945
1757,7976;0,0193219
1758,7618;0,0189522
1759,7261;0,0185609
1760,6903;0,0181239
1761,6545;0,0176598
1762,6188;0,0172361
1763,5830;0,0169225
1764,5472;0,0167408
1765,5115;0,0166584
1766,4757;0,0166169
1767,4399;0,016561
1768,4042;0,0164498
1769,3684;0,0162548
1770,3326;0,0159602
1771,2969;0,0155823
1772,2611;0,0151936
1773,2253;0,0149014
1774,1896;0,0147729
1775,1538;0,0147914
1776,1180;0,0148848
1777,0823;0,0149748
1778,0465;0,0150082
1779,0107;0,0149694
1779,9750;0,0148783
1780,9392;0,0147718
1781,9034;0,0146785
1782,8677;0,0146086
1783,8319;0,0145647
1784,7961;0,0145569
1785,7604;0,0146007
1786,7246;0,0146997
1787,6888;0,0148313
1788,6531;0,0149483
1789,6173;0,0149917
1790,5815;0,0149148
1791,5458;0,0147212
1792,5100;0,0144917
1793,4742;0,0143389
1794,4385;0,0143165
1795,4027;0,0143932
1796,3669;0,0144994
1797,3312;0,0145752
1798,2954;0,0145898
1799,2596;0,0145436
1800,2239;0,0144625
1801,1881;0,0143827
1802,1523;0,0143319
1803,1166;0,0143203
1804,0808;0,0143445
1805,0450;0,0143951
1806,0093;0,0144599
1806,9735;0,0145225
1807,9377;0,014562
1808,9020;0,0145587
1809,8662;0,0145054
1810,8304;0,0144171
1811,7947;0,0143258
1812,7589;0,0142615
1813,7231;0,014235
1814,6874;0,0142374
1815,6516;0,0142506
1816,6158;0,0142607
1817,5801;0,0142675
1818,5443;0,0142824
1819,5085;0,0143177
1820,4728;0,0143741
1821,4370;0,0144376
1822,4012;0,0144884
1823,3655;0,0145128
1824,3297;0,0145116
1825,2939;0,0144953
1826,2582;0,0144694
1827,2224;0,0144232
1828,1866;0,0143379
1829,1509;0,0142123
1830,1151;0,0140826
1831,0793;0,0140076
1832,0436;0,0140231
1833,0078;0,0141141
1833,9720;0,0142293
1834,9363;0,0143156
1835,9005;0,0143486
1836,8647;0,0143468
1837,8290;0,0143586
1838,7932;0,0144242
1839,7574;0,0145441
1840,7217;0,014678
1841,6859;0,0147666
1842,6501;0,0147607
1843,6144;0,014655
1844,5786;0,014503
1845,5428;0,0143808
1846,5071;0,0143231
1847,4713;0,014307
1848,4355;0,0142882
1849,3998;0,0142398
1850,3640;0,0141649
1851,3282;0,0140877
1852,2925;0,0140328
1853,2567;0,0140112
1854,2209;0,0140191
1855,1852;0,0140478
1856,1494;0,0140907
1857,1136;0,0141428
1858,0779;0,0141956
1859,0421;0,0142364
1860,0063;0,014258
1860,9706;0,0142694
1861,9348;0,0142953
1862,8990;0,0143617
1863,8633;0,0144759
1864,8275;0,0146159
1865,7917;0,0147315
1866,7560;0,0147618
1867,7202;0,0146695
1868,6844;0,0144798
1869,6487;0,0142769
1870,6129;0,014142
1871,5771;0,0141008
1872,5414;0,0141272
1873,5056;0,0141774
1874,4698;0,0142162
1875,4341;0,0142285
1876,3983;0,0142187
1877,3625;0,0142026
1878,3268;0,0141954
1879,2910;0,014204
1880,2552;0,0142262
1881,2195;0,0142551
1882,1837;0,0142853
1883,1479;0,0143162
1884,1122;0,0143506
1885,0764;0,0143916
1886,0406;0,0144386
1887,0049;0,0144867
1887,9691;0,0145285
1888,9333;0,0145591
1889,8976;0,0145785
1890,8618;0,0145895
1891,8260;0,0145911
1892,7903;0,014576
1893,7545;0,0145345
1894,7188;0,0144642
1895,6830;0,0143773
1896,6472;0,0142973
1897,6115;0,0142469
1898,5757;0,0142343
1899,5399;0,0142511
1900,5042;0,0142802
1901,4684;0,0143072
1902,4326;0,0143279
1903,3969;0,0143467
1904,3611;0,0143699
1905,3253;0,0143983
1906,2896;0,014426
1907,2538;0,0144441
1908,2180;0,0144473
1909,1823;0,0144378
1910,1465;0,0144237
1911,1107;0,014412
1912,0750;0,0144016
1913,0392;0,014382
1914,0034;0,0143393
1914,9677;0,0142677
1915,9319;0,0141807
1916,8961;0,0141127
1917,8604;0,0141034
1918,8246;0,0141692
1919,7888;0,0142851
1920,7531;0,0143946
1921,7173;0,014441
1922,6815;0,0143988
1923,6458;0,0142896
1924,6100;0,0141694
1925,5742;0,0140934
1926,5385;0,014086
1927,5027;0,014135
1928,4669;0,0142078
1929,4312;0,0142714
1930,3954;0,0143029
1931,3596;0,0142914
1932,3239;0,0142367
1933,2881;0,0141502
1934,2523;0,0140588
1935,2166;0,0140025
1936,1808;0,0140184
1937,1450;0,0141206
1938,1093;0,0142889
1939,0735;0,0144752
1940,0377;0,0146242
1941,0020;0,0146956
1941,9662;0,0146808
1942,9304;0,0146027
1943,8947;0,0144984
1944,8589;0,0143961
1945,8231;0,0143047
1946,7874;0,014221
1947,7516;0,0141419
1948,7158;0,0140714
1949,6801;0,0140194
1950,6443;0,0139926
1951,6085;0,0139845
1952,5728;0,0139717
1953,5370;0,0139223
1954,5012;0,0138152
1955,4655;0,0136604
1956,4297;0,0135055
1957,3939;0,0134171
1958,3582;0,0134446
1959,3224;0,0135866
1960,2866;0,0137854
1961,2509;0,0139588
1962,2151;0,0140498
1963,1793;0,0140566
1964,1436;0,0140195
1965,1078;0,013981
1966,0720;0,013949
1967,0363;0,0138941
1968,0005;0,0137835
1968,9647;0,0136226
1969,9290;0,0134638
1970,8932;0,0133746
1971,8574;0,0133924
1972,8217;0,0134961
1973,7859;0,0136146
1974,7501;0,0136665
1975,7144;0,0136104
1976,6786;0,0134725
1977,6428;0,013329
1978,6071;0,0132572
1979,5713;0,013291
1980,5355;0,0134124
1981,4998;0,0135725
1982,4640;0,0137185
1983,4282;0,013811
1984,3925;0,0138311
1985,3567;0,0137824
1986,3209;0,0136889
1987,2852;0,0135896
1988,2494;0,0135258
1989,2136;0,0135253
1990,1779;0,0135903
1991,1421;0,0136955
1992,1063;0,0138038
1993,0706;0,0138896
1994,0348;0,0139525
1994,9990;0,0140098
1995,9633;0,0140768
1996,9275;0,014152
1997,8917;0,0142188
1998,8560;0,0142611
1999,8202;0,0142781
2000,7844;0,0142851
2001,7487;0,0142967
2002,7129;0,0143068
2003,6771;0,0142861
2004,6414;0,0142034
2005,6056;0,014058
2006,5698;0,0138989
2007,5341;0,0138049
2008,4983;0,0138356
2009,4625;0,0139884
2010,4268;0,0141958
2011,3910;0,0143651
2012,3552;0,0144288
2013,3195;0,0143768
2014,2837;0,0142548
2015,2479;0,0141347
2016,2122;0,0140765
2017,1764;0,0141021
2018,1406;0,0141955
2019,1049;0,0143242
2020,0691;0,0144618
2021,0333;0,0145948
2021,9976;0,014715
2022,9618;0,0148079
2023,9260;0,0148504
2024,8903;0,0148204
2025,8545;0,0147095
2026,8187;0,0145295
2027,7830;0,0143099
2028,7472;0,0140894
2029,7114;0,0139088
2030,6757;0,0138048
2031,6399;0,0138019
2032,6041;0,0139014
2033,5684;0,0140759
2034,5326;0,0142777
2035,4968;0,0144631
2036,4611;0,0146143
2037,4253;0,0147427
2038,3895;0,0148668
2039,3538;0,0149847
2040,3180;0,0150639
2041,2822;0,0150621
2042,2465;0,0149667
2043,2107;0,0148209
2044,1749;0,0147117
2045,1392;0,0147221
2046,1034;0,0148796
2047,0676;0,0151344
2048,0320;0,0153894
2048,9961;0,0155626
2049,9604;0,0156333
2050,9246;0,015639
2051,8889;0,0156341
2052,8530;0,0156494
2053,8174;0,0156773
2054,7815;0,0156868
2055,7458;0,0156523
2056,7100;0,0155755
2057,6743;0,0154846
2058,6384;0,0154146
2059,6028;0,0153859
2060,5669;0,0153978
2061,5313;0,0154385
2062,4954;0,0154996
2063,4597;0,0155815
2064,4238;0,0156861
2065,3882;0,0158048
2066,3523;0,0159152
2067,3167;0,0159922
2068,2808;0,0160243
2069,2451;0,0160224
2070,2092;0,0160131
2071,1736;0,0160197
2072,1377;0,0160453
2073,1021;0,016069
2074,0662;0,0160598
2075,0305;0,0159979
2075,9946;0,0158908
2076,9590;0,0157709
2077,9231;0,0156787
2078,8875;0,0156406
2079,8516;0,0156558
2080,8159;0,0157006
2081,7800;0,0157445
2082,7444;0,0157691
2083,7085;0,0157767
2084,6729;0,0157845
2085,6370;0,015811
2086,6013;0,0158627
2087,5654;0,0159309
2088,5298;0,0159984
2089,4939;0,0160503
2090,4583;0,0160812
2091,4224;0,0160948
2092,3867;0,0160998
2093,3508;0,016107
2094,3152;0,0161286
2095,2793;0,0161773
2096,2437;0,016261
2097,2078;0,0163738
2098,1721;0,0164909
2099,1362;0,0165741
2100,1006;0,0165885
2101,0647;0,0165199
2102,0291;0,0163846
2102,9932;0,0162227
2103,9575;0,0160806
2104,9216;0,015993
2105,8860;0,0159741
2106,8501;0,0160189
2107,8145;0,01611
2108,7786;0,0162242
2109,7429;0,0163358
2110,7070;0,0164221
2111,6714;0,0164682
2112,6355;0,0164731
2113,5999;0,0164481
2114,5640;0,0164093
2115,5283;0,0163682
2116,4924;0,0163279
2117,4568;0,0162895
2118,4209;0,0162618
2119,3853;0,0162646
2120,3494;0,0163186
2121,3137;0,0164257
2122,2778;0,0165552
2123,2422;0,0166505
2124,2063;0,0166577
2125,1707;0,0165608
2126,1348;0,0164
2127,0991;0,0162555
2128,0632;0,0162051
2129,0276;0,0162776
2129,9917;0,0164335
2130,9561;0,0165869
2131,9202;0,0166569
2132,8845;0,0166211
2133,8486;0,0165341
2134,8130;0,0164959
2135,7771;0,0165839
2136,7415;0,016794
2137,7056;0,0170353
2138,6699;0,0171824
2139,6340;0,0171507
2140,5984;0,016947
2141,5625;0,0166665
2142,5269;0,0164421
2143,4910;0,0163749
2144,4553;0,0164851
2145,4194;0,0167063
2146,3838;0,0169234
2147,3479;0,0170299
2148,3123;0,0169772
2149,2764;0,0167936
2150,2407;0,0165703
2151,2048;0,016421
2152,1692;0,0164319
2153,1333;0,0166192
2154,0977;0,0169119
2155,0618;0,0171732
2156,0261;0,0172597
2156,9902;0,0171037
2157,9546;0,0167753
2158,9187;0,016458
2159,8831;0,0163239
2160,8472;0,0164109
2161,8115;0,0166143
2162,7756;0,0167809
2163,7400;0,0168109
2164,7041;0,0167004
2165,6685;0,0165204
2166,6326;0,0163598
2167,5969;0,0162741
2168,5610;0,0162702
2169,5254;0,0163238
2170,4895;0,0164051
2171,4539;0,0164916
2172,4180;0,0165648
2173,3823;0,0166061
2174,3464;0,016604
2175,3108;0,016569
2176,2749;0,0165362
2177,2393;0,0165458
2178,2034;0,0166121
2179,1677;0,016706
2180,1318;0,016772
2181,0962;0,016771
2182,0603;0,0167153
2183,0247;0,0166647
2183,9888;0,0166789
2184,9531;0,0167659
2185,9172;0,0168697
2186,8816;0,0169116
2187,8457;0,0168505
2188,8101;0,016718
2189,7742;0,0165974
2190,7385;0,0165632
2191,7026;0,0166258
2192,6670;0,0167221
2193,6311;0,0167592
2194,5955;0,0166777
2195,5596;0,0164902
2196,5239;0,0162713
2197,4880;0,0161099
2198,4524;0,0160601
2199,4165;0,0161216
2200,3809;0,0162544
2201,3450;0,0164107
2202,3093;0,0165587
2203,2734;0,0166877
2204,2378;0,016799
2205,2019;0,0168953
2206,1663;0,0169754
2207,1304;0,0170358
2208,0947;0,017071
2209,0588;0,0170743
2210,0232;0,0170396
2210,9873;0,0169661
2211,9517;0,0168645
2212,9158;0,0167577
2213,8801;0,0166728
2214,8442;0,0166292
2215,8086;0,0166296
2216,7727;0,0166616
2217,7371;0,0167069
2218,7012;0,0167524
2219,6655;0,016794
2220,6296;0,0168332
2221,5940;0,0168693
2222,5581;0,0168963
2223,5225;0,0169052
2224,4866;0,0168893
2225,4509;0,0168497
2226,4150;0,0167957
2227,3794;0,0167412
2228,3435;0,0167015
2229,3079;0,0166877
2230,2720;0,0167043
2231,2363;0,0167465
2232,2004;0,0168003
2233,1648;0,016845
2234,1289;0,0168613
2235,0933;0,0168415
2236,0574;0,0167976
2237,0217;0,0167602
2237,9858;0,016766
2238,9502;0,016838
2239,9143;0,016969
2240,8787;0,0171197
2241,8428;0,0172355
2242,8071;0,0172736
2243,7712;0,0172258
2244,7356;0,0171218
2245,6997;0,017012
2246,6641;0,0169405
2247,6282;0,0169258
2248,5925;0,0169603
2249,5566;0,0170249
2250,5210;0,0171053
2251,4851;0,0171961
2252,4495;0,0172924
2253,4136;0,0173789
2254,3779;0,0174303
2255,3420;0,0174241
2256,3064;0,017359
2257,2705;0,0172606
2258,2349;0,0171692
2259,1990;0,0171182
2260,1633;0,0171164
2261,1274;0,0171476
2262,0918;0,0171854
2263,0559;0,0172123
2264,0203;0,017228
2264,9844;0,0172444
2265,9487;0,0172716
2266,9128;0,0173068
2267,8772;0,0173353
2268,8413;0,0173405
2269,8057;0,0173153
2270,7698;0,0172672
2271,7341;0,0172137
2272,6982;0,0171733
2273,6626;0,0171571
2274,6267;0,0171659
2275,5911;0,0171929
2276,5552;0,0172286
2277,5195;0,017265
2278,4836;0,0172976
2279,4480;0,0173251
2280,4121;0,0173484
2281,3765;0,0173709
2282,3406;0,0173984
2283,3049;0,017439
2284,2690;0,0175
2285,2334;0,0175859
2286,1975;0,0176955
2287,1619;0,0178235
2288,1260;0,0179639
2289,0903;0,0181128
2290,0544;0,0182687
2291,0188;0,0184282
2291,9829;0,0185818
2292,9473;0,018715
2293,9114;0,0188145
2294,8757;0,0188778
2295,8398;0,0189173
2296,8042;0,0189549
2297,7683;0,0190088
2298,7327;0,0190806
2299,6968;0,0191525
2300,6611;0,0191975
2301,6252;0,0191979
2302,5896;0,0191601
2303,5537;0,0191164
2304,5181;0,0191108
2305,4822;0,0191745
2306,4465;0,0193043
2307,4106;0,0194544
2308,3750;0,0195512
2309,3391;0,019526
2310,3035;0,0193513
2311,2676;0,0190597
2312,2319;0,0187308
2313,1960;0,0184509
2314,1604;0,0182705
2315,1245;0,0181852
2316,0889;0,0181505
2317,0530;0,018116
2318,0173;0,0180577
2318,9814;0,0179907
2319,9458;0,0179595
2320,9099;0,0180114
2321,8743;0,0181693
2322,8384;0,0184153
2323,8027;0,0186925
2324,7668;0,0189203
2325,7312;0,0190218
2326,6953;0,0189534
2327,6597;0,018728
2328,6238;0,0184201
2329,5881;0,0181445
2330,5522;0,0180103
2331,5166;0,018068
2332,4807;0,0182822
2333,4451;0,0185527
2334,4092;0,0187695
2335,3735;0,0188701
2336,3376;0,0188673
2337,3020;0,0188382
2338,2661;0,0188767
2339,2305;0,0190308
2340,1946;0,0192535
2341,1589;0,0193974
2342,1230;0,0192816
2343,0874;0,018853
2344,0515;0,0183506
2345,0159;0,018202
2345,9800;0,0186405
2346,9443;0,0195003
2347,9084;0,0203868
2348,8728;0,0209501
2349,8369;0,0210398
2350,8013;0,0207319
2351,7654;0,0202649
2352,7297;0,0199099
2353,6938;0,0198286
2354,6582;0,0200229
2355,6223;0,0204012
2356,5867;0,0208482
2357,5508;0,0212302
2358,5151;0,0214006
2359,4792;0,0212554
2360,4436;0,0207928
2361,4077;0,0201035
2362,3721;0,0193092
2363,3362;0,0185193
2364,3005;0,0178224
2365,2646;0,017278
2366,2290;0,0168968
2367,1931;0,0166348
2368,1575;0,0164211
2369,1216;0,0162009
2370,0859;0,0159628
2371,0500;0,0157329
2372,0144;0,0155512
2372,9785;0,0154506
2373,9429;0,0154506
2374,9070;0,0155602
2375,8713;0,0157807
2376,8354;0,0161041
2377,7998;0,016509
2378,7639;0,0169582
2379,7283;0,0174021
2380,6924;0,0177881
2381,6567;0,0180739
2382,6208;0,0182385
2383,5852;0,018287
2384,5493;0,0182471
2385,5137;0,0181581
2386,4778;0,0180581
2387,4421;0,0179743
2388,4063;0,0179188
2389,3706;0,0178917
2390,3347;0,017887
2391,2991;0,0178977
2392,2632;0,0179186
2393,2275;0,0179459
2394,1917;0,0179752
2395,1560;0,018001
2396,1201;0,0180171
2397,0845;0,0180195
2398,0486;0,0180097
2399,0129;0,0179942
2399,9771;0,0179826
2400,9414;0,0179844
2401,9055;0,0180028
2402,8699;0,0180335
2403,8340;0,0180668
2404,7983;0,0180932
2405,7625;0,018109
2406,7268;0,0181177
2407,6909;0,0181272
2408,6553;0,0181438
2409,6194;0,0181682
2410,5837;0,0181966
2411,5479;0,0182235
2412,5122;0,0182452
2413,4763;0,0182605
2414,4407;0,0182699
2415,4048;0,0182741
2416,3691;0,0182751
2417,3333;0,0182767
2418,2976;0,0182853
2419,2617;0,0183065
2420,2261;0,0183422
2421,1902;0,0183876
2422,1545;0,0184336
2423,1187;0,0184707
2424,0830;0,0184935
2425,0471;0,0185023
2426,0115;0,0185017
2426,9756;0,0184984
2427,9399;0,018499
2428,9041;0,0185089
2429,8684;0,0185312
2430,8325;0,0185645
2431,7969;0,0186022
2432,7610;0,0186335
2433,7253;0,0186484
2434,6895;0,0186437
2435,6538;0,0186259
2436,6179;0,0186086
2437,5823;0,0186053
2438,5464;0,0186224
2439,5107;0,0186566
2440,4749;0,0186997
2441,4392;0,0187442
2442,4033;0,0187874
2443,3677;0,0188298
2444,3318;0,01887
2445,2961;0,018902
2446,2603;0,0189176
2447,2246;0,0189121
2448,1887;0,0188891
2449,1531;0,0188604
2450,1172;0,0188397
2451,0815;0,0188361
2452,0457;0,0188506
2453,0100;0,018878
2453,9741;0,018911
2454,9385;0,0189433
2455,9026;0,0189714
2456,8669;0,0189931
2457,8311;0,0190081
2458,7954;0,0190174
2459,7595;0,0190241
2460,7239;0,0190321
2461,6880;0,0190447
2462,6523;0,0190628
2463,6165;0,0190859
2464,5808;0,0191133
2465,5449;0,0191447
2466,5093;0,0191795
2467,4734;0,0192157
2468,4377;0,0192497
2469,4019;0,0192779
2470,3662;0,0192997
2471,3303;0,0193179
2472,2947;0,0193365
2473,2588;0,0193571
2474,2231;0,0193776
2475,1873;0,0193936
2476,1516;0,0194025
2477,1157;0,0194064
2478,0801;0,0194113
2479,0442;0,019423
2480,0085;0,0194421
2480,9727;0,0194629
2481,9370;0,0194773
2482,9011;0,0194807
2483,8655;0,0194759
2484,8296;0,0194716
2485,7939;0,0194768
2486,7581;0,0194948
2487,7224;0,0195208
2488,6865;0,0195454
2489,6509;0,0195612
2490,6150;0,0195665
2491,5793;0,0195649
2492,5435;0,0195609
2493,5078;0,0195568
2494,4719;0,0195521
2495,4363;0,0195472
2496,4004;0,0195466
2497,3647;0,0195573
2498,3289;0,0195842
2499,2932;0,0196251
2500,2573;0,0196703
2501,2217;0,0197076
2502,1858;0,0197291
2503,1501;0,0197356
2504,1143;0,0197347
2505,0786;0,0197359
2506,0427;0,0197451
2507,0071;0,0197633
2507,9712;0,0197878
2508,9355;0,0198148
2509,8997;0,01984
2510,8640;0,0198591
2511,8281;0,0198692
2512,7925;0,0198704
2513,7566;0,0198674
2514,7209;0,0198679
2515,6851;0,0198774
2516,6494;0,0198952
2517,6135;0,0199138
2518,5779;0,0199234
2519,5420;0,0199188
2520,5063;0,0199035
2521,4705;0,0198876
2522,4348;0,0198815
2523,3989;0,0198894
2524,3633;0,0199082
2525,3274;0,0199308
2526,2917;0,019952
2527,2559;0,0199703
2528,2202;0,0199873
2529,1843;0,0200036
2530,1487;0,0200176
2531,1128;0,0200264
2532,0771;0,0200289
2533,0413;0,0200278
2534,0056;0,0200279
2534,9697;0,0200334
2535,9341;0,0200448
2536,8982;0,0200592
2537,8625;0,0200721
2538,8267;0,0200804
2539,7910;0,0200835
2540,7551;0,0200825
2541,7195;0,0200797
2542,6836;0,0200779
2543,6479;0,0200803
2544,6121;0,0200899
2545,5764;0,0201076
2546,5405;0,0201306
2547,5049;0,0201525
2548,4690;0,0201655
2549,4333;0,0201647
2550,3975;0,0201515
2551,3618;0,0201336
2552,3259;0,0201222
2553,2903;0,0201262
2554,2544;0,0201476
2555,2188;0,0201802
2556,1829;0,0202119
2557,1472;0,0202314
2558,1113;0,020234
2559,0757;0,0202241
2560,0398;0,0202127
2561,0042;0,0202113
2561,9683;0,020225
2562,9326;0,0202495
2563,8967;0,0202743
2564,8611;0,0202896
2565,8252;0,0202919
2566,7896;0,0202856
2567,7537;0,0202798
2568,7180;0,0202812
2569,6821;0,0202913
2570,6465;0,0203054
2571,6106;0,0203172
2572,5750;0,0203217
2573,5391;0,020318
2574,5034;0,0203077
2575,4675;0,0202945
2576,4319;0,0202826
2577,3960;0,0202767
2578,3604;0,020281
2579,3245;0,020298
2580,2888;0,0203264
2581,2529;0,0203609
2582,2173;0,0203951
2583,1814;0,0204243
2584,1458;0,020448
2585,1099;0,0204694
2586,0742;0,0204917
2587,0383;0,020515
2588,0027;0,0205355
2588,9668;0,0205471
2589,9312;0,0205456
2590,8953;0,0205318
2591,8596;0,0205118
2592,8237;0,0204953
2593,7881;0,020492
2594,7522;0,0205077
2595,7166;0,0205423
2596,6807;0,0205889
2597,6450;0,0206368
2598,6091;0,0206749
2599,5735;0,0206969
2600,5376;0,020704
2601,5020;0,0207043
2602,4661;0,0207079
2603,4304;0,0207213
2604,3945;0,0207438
2605,3589;0,0207685
2606,3230;0,0207866
2607,2874;0,0207937
2608,2515;0,0207922
2609,2158;0,0207897
2610,1799;0,0207942
2611,1443;0,02081
2612,1084;0,0208363
2613,0728;0,0208686
2614,0369;0,0209023
2615,0012;0,0209344
2615,9653;0,0209645
2616,9297;0,0209923
2617,8938;0,0210174
2618,8582;0,0210383
2619,8223;0,0210542
2620,7866;0,0210654
2621,7507;0,0210741
2622,7151;0,0210831
2623,6792;0,0210946
2624,6436;0,0211101
2625,6077;0,0211301
2626,5720;0,0211548
2627,5361;0,0211838
2628,5005;0,0212152
2629,4646;0,0212456
2630,4290;0,0212704
2631,3931;0,0212861
2632,3574;0,0212927
2633,3215;0,021294
2634,2859;0,0212965
2635,2500;0,021306
2636,2144;0,0213249
2637,1785;0,0213514
2638,1428;0,0213811
2639,1069;0,0214097
2640,0713;0,0214359
2641,0354;0,021461
2641,9998;0,0214866
2642,9639;0,021513
2643,9282;0,0215379
2644,8923;0,0215579
2645,8567;0,0215714
2646,8208;0,02158
2647,7852;0,0215881
2648,7493;0,0216004
2649,7136;0,0216197
2650,6777;0,0216453
2651,6421;0,0216742
2652,6062;0,0217031
2653,5706;0,02173
2654,5347;0,0217543
2655,4990;0,0217766
2656,4631;0,0217987
2657,4275;0,0218227
2658,3916;0,021851
2659,3560;0,0218847
2660,3201;0,0219221
2661,2844;0,0219584
2662,2485;0,0219877
2663,2129;0,0220063
2664,1770;0,0220149
2665,1414;0,0220191
2666,1055;0,0220263
2667,0698;0,0220411
2668,0339;0,0220633
2668,9983;0,0220884
2669,9624;0,0221116
2670,9268;0,0221307
2671,8909;0,0221473
2672,8552;0,022165
2673,8193;0,0221864
2674,7837;0,0222117
2675,7478;0,0222385
2676,7122;0,0222637
2677,6763;0,0222856
2678,6406;0,0223048
2679,6047;0,0223242
2680,5691;0,0223471
2681,5332;0,0223754
2682,4976;0,0224085
2683,4617;0,0224438
2684,4260;0,022478
2685,3901;0,0225097
2686,3545;0,0225397
2687,3186;0,02257
2688,2830;0,0226007
2689,2471;0,0226291
2690,2114;0,0226506
2691,1755;0,0226623
2692,1399;0,0226664
2693,1040;0,0226703
2694,0684;0,0226829
2695,0325;0,0227097
2695,9968;0,0227496
2696,9609;0,0227957
2697,9253;0,0228392
2698,8894;0,0228739
2699,8538;0,0228982
2700,8179;0,0229149
2701,7822;0,0229291
2702,7463;0,0229458
2703,7107;0,0229686
2704,6748;0,0229989
2705,6392;0,0230351
2706,6033;0,0230735
2707,5676;0,0231098
2708,5317;0,023142
2709,4961;0,0231713
2710,4602;0,0232016
2711,4246;0,0232365
2712,3887;0,0232768
2713,3530;0,0233193
2714,3171;0,0233594
2715,2815;0,0233935
2716,2456;0,0234214
2717,2100;0,023445
2718,1741;0,0234669
2719,1384;0,0234876
2720,1025;0,023506
2721,0669;0,0235204
2722,0310;0,0235309
2722,9954;0,0235401
2723,9595;0,023553
2724,9238;0,0235741
2725,8879;0,0236062
2726,8523;0,0236484
2727,8164;0,0236965
2728,7808;0,0237449
2729,7449;0,0237888
2730,7092;0,0238259
2731,6733;0,0238565
2732,6377;0,0238825
2733,6018;0,0239056
2734,5662;0,0239262
2735,5303;0,0239439
2736,4946;0,0239588
2737,4587;0,0239726
2738,4231;0,0239882
2739,3872;0,0240078
2740,3516;0,0240315
2741,3157;0,0240574
2742,2800;0,0240828
2743,2441;0,0241056
2744,2085;0,0241258
2745,1726;0,0241439
2746,1370;0,0241602
2747,1011;0,0241742
2748,0654;0,0241857
2749,0295;0,0241962
2749,9939;0,0242098
2750,9580;0,0242318
2751,9224;0,0242655
2752,8865;0,0243107
2753,8508;0,0243624
2754,8149;0,0244133
2755,7793;0,0244571
2756,7434;0,0244905
2757,7078;0,0245145
2758,6719;0,0245335
2759,6362;0,0245532
2760,6003;0,0245787
2761,5647;0,0246125
2762,5288;0,0246538
2763,4932;0,0246988
2764,4573;0,0247429
2765,4216;0,0247827
2766,3857;0,0248184
2767,3501;0,0248534
2768,3142;0,0248919
2769,2786;0,0249362
2770,2427;0,0249843
2771,2070;0,0250314
2772,1711;0,0250726
2773,1355;0,0251058
2774,0996;0,0251334
2775,0640;0,0251606
2776,0281;0,0251926
2776,9924;0,0252316
2777,9565;0,0252762
2778,9209;0,0253228
2779,8850;0,0253688
2780,8494;0,0254143
2781,8135;0,0254616
2782,7778;0,0255135
2783,7419;0,02557
2784,7063;0,0256281
2785,6704;0,0256828
2786,6348;0,0257307
2787,5989;0,0257727
2788,5632;0,0258146
2789,5273;0,0258642
2790,4917;0,0259275
2791,4558;0,0260051
2792,4202;0,0260924
2793,3843;0,0261814
2794,3486;0,026265
2795,3127;0,0263395
2796,2771;0,0264056
2797,2412;0,0264674
2798,2056;0,0265293
2799,1697;0,0265943
2800,1340;0,0266626
2801,0981;0,0267332
2802,0625;0,0268055
2803,0266;0,0268804
2803,9910;0,0269601
2804,9551;0,0270456
2805,9194;0,0271348
2806,8835;0,0272224
2807,8479;0,0273032
2808,8120;0,0273761
2809,7764;0,027446
2810,7405;0,0275222
2811,7048;0,0276135
2812,6689;0,0277231
2813,6333;0,0278473
2814,5974;0,0279775
2815,5618;0,028105
2816,5259;0,0282251
2817,4902;0,0283379
2818,4543;0,0284473
2819,4187;0,0285583
2820,3828;0,028675
2821,3472;0,0287996
2822,3113;0,0289319
2823,2756;0,0290702
2824,2397;0,0292123
2825,2041;0,0293576
2826,1682;0,0295081
2827,1326;0,0296686
2828,0967;0,0298445
2829,0610;0,0300395
2830,0251;0,0302537
2830,9895;0,0304836
2831,9536;0,0307237
2832,9180;0,0309681
2833,8821;0,0312131
2834,8464;0,0314587
2835,8105;0,0317103
2836,7749;0,0319794
2837,7390;0,032281
2838,7034;0,032631
2839,6675;0,0330422
2840,6318;0,0335218
2841,5959;0,0340727
2842,5603;0,0346935
2843,5244;0,0353779
2844,4888;0,0361099
2845,4529;0,0368572
2846,4172;0,0375694
2847,3813;0,0381832
2848,3457;0,0386368
2849,3098;0,038888
2850,2742;0,038927
2851,2383;0,0387798
2852,2026;0,0384989
2853,1667;0,0381472
2854,1311;0,0377816
2855,0952;0,0374431
2856,0596;0,0371541
2857,0237;0,0369224
2857,9880;0,036747
2858,9521;0,0366235
2859,9165;0,0365461
2860,8806;0,0365089
2861,8450;0,0365058
2862,8091;0,0365323
2863,7734;0,0365859
2864,7375;0,0366662
2865,7019;0,0367728
2866,6660;0,0369014
2867,6304;0,0370426
2868,5945;0,037182
2869,5588;0,0373054
2870,5229;0,0374035
2871,4873;0,0374752
2872,4514;0,0375266
2873,4158;0,0375675
2874,3799;0,0376059
2875,3442;0,037646
2876,3083;0,0376889
2877,2727;0,037735
2878,2368;0,0377865
2879,2012;0,0378477
2880,1653;0,0379232
2881,1296;0,0380149
2882,0938;0,0381212
2883,0581;0,0382372
2884,0222;0,0383568
2884,9866;0,0384758
2885,9507;0,0385926
2886,9150;0,0387087
2887,8792;0,0388264
2888,8435;0,0389473
2889,8076;0,039071
2890,7720;0,0391952
2891,7361;0,0393179
2892,7004;0,039439
2893,6646;0,0395612
2894,6289;0,0396894
2895,5930;0,0398276
2896,5574;0,039977
2897,5215;0,0401346
2898,4858;0,0402944
2899,4500;0,0404503
2900,4143;0,040599
2901,3784;0,0407417
2902,3428;0,0408827
2903,3069;0,0410288
2904,2712;0,0411871
2905,2354;0,0413657
2906,1997;0,0415753
2907,1638;0,0418297
2908,1282;0,0421458
2909,0923;0,0425387
2910,0566;0,0430155
2911,0208;0,0435681
2911,9851;0,0441689
2912,9492;0,0447721
2913,9136;0,0453214
2914,8777;0,0457613
2915,8420;0,0460498
2916,8062;0,0461664
2917,7705;0,0461136
2918,7346;0,0459127
2919,6990;0,0455952
2920,6631;0,0451956
2921,6274;0,0447462
2922,5916;0,0442742
2923,5559;0,0438011
2924,5200;0,0433408
2925,4844;0,0428996
2926,4485;0,0424776
2927,4128;0,0420718
2928,3770;0,0416797
2929,3413;0,0413016
2930,3054;0,0409398
2931,2698;0,0405953
2932,2339;0,0402662
2933,1982;0,0399479
2934,1624;0,0396358
2935,1267;0,039329
2936,0908;0,0390301
2937,0552;0,0387441
2938,0193;0,0384739
2938,9836;0,038218
2939,9478;0,0379709
2940,9121;0,0377255
2941,8762;0,0374758
2942,8406;0,0372198
2943,8047;0,0369598
2944,7690;0,0367021
2945,7332;0,0364562
2946,6975;0,036232
2947,6616;0,0360373
2948,6260;0,0358747
2949,5901;0,0357402
2950,5544;0,0356246
2951,5186;0,0355173
2952,4829;0,03541
2953,4470;0,0352986
2954,4114;0,0351817
2955,3755;0,0350575
2956,3398;0,0349217
2957,3040;0,0347681
2958,2683;0,0345922
2959,2324;0,0343953
2960,1968;0,0341854
2961,1609;0,0339744
2962,1252;0,0337723
2963,0894;0,0335829
2964,0537;0,0334027
2965,0178;0,0332244
2965,9822;0,0330418
2966,9463;0,0328538
2967,9106;0,0326642
2968,8748;0,0324781
2969,8391;0,0322982
2970,8032;0,0321232
2971,7676;0,0319497
2972,7317;0,0317759
2973,6960;0,0316038
2974,6602;0,0314393
2975,6245;0,0312877
2976,5886;0,0311508
2977,5530;0,0310248
2978,5171;0,0309037
2979,4814;0,0307824
2980,4456;0,030661
2981,4099;0,0305443
2982,3740;0,0304386
2983,3384;0,0303483
2984,3025;0,0302729
2985,2668;0,0302086
2986,2310;0,0301509
2987,1953;0,0300969
2988,1594;0,0300467
2989,1238;0,0300018
2990,0879;0,0299635
2991,0522;0,0299316
2992,0164;0,0299055
2992,9807;0,0298848
2993,9448;0,0298701
2994,9092;0,0298628
2995,8733;0,0298639
2996,8376;0,0298733
2997,8018;0,0298896
2998,7661;0,0299113
2999,7302;0,029937
3000,6946;0,0299658
3001,6587;0,0299969
3002,6230;0,0300295
3003,5872;0,0300632
3004,5515;0,0300978
3005,5156;0,0301331
3006,4800;0,0301683
3007,4441;0,030202
3008,4084;0,0302328
3009,3726;0,030261
3010,3369;0,0302898
3011,3010;0,0303247
3012,2654;0,0303707
3013,2295;0,030429
3014,1938;0,0304958
3015,1580;0,0305638
3016,1223;0,0306265
3017,0864;0,0306828
3018,0508;0,0307377
3019,0149;0,0307993
3019,9792;0,0308741
3020,9434;0,0309626
3021,9077;0,0310594
3022,8718;0,0311562
3023,8362;0,0312477
3024,8003;0,0313338
3025,7646;0,0314193
3026,7288;0,0315092
3027,6931;0,0316046
3028,6572;0,0317006
3029,6216;0,0317888
3030,5857;0,0318625
3031,5500;0,0319209
3032,5142;0,0319707
3033,4785;0,0320228
3034,4426;0,0320875
3035,4070;0,0321701
3036,3711;0,0322693
3037,3354;0,0323788
3038,2996;0,0324901
3039,2639;0,0325954
3040,2280;0,0326911
3041,1924;0,0327781
3042,1565;0,0328619
3043,1208;0,0329501
3044,0850;0,0330482
3045,0493;0,0331572
3046,0134;0,033273
3046,9778;0,0333888
3047,9419;0,0334994
3048,9063;0,0336043
3049,8704;0,0337072
3050,8347;0,0338121
3051,7988;0,0339205
3052,7632;0,0340304
3053,7273;0,0341391
3054,6917;0,0342469
3055,6558;0,034358
3056,6201;0,0344779
3057,5842;0,0346087
3058,5486;0,034746
3059,5127;0,0348809
3060,4771;0,0350037
3061,4412;0,0351086
3062,4055;0,0351947
3063,3696;0,0352652
3064,3340;0,0353252
3065,2981;0,0353812
3066,2625;0,0354406
3067,2266;0,0355108
3068,1909;0,0355966
3069,1550;0,0356981
3070,1194;0,035811
3071,0835;0,0359292
3072,0479;0,0360484
3073,0120;0,036167
3073,9763;0,0362841
3074,9404;0,0363956
3075,9048;0,0364943
3076,8689;0,0365732
3077,8333;0,0366317
3078,7974;0,0366786
3079,7617;0,0367291
3080,7258;0,0367969
3081,6902;0,0368864
3082,6543;0,0369916
3083,6187;0,0371003
3084,5828;0,0372024
3085,5471;0,0372948
3086,5112;0,0373817
3087,4756;0,0374707
3088,4397;0,0375683
3089,4041;0,0376761
3090,3682;0,0377915
3091,3325;0,0379085
3092,2966;0,038021
3093,2610;0,0381248
3094,2251;0,0382192
3095,1895;0,0383067
3096,1536;0,038391
3097,1179;0,0384743
3098,0820;0,0385565
3099,0464;0,0386359
3100,0105;0,0387121
3100,9749;0,0387883
3101,9390;0,0388707
3102,9033;0,0389651
3103,8674;0,0390738
3104,8318;0,0391933
3105,7959;0,0393171
3106,7603;0,0394389
3107,7244;0,0395567
3108,6887;0,0396731
3109,6528;0,0397922
3110,6172;0,0399163
3111,5813;0,0400435
3112,5457;0,040169
3113,5098;0,0402882
3114,4741;0,0404
3115,4382;0,0405069
3116,4026;0,0406129
3117,3667;0,0407205
3118,3311;0,0408286
3119,2952;0,0409347
3120,2595;0,0410379
3121,2236;0,0411414
3122,1880;0,0412514
3123,1521;0,0413735
3124,1165;0,0415095
3125,0806;0,0416554
3126,0449;0,0418036
3127,0090;0,0419467
3127,9734;0,0420799
3128,9375;0,0422025
3129,9019;0,0423173
3130,8660;0,0424297
3131,8303;0,0425464
3132,7944;0,0426735
3133,7588;0,0428145
3134,7229;0,0429676
3135,6873;0,0431262
3136,6514;0,0432816
3137,6157;0,0434268
3138,5798;0,0435596
3139,5442;0,0436824
3140,5083;0,0438006
3141,4727;0,0439198
3142,4368;0,0440447
3143,4011;0,0441795
3144,3652;0,0443275
3145,3296;0,0444895
3146,2937;0,0446618
3147,2581;0,0448363
3148,2222;0,0450029
3149,1865;0,0451551
3150,1506;0,0452931
3151,1150;0,0454235
3152,0791;0,0455558
3153,0435;0,0456965
3154,0076;0,0458469
3154,9719;0,0460039
3155,9360;0,0461629
3156,9004;0,0463207
3157,8645;0,0464765
3158,8289;0,0466307
3159,7930;0,0467844
3160,7573;0,0469384
3161,7214;0,0470939
3162,6858;0,0472515
3163,6499;0,0474115
3164,6143;0,0475728
3165,5784;0,0477343
3166,5427;0,0478954
3167,5068;0,0480571
3168,4712;0,0482213
3169,4353;0,0483533
3170,3997;0,0485248
3171,3638;0,0486971
3172,3281;0,0488665
3173,2922;0,0490304
3174,2566;0,0491884
3175,2207;0,0493423
3176,1851;0,0494955
3177,1492;0,0496514
3178,1135;0,0498129
3179,0776;0,0499805
3180,0420;0,0501517
3181,0061;0,0503207
3181,9705;0,0504808
3182,9346;0,0506274
3183,8989;0,050761
3184,8630;0,050888
3185,8274;0,0510173
3186,7915;0,0511561
3187,7559;0,0513064
3188,7200;0,0514654
3189,6843;0,0516289
3190,6484;0,0517943
3191,6128;0,0519616
3192,5769;0,0521308
3193,5413;0,0522998
3194,5054;0,0524631
3195,4697;0,0526153
3196,4338;0,0527537
3197,3982;0,0528807
3198,3623;0,0530023
3199,3267;0,0531246
3200,2908;0,0532512
3201,2551;0,0533831
3202,2192;0,05352
3203,1836;0,0536615
3204,1477;0,0538072
3205,1121;0,053956
3206,0762;0,0541061
3207,0405;0,0542557
3208,0046;0,054404
3208,9690;0,0545516
3209,9331;0,0546987
3210,8975;0,0548443
3211,8616;0,0549861
3212,8259;0,0551222
3213,7900;0,0552532
3214,7544;0,0553816
3215,7185;0,0555104
3216,6829;0,0556401
3217,6470;0,0557692
3218,6113;0,0558957
3219,5754;0,0560197
3220,5398;0,0561443
3221,5039;0,0562736
3222,4683;0,0564099
3223,4324;0,0565524
3224,3967;0,056699
3225,3608;0,0568486
3226,3252;0,0570016
3227,2893;0,0571584
3228,2537;0,0573162
3229,2178;0,0574678
3230,1821;0,0576047
3231,1462;0,0577228
3232,1106;0,0578267
3233,0747;0,0579292
3234,0391;0,0580458
3235,0032;0,0581865
3235,9675;0,0583508
3236,9316;0,0585288
3237,8960;0,0587064
3238,8601;0,0588723
3239,8245;0,0590222
3240,7886;0,059158
3241,7529;0,0592846
3242,7170;0,059407
3243,6814;0,0595287
3244,6455;0,0596531
3245,6099;0,0597846
3246,5740;0,0599286
3247,5383;0,0600891
3248,5024;0,0602664
3249,4668;0,0604559
3250,4309;0,0606494
3251,3953;0,0608385
3252,3594;0,0610175
3253,3237;0,061186
3254,2878;0,0613481
3255,2522;0,0615099
3256,2163;0,0616763
3257,1807;0,0618492
3258,1448;0,0620269
3259,1091;0,0622057
3260,0732;0,0623813
3261,0376;0,062551
3262,0017;0,0627139
3262,9661;0,0628715
3263,9302;0,0630267
3264,8945;0,0631819
3265,8586;0,0633372
3266,8230;0,0634895
3267,7871;0,0636336
3268,7515;0,0637643
3269,7156;0,0638791
3270,6799;0,0639792
3271,6440;0,0640685
3272,6084;0,0641508
3273,5725;0,0642282
3274,5369;0,0643008
3275,5010;0,0643674
3276,4653;0,064428
3277,4294;0,0644835
3278,3938;0,0645346
3279,3579;0,0645806
3280,3223;0,0646189
3281,2864;0,0646465
3282,2507;0,0646627
3283,2148;0,0646713
3284,1792;0,0646791
3285,1433;0,064693
3286,1077;0,0647155
3287,0718;0,0647428
3288,0361;0,0647662
3289,0002;0,0647771
3289,9646;0,0647714
3290,9287;0,0647517
3291,8931;0,0647248
3292,8572;0,0646973
3293,8215;0,0646727
3294,7856;0,0646509
3295,7500;0,0646312
3296,7141;0,0646141
3297,6785;0,0646013
3298,6426;0,0645928
3299,6069;0,0645845
3300,5710;0,0645686
3301,5354;0,0645375
3302,4995;0,0644879
3303,4639;0,0644225
3304,4280;0,0643488
3305,3923;0,0642754
3306,3564;0,0642098
3307,3208;0,0641576
3308,2849;0,0641225
3309,2493;0,0641053
3310,2134;0,0641031
3311,1777;0,0641086
3312,1418;0,0641131
3313,1062;0,064111
3314,0703;0,0641036
3315,0347;0,0640984
3315,9988;0,0641043
3316,9631;0,0641257
3317,9272;0,0641594
3318,8916;0,0641974
3319,8557;0,0642323
3320,8201;0,0642616
3321,7842;0,0642876
3322,7485;0,0643132
3323,7126;0,0643385
3324,6770;0,0643603
3325,6411;0,0643755
3326,6055;0,0643859
3327,5696;0,0643975
3328,5339;0,064418
3329,4980;0,0644499
3330,4624;0,0644878
3331,4265;0,0645198
3332,3909;0,0645325
3333,3550;0,0645172
3334,3193;0,0644731
3335,2834;0,0644065
3336,2478;0,064327
3337,2119;0,0642428
3338,1763;0,0641574
3339,1404;0,0640698
3340,1047;0,0639764
3341,0688;0,063874
3342,0332;0,0637629
3342,9973;0,0636459
3343,9617;0,0635269
3344,9258;0,0634071
3345,8901;0,063284
3346,8542;0,0631531
3347,8186;0,0630119
3348,7827;0,0628628
3349,7471;0,0627123
3350,7112;0,0625669
3351,6755;0,0624283
3352,6396;0,0622917
3353,6040;0,0621494
3354,5681;0,0619965
3355,5325;0,061835
3356,4966;0,0616738
3357,4609;0,0615228
3358,4250;0,0613879
3359,3894;0,061268
3360,3535;0,0611563
3361,3179;0,0610443
3362,2820;0,0609251
3363,2463;0,0607956
3364,2104;0,0606557
3365,1748;0,0605076
3366,1389;0,0603547
3367,1033;0,0601995
3368,0674;0,0600433
3369,0317;0,0598858
3369,9958;0,0597265
3370,9602;0,0595672
3371,9243;0,059413
3372,8887;0,0592703
3373,8528;0,0591431
3374,8171;0,0590297
3375,7813;0,0589219
3376,7456;0,0588099
3377,7097;0,0586867
3378,6741;0,0585515
3379,6382;0,0584077
3380,6025;0,058259
3381,5667;0,0581067
3382,5310;0,0579512
3383,4951;0,0577968
3384,4595;0,0576533
3385,4236;0,0575333
3386,3879;0,0574435
3387,3521;0,057378
3388,3164;0,0573181
3389,2805;0,0572407
3390,2449;0,0571298
3391,2090;0,0569854
3392,1733;0,0568225
3393,1375;0,0566622
3394,1018;0,0565195
3395,0659;0,0563962
3396,0303;0,0562829
3396,9944;0,0561666
3397,9587;0,0560391
3398,9229;0,0558998
3399,8872;0,0557543
3400,8513;0,055609
3401,8157;0,0554681
3402,7798;0,0553321
3403,7441;0,0551987
3404,7083;0,0550648
3405,6726;0,0549271
3406,6367;0,0547826
3407,6011;0,054628
3408,5652;0,0544606
3409,5295;0,0542791
3410,4937;0,0540864
3411,4580;0,0538909
3412,4221;0,0537057
3413,3865;0,0535444
3414,3506;0,053413
3415,3149;0,053305
3416,2791;0,053201
3417,2434;0,0530757
3418,2075;0,0529088
3419,1719;0,0526953
3420,1360;0,052449
3421,1003;0,0521968
3422,0645;0,0519648
3423,0288;0,0517666
3423,9929;0,0515988
3424,9573;0,0514463
3425,9214;0,0512921
3426,8857;0,0511252
3427,8499;0,0509442
3428,8142;0,050755
3429,7783;0,0505646
3430,7427;0,0503758
3431,7068;0,0501869
3432,6711;0,0499955
3433,6353;0,0498036
3434,5996;0,0496191
3435,5637;0,0494509
3436,5281;0,0493024
3437,4922;0,0491677
3438,4565;0,0490348
3439,4207;0,0488931
3440,3850;0,0487386
3441,3491;0,0485724
3442,3135;0,0483936
3443,2776;0,048194
3444,2419;0,0479602
3445,2061;0,0476854
3446,1704;0,0473809
3447,1345;0,047078
3448,0989;0,0468126
3449,0630;0,046605
3450,0273;0,0464492
3450,9915;0,046319
3451,9558;0,0461852
3452,9199;0,0460305
3453,8843;0,0458548
3454,8484;0,0456701
3455,8127;0,0454882
3456,7769;0,0453119
3457,7412;0,0451335
3458,7053;0,0449414
3459,6697;0,0447286
3460,6338;0,0444984
3461,5981;0,0442628
3462,5623;0,044036
3463,5266;0,043826
3464,4907;0,0436304
3465,4551;0,0434387
3466,4192;0,0432396
3467,3835;0,0430281
3468,3477;0,0428082
3469,3120;0,0425888
3470,2761;0,042377
3471,2405;0,0421735
3472,2046;0,0419754
3473,1689;0,0417819
3474,1331;0,0415989
3475,0974;0,041435
3476,0615;0,041293
3477,0259;0,041163
3477,9900;0,0410243
3478,9543;0,0408564
3479,9185;0,0406524
3480,8828;0,0404249
3481,8469;0,0401985
3482,8113;0,0399926
3483,7754;0,0398073
3484,7397;0,0396248
3485,7039;0,0394234
3486,6682;0,0391946
3487,6323;0,0389509
3488,5967;0,0387202
3489,5608;0,038528
3490,5251;0,0383812
3491,4893;0,0382627
3492,4536;0,0381412
3493,4177;0,0379896
3494,3821;0,0378012
3495,3462;0,037596
3496,3105;0,0374085
3497,2747;0,0372643
3498,2390;0,0371598
3499,2031;0,0370604
3500,1675;0,0369188
3501,1316;0,0367036
3502,0959;0,0364234
3503,0601;0,0361276
3504,0244;0,0358748
3504,9885;0,0356934
3505,9529;0,0355657
3506,9170;0,0354449
3507,8813;0,0352866
3508,8455;0,0350748
3509,8098;0,0348282
3510,7739;0,0345841
3511,7383;0,0343711
3512,7024;0,0341944
3513,6667;0,0340409
3514,6309;0,0338961
3515,5952;0,0337571
3516,5593;0,033632
3517,5237;0,0335302
3518,4878;0,033451
3519,4521;0,0333807
3520,4163;0,0332989
3521,3806;0,0331873
3522,3447;0,0330365
3523,3091;0,0328445
3524,2732;0,0326122
3525,2375;0,0323399
3526,2017;0,0320325
3527,1660;0,0317074
3528,1301;0,0313984
3529,0945;0,0311449
3530,0586;0,0309713
3531,0229;0,0308717
3531,9871;0,0308111
3532,9514;0,0307413
3533,9155;0,0306223
3534,8799;0,030439
3535,8440;0,0302099
3536,8083;0,0299789
3537,7725;0,0297954
3538,7368;0,0296901
3539,7009;0,0296615
3540,6653;0,0296764
3541,6294;0,0296789
3542,5938;0,0296056
3543,5579;0,0294105
3544,5222;0,0290945
3545,4863;0,0287185
3546,4507;0,0283742
3547,4148;0,0281259
3548,3792;0,0279747
3549,3433;0,0278688
3550,3076;0,0277419
3551,2717;0,0275541
3552,2361;0,0273154
3553,2002;0,0270772
3554,1646;0,026894
3555,1287;0,0267844
3556,0930;0,0267237
3557,0571;0,0266692
3558,0215;0,0265947
3558,9856;0,026513
3559,9500;0,0264696
3560,9141;0,0265074
3561,8784;0,0266256
3562,8425;0,0267592
3563,8069;0,0267875
3564,7710;0,0265748
3565,7354;0,0260541
3566,6995;0,0253263
3567,6638;0,024638
3568,6279;0,0241951
3569,5923;0,024026
3570,5564;0,0240259
3571,5208;0,0240661
3572,4849;0,0240587
3573,4492;0,0239757
3574,4133;0,0238371
3575,3777;0,023682
3576,3418;0,0235359
3577,3062;0,0234021
3578,2703;0,0232796
3579,2346;0,0231874
3580,1987;0,0231662
3581,1631;0,0232499
3582,1272;0,0234285
3583,0916;0,0236305
3584,0557;0,0237336
3585,0200;0,0236071
3585,9841;0,0231955
3586,9485;0,0226119
3587,9126;0,0221115
3588,8770;0,021898
3589,8411;0,0219785
3590,8054;0,022211
3591,7695;0,0224232
3592,7339;0,022494
3593,6980;0,0223919
3594,6624;0,0221777
3595,6265;0,021951
3596,5908;0,0217699
3597,5549;0,0216171
3598,5193;0,0214401
3599,4834;0,021219
3600,4478;0,0210005
3601,4119;0,0208647
3602,3762;0,0208561
3603,3403;0,0209424
3604,3047;0,0210297
3605,2688;0,0210085
3606,2332;0,0208055
3607,1973;0,0204257
3608,1616;0,0199567
3609,1257;0,0195158
3610,0901;0,0191822
3611,0542;0,0189768
3612,0186;0,0188893
3612,9827;0,018902
3613,9470;0,0189866
3614,9111;0,0190879
3615,8755;0,0191213
3616,8396;0,0189994
3617,8040;0,0186892
3618,7681;0,0182734
3619,7324;0,0179428
3620,6965;0,0178785
3621,6609;0,0181283
3622,6250;0,0186022
3623,5894;0,0191447
3624,5535;0,0195859
3625,5178;0,0197518
3626,4819;0,0194832
3627,4463;0,018735
3628,4104;0,0177306
3629,3748;0,0168943
3630,3389;0,0164812
3631,3032;0,0164119
3632,2673;0,0164644
3633,2317;0,0164688
3634,1958;0,0163632
3635,1602;0,0161727
3636,1243;0,0159588
3637,0886;0,015769
3638,0527;0,0156157
3639,0171;0,0154938
3639,9812;0,0154118
3640,9456;0,0154036
3641,9097;0,0155078
3642,8740;0,0157337
3643,8381;0,0160368
3644,8025;0,0163103
3645,7666;0,0163819
3646,7310;0,0160316
3647,6951;0,0151262
3648,6594;0,0138966
3649,6235;0,0129244
3650,5879;0,0125732
3651,5520;0,0127182
3652,5164;0,0130406
3653,4805;0,0132824
3654,4448;0,0133114
3655,4089;0,0131298
3656,3733;0,012859
3657,3374;0,0126578
3658,3018;0,0126038
3659,2659;0,0126596
3660,2302;0,012742
3661,1943;0,0128081
3662,1587;0,0128849
3663,1228;0,0130349
3664,0872;0,0132888
3665,0513;0,0136012
3666,0156;0,0138596
3666,9797;0,0139357
3667,9441;0,013766
3668,9082;0,0134373
3669,8726;0,0131659
3670,8367;0,0131108
3671,8010;0,0132242
3672,7651;0,0133025
3673,7295;0,0131359
3674,6936;0,012659
3675,6580;0,0120516
3676,6221;0,0116224
3677,5864;0,0115273
3678,5505;0,0116926
3679,5149;0,0119726
3680,4790;0,0122784
3681,4434;0,0125966
3682,4075;0,0129479
3683,3718;0,0133349
3684,3359;0,0137116
3685,3003;0,0139843
3686,2644;0,0140378
3687,2288;0,0137892
3688,1929;0,0132803
3689,1572;0,0127353
3690,1213;0,0124306
3691,0857;0,0124662
3692,0498;0,0127432
3693,0142;0,0131119
3693,9783;0,0134735
3694,9426;0,0137902
3695,9067;0,0140563
3696,8711;0,0142668
3697,8352;0,0144009
3698,7996;0,0144258
3699,7637;0,0143239
3700,7280;0,014128
3701,6921;0,0139339
3702,6565;0,0138579
3703,6206;0,0139658
3704,5850;0,0142394
3705,5491;0,0145966
3706,5134;0,0149214
3707,4775;0,0150753
3708,4419;0,0149063
3709,4060;0,0143116
3710,3704;0,0133735
3711,3345;0,0124226
3712,2988;0,0118283
3713,2629;0,011725
3714,2273;0,0120101
3715,1914;0,0125044
3716,1558;0,0130573
3717,1199;0,0135749
3718,0842;0,0140152
3719,0483;0,0143766
3720,0127;0,0146785
3720,9768;0,0149344
3721,9412;0,015134
3722,9053;0,0152522
3723,8696;0,0152811
3724,8337;0,0152571
3725,7981;0,0152502
3726,7622;0,0153202
3727,7266;0,015481
3728,6907;0,015701
3729,6550;0,0159258
3730,6191;0,0160917
3731,5835;0,0161214
3732,5476;0,015917
3733,5120;0,0153946
3734,4761;0,0145937
3735,4404;0,0137558
3736,4045;0,01319
3737,3689;0,0130444
3738,3330;0,0132549
3739,2974;0,0136461
3740,2615;0,0140175
3741,2258;0,0141798
3742,1899;0,0139942
3743,1543;0,0134711
3744,1184;0,0128608
3745,0828;0,0125119
3746,0469;0,0125488
3747,0112;0,0127879
3747,9753;0,0129141
3748,9397;0,0126624
3749,9038;0,0119846
3750,8682;0,0111786
3751,8323;0,0106973
3752,7966;0,0107243
3753,7607;0,0110994
3754,7251;0,0115563
3755,6892;0,0118863
3756,6536;0,011981
3757,6177;0,0118485
3758,5820;0,0116116
3759,5461;0,0114386
3760,5105;0,0114314
3761,4746;0,0115785
3762,4390;0,011799
3763,4031;0,0120057
3764,3674;0,0121392
3765,3315;0,0121736
3766,2959;0,0121066
3767,2600;0,0119467
3768,2244;0,0117137
3769,1885;0,0114529
3770,1528;0,0112423
3771,1169;0,0111646
3772,0813;0,0112585
3773,0454;0,011494
3774,0098;0,0117875
3774,9739;0,0120362
3775,9382;0,0121518
3776,9023;0,0120944
3777,8667;0,0119021
3778,8308;0,0116842
3779,7952;0,0115541
3780,7593;0,0115528
3781,7236;0,0116376
3782,6877;0,01173
3783,6521;0,0117682
3784,6162;0,0117335
3785,5806;0,0116506
3786,5447;0,0115684
3787,5090;0,011535
3788,4731;0,0115783
3789,4375;0,0116993
3790,4016;0,0118738
3791,3660;0,0120614
3792,3301;0,0122226
3793,2944;0,0123381
3794,2585;0,0124209
3795,2229;0,0125061
3796,1870;0,0126139
3797,1514;0,0127123
3798,1155;0,0127161
3799,0798;0,0125369
3800,0439;0,0121705
3801,0083;0,0117486
3801,9724;0,011461
3802,9368;0,0113879
3803,9009;0,0114393
3804,8652;0,0114521
3805,8293;0,0113276
3806,7937;0,011119
3807,7578;0,0110054
3808,7222;0,0111434
3809,6863;0,0115383
3810,6506;0,0120608
3811,6147;0,01254
3812,5791;0,012836
3813,5432;0,0128861
3814,5076;0,0127422
3815,4717;0,0125532
3816,4360;0,0124497
3817,4001;0,0124268
3818,3645;0,0123605
3819,3286;0,0121333
3820,2930;0,0117597
3821,2571;0,0114029
3822,2214;0,0112362
3823,1855;0,0112982
3824,1499;0,0115016
3825,1140;0,0117318
3826,0784;0,0119153
3827,0425;0,0120344
3828,0068;0,0121111
3828,9709;0,0121794
3829,9353;0,0122649
3830,8994;0,0123788
3831,8638;0,0125202
3832,8279;0,0126739
3833,7922;0,0128045
3834,7563;0,0128549
3835,7207;0,0127657
3836,6848;0,0125166
3837,6492;0,012165
3838,6133;0,0118306
3839,5776;0,0116118
3840,5417;0,0115194
3841,5061;0,0114982
3842,4702;0,0114982
3843,4346;0,011523
3844,3987;0,011627
3845,3630;0,0118729
3846,3271;0,0122851
3847,2915;0,01283
3848,2556;0,0134205
3849,2200;0,0139202
3850,1841;0,0141335
3851,1484;0,0138215
3852,1125;0,0128655
3853,0769;0,0115884
3854,0410;0,0106667
3855,0054;0,0104497
3855,9695;0,0107716
3856,9338;0,0113329
3857,8979;0,0119231
3858,8623;0,0124226
3859,8264;0,0127607
3860,7908;0,0128991
3861,7549;0,0128483
3862,7192;0,0126889
3863,6833;0,0125468
3864,6477;0,012515
3865,6118;0,0125967
3866,5762;0,0127205
3867,5403;0,0127911
3868,5046;0,0127356
3869,4688;0,0125339
3870,4331;0,0122342
3871,3972;0,0119358
3872,3616;0,0117414
3873,3257;0,011711
3874,2900;0,0118455
3875,2542;0,012096
3876,2185;0,0123853
3877,1826;0,0126323
3878,1470;0,0127786
3879,1111;0,0128116
3880,0754;0,0127666
3881,0396;0,0126924
3882,0039;0,0126056
3882,9680;0,0124867
3883,9324;0,0123275
3884,8965;0,0121749
3885,8608;0,0121119
3886,8250;0,0121824
3887,7893;0,0123389
3888,7534;0,0124641
3889,7178;0,0124456
3890,6819;0,0122624
3891,6462;0,0120287
3892,6104;0,0119258
3893,5747;0,0120584
3894,5388;0,0123915
3895,5032;0,0128057
3896,4673;0,0131763
3897,4316;0,0134152
3898,3958;0,0134853
3899,3601;0,0133955
3900,3242;0,0131752
3901,2886;0,0128492
3902,2527;0,0124464
3903,2170;0,0120313
3904,1812;0,011701
3905,1455;0,0115299
3906,1096;0,0115224
3907,0740;0,0116237
3908,0381;0,0117649
3909,0024;0,0119008
3909,9666;0,0120233
3910,9309;0,0121519
3911,8950;0,0123079
3912,8594;0,012488
3913,8235;0,0126538
3914,7878;0,0127464
3915,7520;0,0127222
3916,7163;0,0125924
3917,6804;0,0124309
3918,6448;0,0123289
3919,6089;0,0123303
3920,5732;0,0124078
3921,5374;0,0124898
3922,5017;0,0125101
3923,4658;0,0124516
3924,4302;0,0123592
3925,3943;0,0123077
3926,3586;0,0123463
3927,3228;0,0124644
3928,2871;0,0126019
3929,2512;0,0126841
3930,2156;0,0126608
3931,1797;0,0125336
3932,1440;0,0123556
3933,1082;0,0121972
3934,0725;0,0121072
3935,0366;0,0121004
3936,0010;0,0121679
3936,9651;0,0122882
3937,9294;0,0124308
3938,8936;0,0125571
3939,8579;0,012629
3940,8220;0,0126277
3941,7864;0,0125714
3942,7505;0,0125107
3943,7148;0,0124967
3944,6790;0,012544
3945,6433;0,0126202
3946,6074;0,0126659
3947,5718;0,0126314
3948,5359;0,0125081
3949,5002;0,0123365
3950,4644;0,0121808
3951,4287;0,012089
3952,3928;0,0120716
3953,3572;0,0121084
3954,3213;0,0121689
3955,2856;0,0122297
3956,2498;0,0122802
3957,2141;0,0123188
3958,1782;0,0123451
3959,1426;0,0123569
3960,1067;0,0123516
3961,0710;0,0123308
3962,0352;0,0123016
3962,9995;0,0122742
3963,9636;0,0122563
3964,9280;0,0122505
3965,8921;0,0122552
3966,8564;0,012268
3967,8206;0,0122878
3968,7849;0,0123147
3969,7490;0,0123467
3970,7134;0,0123779
3971,6775;0,0123985
3972,6418;0,0124002
3973,6060;0,0123809
3974,5703;0,0123478
3975,5344;0,0123145
3976,4988;0,0122935
3977,4629;0,01229
3978,4272;0,0122991
3979,3914;0,0123099
3980,3557;0,0123122
3981,3198;0,0123024
3982,2842;0,0122852
3983,2483;0,012271
3984,2126;0,0122694
3985,1768;0,0122842
3986,1411;0,0123116
3987,1052;0,0123426
3988,0696;0,0123676
3989,0337;0,0123804
3989,9980;0,0123804
3990,9622;0,0123712
3991,9265;0,0123569
3992,8906;0,0123403
3993,8550;0,0123222
3994,8191;0,0123031
3995,7834;0,0122848
3996,7476;0,0122699
3997,7119;0,0122611
3998,6760;0,0122594
3999,6404;0,0122642
4000,6045;0,0122678

##### Extended Information
[Comments]
Sample name
Comment
Username
Division
Organization;UNIVERSIDAD INDUSTRIAL DE SANTANDER

[Detailed Information]
Creation date;18/03/2025 12:22 p.m.

Data array type;Linear data array
Horizontal axis;Wavenumber [cm-1]
Vertical axis;Abs
Start;399,193 cm-1
End;4000,6 cm-1
Data interval;0,964233 cm-1
Data points;3736    

[Measurement Information]
Model name;FT/IR-4X1typeA
Serial No.;A035162111

Accessory;ATR PRO 4X
Accessory S/N;A021162126
Incident angle;45 deg

Measurement date;18/03/2025 12:22 p.m.

Light source;Standard
Detector;TGS
Accumulation;40
Resolution;4 cm-1
Zero filling;On
Apodization;Cosine
Gain;Auto (8)
Aperture;Auto (7 mm)
Scan speed;Auto (2 mm/sec)
Filter;Auto (12800 Hz)

