TITLE;
DATA TYPE;INFRARED SPECTRUM
ORIGIN;JASCO
OWNER;
DATE;25/03/18
TIME;13:59:44
SPECTROMETER/DATA SYSTEM;
LOCALE;9226
RESOLUTION;
DELTAX;0,964233
XUNITS;1/CM
YUNITS;ABSORBANCE
FIRSTX;  399,1927
LASTX; 4000,6047
NPOINTS;    3736
FIRSTY;     0,12302
MAXY;     0,16486
MINY;     0,01198
XYDATA
399,1927;0,123017
400,1569;0,124112
401,1211;0,123803
402,0854;0,122833
403,0496;0,121899
404,0138;0,12144
404,9781;0,121563
405,9423;0,122048
406,9065;0,12248
407,8708;0,122503
408,8350;0,122039
409,7992;0,121344
410,7635;0,120862
411,7277;0,120968
412,6919;0,121754
413,6562;0,123032
414,6204;0,124507
415,5846;0,125953
416,5489;0,127262
417,5131;0,12839
418,4773;0,129278
419,4416;0,12983
420,4058;0,130008
421,3700;0,129888
422,3343;0,129602
423,2985;0,129279
424,2627;0,129031
425,2270;0,128937
426,1912;0,129013
427,1554;0,129208
428,1197;0,129444
429,0839;0,129667
430,0481;0,12988
431,0124;0,130126
431,9766;0,130439
432,9408;0,130795
433,9051;0,131102
434,8693;0,131245
435,8335;0,131167
436,7978;0,130923
437,7620;0,130649
438,7262;0,13048
439,6905;0,130467
440,6547;0,130556
441,6189;0,130624
442,5832;0,130567
443,5474;0,130372
444,5116;0,130127
445,4759;0,129949
446,4401;0,129887
447,4043;0,129893
448,3686;0,129869
449,3328;0,129739
450,2970;0,129508
451,2613;0,129266
452,2255;0,129156
453,1897;0,129301
454,1540;0,129759
455,1182;0,130501
456,0824;0,131396
457,0467;0,132215
458,0109;0,132695
458,9751;0,132691
459,9394;0,132267
460,9036;0,131646
461,8678;0,131064
462,8321;0,130672
463,7963;0,130507
464,7605;0,130503
465,7248;0,13053
466,6890;0,130463
467,6532;0,130247
468,6175;0,129912
469,5817;0,12955
470,5459;0,129276
471,5102;0,129175
472,4744;0,129265
473,4386;0,129484
474,4029;0,129725
475,3671;0,129901
476,3313;0,129986
477,2956;0,130016
478,2598;0,130057
479,2240;0,130169
480,1883;0,130366
481,1525;0,130609
482,1167;0,130831
483,0810;0,130991
484,0452;0,131107
485,0094;0,13124
485,9737;0,131448
486,9379;0,131723
487,9021;0,131995
488,8664;0,132176
489,8306;0,132218
490,7948;0,132148
491,7591;0,132055
492,7233;0,13204
493,6875;0,132148
494,6518;0,13235
495,6160;0,132575
496,5802;0,132763
497,5445;0,1329
498,5087;0,133018
499,4729;0,133173
500,4372;0,133413
501,4014;0,133752
502,3656;0,134155
503,3299;0,134545
504,2941;0,134835
505,2583;0,13496
506,2226;0,134915
507,1868;0,134755
508,1510;0,134589
509,1153;0,134529
510,0795;0,134633
511,0437;0,134875
512,0080;0,135174
512,9722;0,135453
513,9365;0,135692
514,9007;0,135946
515,8649;0,136301
516,8292;0,136804
517,7934;0,137392
518,7576;0,137915
519,7219;0,138228
520,6861;0,138287
521,6503;0,138164
522,6146;0,137979
523,5788;0,137835
524,5430;0,13777
525,5073;0,137756
526,4715;0,137732
527,4357;0,137658
528,4000;0,137535
529,3642;0,137396
530,3284;0,137273
531,2927;0,137176
532,2569;0,137095
533,2211;0,137014
534,1854;0,136921
535,1496;0,136812
536,1138;0,136691
537,0781;0,136561
538,0423;0,136431
539,0065;0,13631
539,9708;0,136207
540,9350;0,136124
541,8992;0,136049
542,8635;0,135966
543,8277;0,135871
544,7919;0,135784
545,7562;0,135752
546,7204;0,135822
547,6846;0,136011
548,6489;0,136288
549,6131;0,136581
550,5773;0,136821
551,5416;0,136974
552,5058;0,13706
553,4700;0,137126
554,4343;0,137215
555,3985;0,137332
556,3627;0,137438
557,3270;0,137481
558,2912;0,137416
559,2554;0,137221
560,2197;0,136896
561,1839;0,136446
562,1481;0,135884
563,1124;0,135245
564,0766;0,134588
565,0408;0,133983
566,0051;0,133481
566,9693;0,13309
567,9335;0,132764
568,8978;0,132439
569,8620;0,132077
570,8262;0,131694
571,7905;0,131348
572,7547;0,131103
573,7189;0,130992
574,6832;0,130994
575,6474;0,131049
576,6116;0,131089
577,5759;0,13107
578,5401;0,130983
579,5043;0,130844
580,4686;0,130675
581,4328;0,130491
582,3970;0,130303
583,3613;0,130131
584,3255;0,130002
585,2897;0,129948
586,2540;0,129987
587,2182;0,130113
588,1824;0,130288
589,1467;0,130452
590,1109;0,130545
591,0751;0,130523
592,0394;0,130373
593,0036;0,130117
593,9678;0,129797
594,9321;0,129457
595,8963;0,12913
596,8605;0,128844
597,8248;0,128612
598,7890;0,128433
599,7532;0,128282
600,7175;0,12812
601,6817;0,127906
602,6459;0,127626
603,6102;0,127298
604,5744;0,126969
605,5386;0,126685
606,5029;0,126465
607,4671;0,126301
608,4313;0,126165
609,3956;0,126035
610,3598;0,12591
611,3240;0,125797
612,2883;0,125697
613,2525;0,125587
614,2167;0,125425
615,1810;0,12516
616,1452;0,124758
617,1094;0,124205
618,0737;0,123514
619,0379;0,122707
620,0021;0,121807
620,9664;0,120834
621,9306;0,119814
622,8948;0,118779
623,8591;0,117765
624,8233;0,116796
625,7875;0,115881
626,7518;0,115008
627,7160;0,114168
628,6802;0,113369
629,6445;0,112636
630,6087;0,112002
631,5729;0,111479
632,5372;0,111053
633,5014;0,110686
634,4656;0,110336
635,4299;0,109976
636,3941;0,109599
637,3583;0,109211
638,3226;0,108822
639,2868;0,108441
640,2510;0,108073
641,2153;0,107717
642,1795;0,107368
643,1437;0,107006
644,1080;0,10661
645,0722;0,106167
646,0364;0,105683
647,0007;0,105188
647,9649;0,104728
648,9291;0,104339
649,8934;0,104032
650,8576;0,103789
651,8218;0,103591
652,7861;0,103431
653,7503;0,103327
654,7145;0,103303
655,6788;0,103363
656,6430;0,103473
657,6072;0,103576
658,5715;0,103617
659,5357;0,103577
660,4999;0,103478
661,4642;0,103357
662,4284;0,103227
663,3926;0,103049
664,3569;0,102732
665,3211;0,102156
666,2853;0,101206
667,2496;0,099881
668,2138;0,0984991
669,1780;0,0976007
670,1423;0,0973326
671,1065;0,0973326
672,0707;0,0972116
673,0350;0,0967759
673,9992;0,0959979
674,9634;0,0949659
675,9277;0,0938369
676,8919;0,0927606
677,8561;0,0918069
678,8204;0,0909646
679,7846;0,0901989
680,7488;0,0895013
681,7131;0,0888909
682,6773;0,0883835
683,6415;0,0879686
684,6058;0,087615
685,5700;0,0872928
686,5342;0,0869878
687,4985;0,0866998
688,4627;0,0864326
689,4269;0,086185
690,3912;0,0859537
691,3554;0,0857386
692,3196;0,0855439
693,2839;0,0853745
694,2481;0,0852305
695,2123;0,0851038
696,1766;0,0849793
697,1408;0,0848396
698,1050;0,0846712
699,0693;0,0844704
700,0335;0,0842457
700,9977;0,0840143
701,9620;0,0837943
702,9262;0,0835947
703,8904;0,0834088
704,8547;0,0832186
705,8189;0,0830018
706,7831;0,0827427
707,7474;0,0824377
708,7116;0,0820929
709,6758;0,0817176
710,6401;0,0813195
711,6043;0,080905
712,5685;0,0804824
713,5328;0,0800631
714,4970;0,0796564
715,4612;0,0792146
716,4255;0,078829
717,3897;0,0784241
718,3539;0,0779802
719,3182;0,0774955
720,2824;0,0769899
721,2466;0,076492
722,2109;0,0760181
723,1751;0,0755604
724,1393;0,0750956
725,1036;0,0746051
726,0678;0,0740907
727,0320;0,0735749
727,9963;0,0730861
728,9605;0,0726393
729,9247;0,0722268
730,8890;0,0718265
731,8532;0,0714181
732,8174;0,0709972
733,7817;0,0705757
734,7459;0,0701727
735,7101;0,0698024
736,6744;0,0694672
737,6386;0,0691579
738,6028;0,0688595
739,5671;0,0685591
740,5313;0,0682527
741,4955;0,0679473
742,4598;0,0676565
743,4240;0,067391
744,3882;0,0671494
745,3525;0,0669156
746,3167;0,0666663
747,2809;0,0663844
748,2452;0,0660681
749,2094;0,0657308
750,1736;0,0653907
751,1379;0,0650601
752,1021;0,0647423
753,0663;0,064436
754,0306;0,0641424
754,9948;0,0638673
755,9590;0,0636147
756,9233;0,0633801
757,8875;0,0631498
758,8517;0,0629082
759,8160;0,0626485
760,7802;0,062379
761,7444;0,0621194
762,7087;0,061891
763,6729;0,0617051
764,6371;0,061558
765,6014;0,0614319
766,5656;0,0613023
767,5298;0,0611475
768,4941;0,0609568
769,4583;0,0607351
770,4225;0,0605015
771,3868;0,0602814
772,3510;0,0600966
773,3152;0,0599566
774,2795;0,0598569
775,2437;0,0597825
776,2079;0,059714
777,1722;0,0596313
778,1364;0,0595156
779,1006;0,0593506
780,0649;0,0591264
781,0291;0,0588443
781,9933;0,0585173
782,9576;0,0581644
783,9218;0,0578023
784,8860;0,0574386
785,8503;0,0570743
786,8145;0,0567118
787,7787;0,0563615
788,7430;0,0560412
789,7072;0,055767
790,6714;0,0555445
791,6357;0,0553659
792,5999;0,0552163
793,5641;0,0550821
794,5284;0,0549552
795,4926;0,054832
796,4568;0,0547092
797,4211;0,054584
798,3853;0,0544571
799,3495;0,0543344
800,3138;0,0542242
801,2780;0,0541291
802,2422;0,0540413
803,2065;0,0539458
804,1707;0,0538304
805,1349;0,0536953
806,0992;0,0535545
807,0634;0,0534273
808,0276;0,0533273
808,9919;0,0532565
809,9561;0,053208
810,9203;0,0531729
811,8846;0,0531443
812,8488;0,0531174
813,8130;0,0530853
814,7773;0,0530389
815,7415;0,0529709
816,7057;0,0528813
817,6700;0,0527799
818,6342;0,0526832
819,5984;0,0526066
820,5627;0,0525579
821,5269;0,0525359
822,4911;0,0525319
823,4554;0,0525351
824,4196;0,0525361
825,3839;0,0525291
826,3481;0,0525124
827,3123;0,0524864
828,2766;0,0524515
829,2408;0,0524045
830,2050;0,0523385
831,1693;0,0522451
832,1335;0,0521209
833,0977;0,0519707
834,0620;0,0518061
835,0262;0,0516381
835,9904;0,0514693
836,9547;0,0512921
837,9189;0,0510949
838,8831;0,0508729
839,8474;0,0506345
840,8116;0,0503986
841,7758;0,0501844
842,7401;0,0500018
843,7043;0,0498485
844,6685;0,0497163
845,6328;0,0495996
846,5970;0,0494994
847,5612;0,0494213
848,5255;0,0493681
849,4897;0,0493352
850,4539;0,0493102
851,4182;0,049278
852,3824;0,049226
853,3466;0,0491487
854,3109;0,0490489
855,2751;0,0489366
856,2393;0,048826
857,2036;0,0487301
858,1678;0,0486562
859,1320;0,0486041
860,0963;0,0485679
861,0605;0,0485425
862,0247;0,0485274
862,9890;0,048527
863,9532;0,0485455
864,9174;0,0485821
865,8817;0,048631
866,8459;0,0486864
867,8101;0,0487483
868,7744;0,0488241
869,7386;0,0489225
870,7028;0,0490458
871,6671;0,0491859
872,6313;0,0493276
873,5955;0,0494565
874,5598;0,0495644
875,5240;0,04965
876,4882;0,0497148
877,4525;0,0497605
878,4167;0,0497904
879,3809;0,0498143
880,3452;0,0498497
881,3094;0,0499177
882,2736;0,0500343
883,2379;0,0502039
884,2021;0,0504204
885,1663;0,0506743
886,1306;0,0509622
887,0948;0,0512899
888,0590;0,0516674
889,0233;0,0520982
889,9875;0,0525712
890,9517;0,0530603
891,9160;0,0535308
892,8802;0,0539503
893,8444;0,0542974
894,8087;0,0545638
895,7729;0,0547517
896,7371;0,0548665
897,7014;0,0549123
898,6656;0,0548901
899,6298;0,0547992
900,5941;0,054642
901,5583;0,0544258
902,5225;0,0541641
903,4868;0,0538735
904,4510;0,0535726
905,4152;0,0532805
906,3795;0,0530186
907,3437;0,0528102
908,3079;0,0526768
909,2722;0,0526316
910,2364;0,0526717
911,2007;0,0527771
912,1649;0,0529163
913,1292;0,0530592
914,0934;0,0531889
915,0576;0,0533071
916,0219;0,0534297
916,9861;0,0535769
917,9503;0,0537613
918,9146;0,0539814
919,8788;0,0542224
920,8430;0,0544611
921,8073;0,0546746
922,7715;0,0548481
923,7357;0,0549799
924,7000;0,0550808
925,6642;0,0551688
926,6284;0,0552591
927,5927;0,055356
928,5569;0,0554506
929,5211;0,0555264
930,4854;0,0555695
931,4496;0,0555786
932,4138;0,055568
933,3781;0,0555632
934,3423;0,0555921
935,3065;0,0556766
936,2708;0,0558268
937,2350;0,0560403
938,1992;0,0563054
939,1635;0,0566062
940,1277;0,0569292
941,0919;0,0572679
942,0562;0,0576235
943,0204;0,0580013
943,9846;0,0584064
944,9489;0,0588402
945,9131;0,0593034
946,8773;0,0597994
947,8416;0,0603361
948,8058;0,060922
949,7700;0,0615583
950,7343;0,0622357
951,6985;0,0629371
952,6627;0,063649
953,6270;0,0643704
954,5912;0,0651146
955,5554;0,0659013
956,5197;0,0667461
957,4839;0,0676538
958,4481;0,0686205
959,4124;0,0696387
960,3766;0,0707004
961,3408;0,0717967
962,3051;0,0729146
963,2693;0,0740394
964,2335;0,0751623
965,1978;0,0762881
966,1620;0,077437
967,1262;0,0786363
968,0905;0,0799082
969,0547;0,0812605
970,0189;0,082689
970,9832;0,0841879
971,9474;0,0857622
972,9116;0,087432
973,8759;0,0892287
974,8401;0,0911838
975,8043;0,0933177
976,7686;0,0956328
977,7328;0,0981104
978,6970;0,100711
979,6613;0,103376
980,6255;0,106033
981,5897;0,108608
982,5540;0,111029
983,5182;0,113245
984,4824;0,115224
985,4467;0,116957
986,4109;0,118451
987,3751;0,119722
988,3394;0,120792
989,3036;0,121688
990,2678;0,122438
991,2321;0,123067
992,1963;0,123603
993,1605;0,124068
994,1248;0,124488
995,0890;0,124888
996,0532;0,125288
997,0175;0,125702
997,9817;0,12613
998,9459;0,126562
999,9102;0,126988
1000,8744;0,127411
1001,8386;0,12785
1002,8029;0,128338
1003,7671;0,128907
1004,7313;0,129575
1005,6956;0,130346
1006,6598;0,13122
1007,6240;0,132201
1008,5883;0,133301
1009,5525;0,13454
1010,5167;0,135925
1011,4810;0,137441
1012,4452;0,139051
1013,4094;0,140705
1014,3737;0,142355
1015,3379;0,143972
1016,3021;0,145541
1017,2664;0,14706
1018,2306;0,148532
1019,1948;0,149957
1020,1591;0,15134
1021,1233;0,15269
1022,0875;0,154018
1023,0518;0,155335
1024,0160;0,156648
1024,9802;0,157953
1025,9445;0,159239
1026,9087;0,160489
1027,8729;0,161675
1028,8372;0,162759
1029,8014;0,163686
1030,7656;0,16439
1031,7299;0,1648
1032,6941;0,164858
1033,6583;0,16454
1034,6226;0,163858
1035,5868;0,162872
1036,5510;0,161675
1037,5153;0,160383
1038,4795;0,159117
1039,4437;0,157983
1040,4080;0,157056
1041,3722;0,156362
1042,3364;0,155883
1043,3007;0,155567
1044,2649;0,155341
1045,2291;0,15514
1046,1934;0,154909
1047,1576;0,154609
1048,1218;0,154217
1049,0861;0,153713
1050,0503;0,153081
1051,0145;0,152307
1051,9788;0,151381
1052,9430;0,150304
1053,9072;0,14908
1054,8715;0,147718
1055,8357;0,146225
1056,7999;0,144599
1057,7642;0,142829
1058,7284;0,140896
1059,6926;0,138786
1060,6569;0,1365
1061,6211;0,134071
1062,5853;0,131556
1063,5496;0,129035
1064,5138;0,126594
1065,4780;0,124307
1066,4423;0,122223
1067,4065;0,120358
1068,3707;0,118693
1069,3350;0,117188
1070,2992;0,115796
1071,2634;0,114473
1072,2277;0,113194
1073,1919;0,111943
1074,1561;0,110707
1075,1204;0,109472
1076,0846;0,108221
1077,0488;0,106945
1078,0131;0,105651
1078,9773;0,104366
1079,9415;0,10313
1080,9058;0,101982
1081,8700;0,100948
1082,8342;0,100034
1083,7985;0,0992323
1084,7627;0,0985299
1085,7269;0,0979162
1086,6912;0,0973863
1087,6554;0,0969402
1088,6196;0,0965802
1089,5839;0,0963084
1090,5481;0,0961246
1091,5123;0,0960249
1092,4766;0,0960015
1093,4408;0,0960439
1094,4050;0,0961431
1095,3693;0,0962944
1096,3335;0,0964991
1097,2977;0,0967613
1098,2620;0,0970824
1099,2262;0,0974545
1100,1904;0,0978575
1101,1547;0,0982608
1102,1189;0,0986296
1103,0831;0,0989324
1104,0474;0,0991475
1105,0116;0,0992657
1105,9758;0,0992892
1106,9401;0,099226
1107,9043;0,099082
1108,8685;0,0988534
1109,8328;0,0985233
1110,7970;0,0980668
1111,7612;0,0974632
1112,7255;0,096711
1113,6897;0,0958367
1114,6539;0,0948935
1115,6182;0,0939461
1116,5824;0,0930508
1117,5466;0,0922378
1118,5109;0,0915041
1119,4751;0,0908168
1120,4393;0,0901245
1121,4036;0,0893704
1122,3678;0,0885038
1123,3320;0,0874881
1124,2963;0,0863067
1125,2605;0,0849637
1126,2247;0,0834821
1127,1890;0,0818974
1128,1532;0,0802483
1129,1174;0,078569
1130,0817;0,0768854
1131,0459;0,075216
1132,0101;0,073576
1132,9744;0,0719823
1133,9386;0,0704563
1134,9028;0,0690244
1135,8671;0,067715
1136,8313;0,066555
1137,7955;0,0655638
1138,7598;0,0647494
1139,7240;0,0641045
1140,6882;0,0636074
1141,6525;0,0632264
1142,6167;0,0629276
1143,5809;0,0626832
1144,5452;0,0624773
1145,5094;0,0623073
1146,4736;0,0621802
1147,4379;0,0621068
1148,4021;0,0620947
1149,3663;0,0621442
1150,3306;0,0622463
1151,2948;0,0623841
1152,2590;0,0625362
1153,2233;0,0626809
1154,1875;0,0627993
1155,1517;0,0628747
1156,1160;0,0628885
1157,0802;0,0628159
1158,0444;0,0626216
1159,0087;0,0622624
1159,9729;0,061694
1160,9371;0,0608811
1161,9014;0,0598068
1162,8656;0,0584772
1163,8298;0,0569207
1164,7941;0,0551833
1165,7583;0,0533237
1166,7225;0,0514073
1167,6868;0,0495015
1168,6510;0,0476694
1169,6152;0,045963
1170,5795;0,0444172
1171,5437;0,043049
1172,5079;0,0418591
1173,4722;0,0408378
1174,4364;0,0399704
1175,4006;0,0392405
1176,3649;0,0386312
1177,3291;0,0381255
1178,2933;0,0377073
1179,2576;0,0373627
1180,2218;0,0370819
1181,1860;0,0368594
1182,1503;0,0366916
1183,1145;0,0365742
1184,0787;0,0365007
1185,0430;0,036463
1186,0072;0,0364551
1186,9714;0,0364757
1187,9357;0,036529
1188,8999;0,0366228
1189,8641;0,0367632
1190,8284;0,0369522
1191,7926;0,0371875
1192,7568;0,0374653
1193,7211;0,0377842
1194,6853;0,0381459
1195,6495;0,0385524
1196,6138;0,0390014
1197,5780;0,0394843
1198,5422;0,0399869
1199,5065;0,040309
1200,4707;0,040834
1201,4349;0,0413523
1202,3992;0,0418647
1203,3634;0,042374
1204,3276;0,0428814
1205,2919;0,0433866
1206,2561;0,0438892
1207,2203;0,0443906
1208,1846;0,0448947
1209,1488;0,0454062
1210,1130;0,0459295
1211,0773;0,0464673
1212,0415;0,0470212
1213,0057;0,047592
1213,9700;0,04818
1214,9342;0,0487845
1215,8984;0,0494024
1216,8627;0,0500262
1217,8269;0,0506441
1218,7911;0,0512437
1219,7554;0,0518135
1220,7196;0,0523441
1221,6838;0,0528296
1222,6481;0,0532665
1223,6123;0,0536541
1224,5765;0,0539932
1225,5408;0,0542869
1226,5050;0,0545405
1227,4692;0,0547616
1228,4335;0,0549583
1229,3977;0,0551377
1230,3619;0,0553034
1231,3262;0,0554548
1232,2904;0,0555883
1233,2546;0,0556993
1234,2189;0,0557858
1235,1831;0,0558491
1236,1473;0,0558935
1237,1116;0,0559237
1238,0758;0,0559426
1239,0400;0,0559507
1240,0043;0,0559466
1240,9685;0,0559286
1241,9327;0,0558948
1242,8970;0,0558423
1243,8612;0,0557651
1244,8254;0,0556555
1245,7897;0,055507
1246,7539;0,0553188
1247,7181;0,0550978
1248,6824;0,054857
1249,6466;0,0546103
1250,6108;0,0543672
1251,5751;0,0541318
1252,5393;0,0539047
1253,5035;0,0536867
1254,4678;0,0534795
1255,4320;0,0532828
1256,3962;0,0530905
1257,3605;0,0528894
1258,3247;0,0526638
1259,2889;0,0524024
1260,2532;0,0521041
1261,2174;0,051777
1262,1816;0,0514321
1263,1459;0,0510755
1264,1101;0,0507063
1265,0743;0,0503184
1266,0386;0,0499064
1267,0028;0,0494677
1267,9670;0,0490022
1268,9313;0,0485103
1269,8955;0,0479919
1270,8597;0,0474485
1271,8240;0,0468858
1272,7882;0,0463145
1273,7524;0,0457481
1274,7167;0,0451992
1275,6809;0,0446767
1276,6451;0,0441844
1277,6094;0,0437216
1278,5736;0,0432841
1279,5378;0,0428654
1280,5021;0,0424593
1281,4663;0,0420622
1282,4305;0,0416752
1283,3948;0,0413036
1284,3590;0,0409556
1285,3232;0,0406397
1286,2875;0,040362
1287,2517;0,0401262
1288,2159;0,0399335
1289,1802;0,0397841
1290,1444;0,0396777
1291,1086;0,0396146
1292,0729;0,0395951
1293,0371;0,0396201
1294,0013;0,03969
1294,9656;0,0398045
1295,9298;0,0399621
1296,8940;0,0401616
1297,8583;0,0404023
1298,8225;0,0406851
1299,7867;0,0410105
1300,7510;0,0413761
1301,7152;0,0417781
1302,6794;0,0422094
1303,6437;0,0426625
1304,6079;0,0431344
1305,5721;0,043626
1306,5364;0,04414
1307,5006;0,0446786
1308,4648;0,045241
1309,4291;0,0458226
1310,3933;0,0464143
1311,3575;0,0470016
1312,3218;0,047565
1313,2860;0,0480827
1314,2502;0,0485348
1315,2145;0,0489059
1316,1787;0,0491837
1317,1429;0,049358
1318,1072;0,0494222
1319,0714;0,0493797
1320,0356;0,0492492
1320,9999;0,0490622
1321,9641;0,0488525
1322,9283;0,048646
1323,8926;0,0484569
1324,8568;0,0482896
1325,8210;0,0481421
1326,7853;0,0480088
1327,7495;0,0478816
1328,7137;0,0477502
1329,6780;0,0476034
1330,6422;0,0474322
1331,6064;0,0472352
1332,5707;0,0470193
1333,5349;0,0467984
1334,4991;0,0465841
1335,4634;0,0463769
1336,4276;0,0461586
1337,3918;0,0458911
1338,3561;0,0455309
1339,3203;0,0450649
1340,2845;0,0445371
1341,2488;0,0440262
1342,2130;0,0435933
1343,1772;0,0432575
1344,1415;0,0430097
1345,1057;0,0428354
1346,0699;0,0427252
1347,0342;0,0426722
1347,9984;0,0426704
1348,9626;0,0427136
1349,9269;0,0427977
1350,8911;0,0429205
1351,8553;0,0430796
1352,8196;0,0432712
1353,7838;0,0434896
1354,7480;0,04373
1355,7123;0,0439906
1356,6765;0,0442723
1357,6407;0,0445763
1358,6050;0,0449032
1359,5692;0,0452507
1360,5334;0,0456051
1361,4977;0,0459337
1362,4619;0,0462035
1363,4261;0,0464167
1364,3904;0,0466092
1365,3546;0,0468108
1366,3188;0,0470226
1367,2831;0,0472272
1368,2473;0,047407
1369,2115;0,047553
1370,1758;0,0476632
1371,1400;0,0477356
1372,1042;0,0477596
1373,0685;0,0477128
1374,0327;0,0475738
1374,9969;0,0473454
1375,9612;0,0470589
1376,9254;0,0467422
1377,8896;0,0463946
1378,8539;0,0459995
1379,8181;0,0455553
1380,7823;0,0450898
1381,7466;0,0446428
1382,7108;0,0442348
1383,6750;0,0438524
1384,6393;0,0434615
1385,6035;0,0430356
1386,5677;0,0425835
1387,5320;0,0421663
1388,4962;0,0418672
1389,4604;0,0417213
1390,4247;0,0416907
1391,3889;0,041712
1392,3531;0,0417506
1393,3174;0,0418098
1394,2816;0,0418999
1395,2458;0,042007
1396,2101;0,0420962
1397,1743;0,0421423
1398,1385;0,0421548
1399,1028;0,0421732
1400,0670;0,0422388
1401,0313;0,042367
1401,9955;0,0425424
1402,9597;0,0427355
1403,9240;0,0429236
1404,8882;0,0431047
1405,8524;0,0432989
1406,8167;0,0435325
1407,7809;0,0438142
1408,7451;0,0441308
1409,7094;0,0444661
1410,6736;0,0448196
1411,6378;0,0452047
1412,6021;0,045627
1413,5663;0,0460651
1414,5305;0,0464744
1415,4948;0,04681
1416,4590;0,0470417
1417,4232;0,0471478
1418,3875;0,0471308
1419,3517;0,0470661
1420,3159;0,0470663
1421,2802;0,0471519
1422,2444;0,0472251
1423,2086;0,0471681
1424,1729;0,0469294
1425,1371;0,0465366
1426,1013;0,0460501
1427,0656;0,0455094
1428,0298;0,0449174
1428,9940;0,0442673
1429,9583;0,0435807
1430,9225;0,0429053
1431,8867;0,0422658
1432,8510;0,041629
1433,8152;0,0409308
1434,7794;0,0401342
1435,7437;0,0392802
1436,7079;0,0385152
1437,6721;0,038031
1438,6364;0,037905
1439,6006;0,038035
1440,5648;0,0382536
1441,5291;0,0384541
1442,4933;0,0386218
1443,4575;0,0387958
1444,4218;0,0390137
1445,3860;0,039279
1446,3502;0,0395658
1447,3145;0,0398494
1448,2787;0,0401353
1449,2429;0,0404544
1450,2072;0,0408186
1451,1714;0,0411837
1452,1356;0,0414661
1453,0999;0,0416039
1454,0641;0,0416072
1455,0283;0,04154
1455,9926;0,0413899
1456,9568;0,041019
1457,9210;0,0405217
1458,8853;0,0402802
1459,8495;0,040387
1460,8137;0,0405967
1461,7780;0,0406512
1462,7422;0,0404205
1463,7064;0,0398909
1464,6707;0,0391493
1465,6349;0,038371
1466,5991;0,0377148
1467,5634;0,0371906
1468,5276;0,036682
1469,4918;0,0360686
1470,4561;0,0352887
1471,4203;0,0343112
1472,3845;0,0331072
1473,3488;0,0317481
1474,3130;0,0304812
1475,2772;0,0295292
1476,2415;0,0289103
1477,2057;0,0285171
1478,1699;0,0282426
1479,1342;0,0280219
1480,0984;0,0278263
1481,0626;0,0276536
1482,0269;0,0275233
1482,9911;0,0274641
1483,9553;0,0274962
1484,9196;0,0276237
1485,8838;0,0278417
1486,8480;0,0281302
1487,8123;0,0284172
1488,7765;0,0285829
1489,7407;0,0286022
1490,7050;0,0286283
1491,6692;0,0288082
1492,6334;0,0291428
1493,5977;0,0295649
1494,5619;0,0300444
1495,5261;0,0305995
1496,4904;0,0312352
1497,4546;0,0319078
1498,4188;0,0325894
1499,3831;0,0332962
1500,3473;0,0339963
1501,3115;0,0345771
1502,2758;0,0349279
1503,2400;0,0350358
1504,2042;0,0350358
1505,1685;0,0351459
1506,1327;0,035364
1507,0969;0,0352643
1508,0612;0,0347303
1509,0254;0,0342511
1509,9896;0,0340426
1510,9539;0,0339489
1511,9181;0,0338042
1512,8823;0,0335549
1513,8466;0,0332216
1514,8108;0,0328337
1515,7750;0,032394
1516,7393;0,0318896
1517,7035;0,0313217
1518,6677;0,0307164
1519,6320;0,0301162
1520,5962;0,0295687
1521,5604;0,0291219
1522,5247;0,0288079
1523,4889;0,0286101
1524,4531;0,0284661
1525,4174;0,0283234
1526,3816;0,0281842
1527,3458;0,0280918
1528,3101;0,0280744
1529,2743;0,0281172
1530,2385;0,0281907
1531,2028;0,0282891
1532,1670;0,0284295
1533,1312;0,0286192
1534,0955;0,0288394
1535,0597;0,0290454
1536,0239;0,0291842
1536,9882;0,0292553
1537,9524;0,0293829
1538,9166;0,0297698
1539,8809;0,0303906
1540,8451;0,0307637
1541,8093;0,0306231
1542,7736;0,0303415
1543,7378;0,0302182
1544,7020;0,0302533
1545,6663;0,0303824
1546,6305;0,0305734
1547,5947;0,0308053
1548,5590;0,0310473
1549,5232;0,0312731
1550,4874;0,0314827
1551,4517;0,0317028
1552,4159;0,0319513
1553,3801;0,0321987
1554,3444;0,032373
1555,3086;0,0324138
1556,2728;0,0323131
1557,2371;0,0320445
1558,2013;0,0314832
1559,1655;0,0308367
1560,1298;0,0308044
1561,0940;0,0315615
1562,0582;0,0326737
1563,0225;0,0337217
1563,9867;0,0345136
1564,9509;0,0350292
1565,9152;0,0353375
1566,8794;0,0355379
1567,8436;0,0357218
1568,8079;0,0359563
1569,7721;0,0362862
1570,7363;0,0367182
1571,7006;0,0372007
1572,6648;0,0376598
1573,6290;0,0380656
1574,5933;0,038445
1575,5575;0,038823
1576,5217;0,0391934
1577,4860;0,0395909
1578,4502;0,0400808
1579,4144;0,0406529
1580,3787;0,0412381
1581,3429;0,0417906
1582,3071;0,0423122
1583,2714;0,0428281
1584,2356;0,043356
1585,1998;0,043897
1586,1641;0,0444387
1587,1283;0,0449624
1588,0925;0,0454486
1589,0568;0,0458786
1590,0210;0,0462362
1590,9852;0,0465053
1591,9495;0,0466669
1592,9137;0,0466999
1593,8779;0,0465901
1594,8422;0,0463457
1595,8064;0,0460034
1596,7706;0,045617
1597,7349;0,0452339
1598,6991;0,0448778
1599,6633;0,0445474
1600,6276;0,0442271
1601,5918;0,0439035
1602,5560;0,0435786
1603,5203;0,0432699
1604,4845;0,0429935
1605,4487;0,0427453
1606,4130;0,0424973
1607,3772;0,0422167
1608,3414;0,0418967
1609,3057;0,0415759
1610,2699;0,0413129
1611,2341;0,0411302
1612,1984;0,0409903
1613,1626;0,04083
1614,1268;0,0406062
1615,0911;0,0403132
1616,0553;0,0399903
1617,0195;0,03975
1617,9838;0,0397188
1618,9480;0,0398926
1619,9122;0,0401334
1620,8765;0,040298
1621,8407;0,0403203
1622,8049;0,0402142
1623,7692;0,0400459
1624,7334;0,039891
1625,6976;0,0397863
1626,6619;0,0397217
1627,6261;0,0396807
1628,5903;0,0396686
1629,5546;0,0396922
1630,5188;0,0397247
1631,4830;0,0397149
1632,4473;0,0396381
1633,4115;0,039529
1634,3757;0,039427
1635,3400;0,0392825
1636,3042;0,0390522
1637,2684;0,0388718
1638,2327;0,0388744
1639,1969;0,0390157
1640,1611;0,0391752
1641,1254;0,0392688
1642,0896;0,0392729
1643,0538;0,0392174
1644,0181;0,0391684
1644,9823;0,0391703
1645,9465;0,0391716
1646,9108;0,0390776
1647,8750;0,0388825
1648,8392;0,0385974
1649,8035;0,0381606
1650,7677;0,0375127
1651,7319;0,0366498
1652,6962;0,035587
1653,6604;0,0345509
1654,6246;0,0340859
1655,5889;0,0343251
1656,5531;0,0348516
1657,5173;0,0352546
1658,4816;0,0353576
1659,4458;0,0351639
1660,4100;0,0347565
1661,3743;0,0342298
1662,3385;0,0336836
1663,3027;0,033227
1664,2670;0,0329186
1665,2312;0,0327224
1666,1954;0,0325536
1667,1597;0,0323384
1668,1239;0,0320246
1669,0881;0,0315808
1670,0524;0,0310354
1671,0166;0,030478
1671,9808;0,0299559
1672,9451;0,0294257
1673,9093;0,0288406
1674,8735;0,0282502
1675,8378;0,0278068
1676,8020;0,0276493
1677,7662;0,0277656
1678,7305;0,0279909
1679,6947;0,0281267
1680,6589;0,0280398
1681,6232;0,0276715
1682,5874;0,0269869
1683,5516;0,0260126
1684,5159;0,0250315
1685,4801;0,0244491
1686,4443;0,0243377
1687,4086;0,0244541
1688,3728;0,024546
1689,3370;0,0244947
1690,3013;0,0242993
1691,2655;0,0240189
1692,2297;0,0237283
1693,1940;0,0234996
1694,1582;0,023386
1695,1224;0,0233866
1696,0867;0,0234031
1697,0509;0,0232539
1698,0151;0,0227988
1698,9794;0,0221097
1699,9436;0,0214923
1700,9078;0,0212573
1701,8721;0,0214708
1702,8363;0,0219495
1703,8005;0,0224322
1704,7648;0,0227299
1705,7290;0,022794
1706,6932;0,0227157
1707,6575;0,0226532
1708,6217;0,0227217
1709,5859;0,0229364
1710,5502;0,023245
1711,5144;0,0235868
1712,4786;0,0239253
1713,4429;0,0242425
1714,4071;0,0245045
1715,3713;0,0246104
1716,3356;0,0244166
1717,2998;0,0239547
1718,2640;0,0235509
1719,2283;0,0234905
1720,1925;0,0237498
1721,1567;0,024132
1722,1210;0,024466
1723,0852;0,02468
1724,0494;0,0247949
1725,0137;0,0248884
1725,9779;0,0250451
1726,9421;0,0253085
1727,9064;0,0256565
1728,8706;0,0260118
1729,8348;0,0262735
1730,7991;0,0263474
1731,7633;0,0261634
1732,7275;0,0257147
1733,6918;0,0251466
1734,6560;0,0247425
1735,6202;0,0246717
1736,5845;0,024839
1737,5487;0,0250302
1738,5129;0,025091
1739,4772;0,0249858
1740,4414;0,0247744
1741,4056;0,024555
1742,3699;0,0243986
1743,3341;0,024313
1744,2983;0,0242566
1745,2626;0,024174
1746,2268;0,0240098
1747,1910;0,0236941
1748,1553;0,0231389
1749,1195;0,0223031
1750,0837;0,0213013
1751,0480;0,0203837
1752,0122;0,0197428
1752,9764;0,0193859
1753,9407;0,0191942
1754,9049;0,0190389
1755,8691;0,0188457
1756,8334;0,0186002
1757,7976;0,0183196
1758,7618;0,0180172
1759,7261;0,0176877
1760,6903;0,0173243
1761,6545;0,0169477
1762,6188;0,0166118
1763,5830;0,0163685
1764,5472;0,0162306
1765,5115;0,0161714
1766,4757;0,0161564
1767,4399;0,0161648
1768,4042;0,0161858
1769,3684;0,0161936
1770,3326;0,0161299
1771,2969;0,0159288
1772,2611;0,0156002
1773,2253;0,0152713
1774,1896;0,0150884
1775,1538;0,0150884
1776,1180;0,0151997
1777,0823;0,0153243
1778,0465;0,0153971
1779,0107;0,0153963
1779,9750;0,0153287
1780,9392;0,0152134
1781,9034;0,015072
1782,8677;0,0149281
1783,8319;0,0148132
1784,7961;0,0147646
1785,7604;0,014807
1786,7246;0,0149308
1787,6888;0,015092
1788,6531;0,0152374
1789,6173;0,0153288
1790,5815;0,0153453
1791,5458;0,0152815
1792,5100;0,0151737
1793,4742;0,015108
1794,4385;0,0151457
1795,4027;0,0152603
1796,3669;0,015373
1797,3312;0,0154183
1798,2954;0,0153734
1799,2596;0,0152526
1800,2239;0,0150922
1801,1881;0,0149379
1802,1523;0,0148282
1803,1166;0,0147806
1804,0808;0,0147897
1805,0450;0,0148399
1806,0093;0,0149159
1806,9735;0,0150034
1807,9377;0,0150841
1808,9020;0,0151325
1809,8662;0,0151241
1810,8304;0,0150541
1811,7947;0,0149459
1812,7589;0,0148355
1813,7231;0,0147463
1814,6874;0,0146826
1815,6516;0,014639
1816,6158;0,0146137
1817,5801;0,0146122
1818,5443;0,0146433
1819,5085;0,0147091
1820,4728;0,0147987
1821,4370;0,0148921
1822,4012;0,0149717
1823,3655;0,0150317
1824,3297;0,01508
1825,2939;0,0151307
1826,2582;0,0151882
1827,2224;0,0152329
1828,1866;0,0152251
1829,1509;0,0151329
1830,1151;0,0149708
1831,0793;0,0148082
1832,0436;0,014717
1833,0078;0,0147146
1833,9720;0,0147658
1834,9363;0,0148248
1835,9005;0,0148672
1836,8647;0,0148965
1837,8290;0,0149302
1838,7932;0,0149769
1839,7574;0,0150241
1840,7217;0,0150498
1841,6859;0,0150416
1842,6501;0,0150015
1843,6144;0,0149384
1844,5786;0,0148723
1845,5428;0,0148353
1846,5071;0,0148417
1847,4713;0,0148642
1848,4355;0,0148589
1849,3998;0,0148036
1850,3640;0,0147131
1851,3282;0,0146249
1852,2925;0,0145746
1853,2567;0,0145774
1854,2209;0,0146268
1855,1852;0,0147044
1856,1494;0,0147898
1857,1136;0,0148656
1858,0779;0,0149175
1859,0421;0,0149374
1860,0063;0,01493
1860,9706;0,0149166
1861,9348;0,0149293
1862,8990;0,014996
1863,8633;0,0151264
1864,8275;0,0153081
1865,7917;0,0155043
1866,7560;0,0156489
1867,7202;0,0156581
1868,6844;0,015489
1869,6487;0,0151992
1870,6129;0,0149099
1871,5771;0,0147093
1872,5414;0,014613
1873,5056;0,0145938
1874,4698;0,0146159
1875,4341;0,0146504
1876,3983;0,0146784
1877,3625;0,0146945
1878,3268;0,0147075
1879,2910;0,0147339
1880,2552;0,0147874
1881,2195;0,0148701
1882,1837;0,0149699
1883,1479;0,0150658
1884,1122;0,0151363
1885,0764;0,0151668
1886,0406;0,015153
1887,0049;0,0151003
1887,9691;0,0150234
1888,9333;0,0149444
1889,8976;0,0148888
1890,8618;0,0148751
1891,8260;0,0149034
1892,7903;0,0149547
1893,7545;0,0150026
1894,7188;0,0150278
1895,6830;0,015026
1896,6472;0,015007
1897,6115;0,0149853
1898,5757;0,01497
1899,5399;0,0149617
1900,5042;0,0149584
1901,4684;0,0149621
1902,4326;0,0149807
1903,3969;0,0150228
1904,3611;0,0150911
1905,3253;0,0151778
1906,2896;0,0152654
1907,2538;0,0153316
1908,2180;0,0153579
1909,1823;0,0153391
1910,1465;0,0152898
1911,1107;0,0152387
1912,0750;0,0152103
1913,0392;0,015211
1914,0034;0,0152284
1914,9677;0,0152414
1915,9319;0,0152327
1916,8961;0,0151997
1917,8604;0,0151606
1918,8246;0,0151472
1919,7888;0,0151816
1920,7531;0,0152581
1921,7173;0,0153454
1922,6815;0,0154061
1923,6458;0,0154186
1924,6100;0,0153886
1925,5742;0,0153404
1926,5385;0,0152958
1927,5027;0,0152597
1928,4669;0,0152209
1929,4312;0,0151633
1930,3954;0,0150794
1931,3596;0,0149778
1932,3239;0,0148804
1933,2881;0,0148116
1934,2523;0,0147862
1935,2166;0,0148038
1936,1808;0,0148488
1937,1450;0,0148995
1938,1093;0,014938
1939,0735;0,0149586
1940,0377;0,0149696
1941,0020;0,0149853
1941,9662;0,0150141
1942,9304;0,0150506
1943,8947;0,0150779
1944,8589;0,0150787
1945,8231;0,0150462
1946,7874;0,0149903
1947,7516;0,014936
1948,7158;0,0149107
1949,6801;0,0149278
1950,6443;0,0149756
1951,6085;0,0150234
1952,5728;0,0150405
1953,5370;0,0150165
1954,5012;0,014968
1955,4655;0,014927
1956,4297;0,0149181
1957,3939;0,0149394
1958,3582;0,0149595
1959,3224;0,0149353
1960,2866;0,0148414
1961,2509;0,0146945
1962,2151;0,0145531
1963,1793;0,0144899
1964,1436;0,0145503
1965,1078;0,0147184
1966,0720;0,014913
1967,0363;0,0150259
1968,0005;0,0149914
1968,9647;0,0148354
1969,9290;0,0146593
1970,8932;0,014571
1971,8574;0,0146142
1972,8217;0,0147422
1973,7859;0,0148514
1974,7501;0,0148513
1975,7144;0,0147319
1976,6786;0,0145721
1977,6428;0,0144797
1978,6071;0,0145139
1979,5713;0,0146557
1980,5355;0,014842
1981,4998;0,0150175
1982,4640;0,0151596
1983,4282;0,0152709
1984,3925;0,0153574
1985,3567;0,0154184
1986,3209;0,0154521
1987,2852;0,0154691
1988,2494;0,0154952
1989,2136;0,0155577
1990,1779;0,0156605
1991,1421;0,0157702
1992,1063;0,015826
1993,0706;0,015774
1994,0348;0,015601
1994,9990;0,015347
1995,9633;0,0150931
1996,9275;0,0149368
1997,8917;0,0149577
1998,8560;0,0151809
1999,8202;0,0155532
2000,7844;0,0159524
2001,7487;0,0162346
2002,7129;0,0163
2003,6771;0,0161428
2004,6414;0,0158592
2005,6056;0,0156012
2006,5698;0,0154936
2007,5341;0,0155592
2008,4983;0,015711
2009,4625;0,0158198
2010,4268;0,0158064
2011,3910;0,0156915
2012,3552;0,0155724
2013,3195;0,0155514
2014,2837;0,0156646
2015,2479;0,0158554
2016,2122;0,0160096
2017,1764;0,0160314
2018,1406;0,0159081
2019,1049;0,0157135
2020,0691;0,0155528
2021,0333;0,0154959
2021,9976;0,0155464
2022,9618;0,0156561
2023,9260;0,0157677
2024,8903;0,0158532
2025,8545;0,0159243
2026,8187;0,0160133
2027,7830;0,0161419
2028,7472;0,0163024
2029,7114;0,0164611
2030,6757;0,0165789
2031,6399;0,0166305
2032,6041;0,0166124
2033,5684;0,0165373
2034,5326;0,0164254
2035,4968;0,0163001
2036,4611;0,0161859
2037,4253;0,0161077
2038,3895;0,0160824
2039,3538;0,0161079
2040,3180;0,0161587
2041,2822;0,0161944
2042,2465;0,0161822
2043,2107;0,0161179
2044,1749;0,0160304
2045,1392;0,0159652
2046,1034;0,0159579
2047,0676;0,0160133
2048,0320;0,0161042
2048,9961;0,0161914
2049,9604;0,0162472
2050,9246;0,0162662
2051,8889;0,0162602
2052,8530;0,0162478
2053,8174;0,0162485
2054,7815;0,0162807
2055,7458;0,0163599
2056,7100;0,0164929
2057,6743;0,0166683
2058,6384;0,0168544
2059,6028;0,0170086
2060,5669;0,0170963
2061,5313;0,0171092
2062,4954;0,0170708
2063,4597;0,017022
2064,4238;0,0169959
2065,3882;0,0169972
2066,3523;0,0170021
2067,3167;0,0169783
2068,2808;0,0169112
2069,2451;0,0168149
2070,2092;0,0167235
2071,1736;0,0166675
2072,1377;0,0166521
2073,1021;0,0166543
2074,0662;0,0166389
2075,0305;0,0165836
2075,9946;0,0164934
2076,9590;0,0163957
2077,9231;0,0163214
2078,8875;0,0162874
2079,8516;0,016293
2080,8159;0,0163292
2081,7800;0,0163899
2082,7444;0,016474
2083,7085;0,0165766
2084,6729;0,0166794
2085,6370;0,016753
2086,6013;0,0167707
2087,5654;0,0167268
2088,5298;0,0166433
2089,4939;0,0165597
2090,4583;0,0165112
2091,4224;0,0165109
2092,3867;0,0165465
2093,3508;0,0165931
2094,3152;0,0166303
2095,2793;0,016653
2096,2437;0,0166701
2097,2078;0,0166953
2098,1721;0,0167381
2099,1362;0,0167993
2100,1006;0,0168721
2101,0647;0,0169386
2102,0291;0,0169804
2102,9932;0,0169793
2103,9575;0,0169288
2104,9216;0,0168437
2105,8860;0,0167601
2106,8501;0,0167229
2107,8145;0,0167648
2108,7786;0,0168873
2109,7429;0,0170563
2110,7070;0,017215
2111,6714;0,0173086
2112,6355;0,0173081
2113,5999;0,0172207
2114,5640;0,0170846
2115,5283;0,0169508
2116,4924;0,0168627
2117,4568;0,0168427
2118,4209;0,0168877
2119,3853;0,0169753
2120,3494;0,0170738
2121,3137;0,0171537
2122,2778;0,0171968
2123,2422;0,0172006
2124,2063;0,0171785
2125,1707;0,0171538
2126,1348;0,0171505
2127,0991;0,0171826
2128,0632;0,017248
2129,0276;0,0173307
2129,9917;0,0174111
2130,9561;0,0174786
2131,9202;0,0175401
2132,8845;0,0176171
2133,8486;0,0177316
2134,8130;0,0178888
2135,7771;0,0180671
2136,7415;0,0182229
2137,7056;0,0183078
2138,6699;0,0182876
2139,6340;0,0181567
2140,5984;0,0179417
2141,5625;0,0176983
2142,5269;0,0174986
2143,4910;0,0174082
2144,4553;0,0174594
2145,4194;0,017631
2146,3838;0,0178495
2147,3479;0,0180192
2148,3123;0,01807
2149,2764;0,0179958
2150,2407;0,0178588
2151,2048;0,0177538
2152,1692;0,0177535
2153,1333;0,0178681
2154,0977;0,0180448
2155,0618;0,0182055
2156,0261;0,0183005
2156,9902;0,0183451
2157,9546;0,0184089
2158,9187;0,0185556
2159,8831;0,0187809
2160,8472;0,0190124
2161,8115;0,0191664
2162,7756;0,0192032
2163,7400;0,0191404
2164,7041;0,0190291
2165,6685;0,0189179
2166,6326;0,0188246
2167,5969;0,0187311
2168,5610;0,0186002
2169,5254;0,0184026
2170,4895;0,0181401
2171,4539;0,0178523
2172,4180;0,017606
2173,3823;0,0174672
2174,3464;0,01747
2175,3108;0,0175967
2176,2749;0,0177843
2177,2393;0,0179557
2178,2034;0,0180561
2179,1677;0,0180735
2180,1318;0,0180328
2181,0962;0,0179712
2182,0603;0,017912
2183,0247;0,0178529
2183,9888;0,0177759
2184,9531;0,0176675
2185,9172;0,0175341
2186,8816;0,0174014
2187,8457;0,0173013
2188,8101;0,0172549
2189,7742;0,0172612
2190,7385;0,0172984
2191,7026;0,0173359
2192,6670;0,0173511
2193,6311;0,0173402
2194,5955;0,0173172
2195,5596;0,0173016
2196,5239;0,0173032
2197,4880;0,0173165
2198,4524;0,0173303
2199,4165;0,0173431
2200,3809;0,0173724
2201,3450;0,0174457
2202,3093;0,0175786
2203,2734;0,0177568
2204,2378;0,0179384
2205,2019;0,0180747
2206,1663;0,0181366
2207,1304;0,0181259
2208,0947;0,0180671
2209,0588;0,0179873
2210,0232;0,0179025
2210,9873;0,0178181
2211,9517;0,0177383
2212,9158;0,0176713
2213,8801;0,0176263
2214,8442;0,0176054
2215,8086;0,0176006
2216,7727;0,0176002
2217,7371;0,0175985
2218,7012;0,0175983
2219,6655;0,0176047
2220,6296;0,0176169
2221,5940;0,0176275
2222,5581;0,0176299
2223,5225;0,0176268
2224,4866;0,0176296
2225,4509;0,0176471
2226,4150;0,0176736
2227,3794;0,0176876
2228,3435;0,0176662
2229,3079;0,0176038
2230,2720;0,0175218
2231,2363;0,0174583
2232,2004;0,0174455
2233,1648;0,017489
2234,1289;0,0175632
2235,0933;0,0176264
2236,0574;0,0176449
2237,0217;0,0176103
2237,9858;0,0175415
2238,9502;0,017471
2239,9143;0,0174268
2240,8787;0,0174198
2241,8428;0,0174429
2242,8071;0,0174788
2243,7712;0,0175098
2244,7356;0,0175235
2245,6997;0,0175145
2246,6641;0,0174824
2247,6282;0,0174306
2248,5925;0,0173668
2249,5566;0,0173026
2250,5210;0,0172513
2251,4851;0,017224
2252,4495;0,0172266
2253,4136;0,0172573
2254,3779;0,0173083
2255,3420;0,0173666
2256,3064;0,0174174
2257,2705;0,0174463
2258,2349;0,0174446
2259,1990;0,017413
2260,1633;0,0173644
2261,1274;0,0173198
2262,0918;0,0172996
2263,0559;0,0173127
2264,0203;0,0173502
2264,9844;0,0173898
2265,9487;0,0174074
2266,9128;0,0173909
2267,8772;0,017347
2268,8413;0,0172962
2269,8057;0,017259
2270,7698;0,0172426
2271,7341;0,0172358
2272,6982;0,0172165
2273,6626;0,0171678
2274,6267;0,0170921
2275,5911;0,0170146
2276,5552;0,0169709
2277,5195;0,0169864
2278,4836;0,01706
2279,4480;0,0171627
2280,4121;0,0172532
2281,3765;0,0173002
2282,3406;0,0172972
2283,3049;0,0172612
2284,2690;0,0172189
2285,2334;0,0171899
2286,1975;0,0171784
2287,1619;0,0171757
2288,1260;0,0171697
2289,0903;0,0171536
2290,0544;0,0171286
2291,0188;0,0171008
2291,9829;0,0170758
2292,9473;0,0170562
2293,9114;0,0170413
2294,8757;0,0170297
2295,8398;0,017021
2296,8042;0,0170175
2297,7683;0,0170246
2298,7327;0,0170496
2299,6968;0,0170986
2300,6611;0,0171731
2301,6252;0,0172666
2302,5896;0,0173654
2303,5537;0,0174536
2304,5181;0,017518
2305,4822;0,0175528
2306,4465;0,0175608
2307,4106;0,017552
2308,3750;0,0175415
2309,3391;0,0175459
2310,3035;0,0175792
2311,2676;0,0176454
2312,2319;0,0177347
2313,1960;0,0178262
2314,1604;0,0178991
2315,1245;0,017946
2316,0889;0,0179781
2317,0530;0,0180176
2318,0173;0,0180806
2318,9814;0,0181615
2319,9458;0,0182287
2320,9099;0,018241
2321,8743;0,018174
2322,8384;0,0180376
2323,8027;0,0178707
2324,7668;0,0177184
2325,7312;0,0176129
2326,6953;0,0175659
2327,6597;0,0175723
2328,6238;0,0176163
2329,5881;0,0176748
2330,5522;0,0177216
2331,5166;0,0177331
2332,4807;0,0176997
2333,4451;0,0176304
2334,4092;0,0175458
2335,3735;0,0174621
2336,3376;0,0173794
2337,3020;0,0172818
2338,2661;0,0171503
2339,2305;0,0169766
2340,1946;0,0167731
2341,1589;0,0165754
2342,1230;0,0164399
2343,0874;0,0164211
2344,0515;0,0165214
2345,0159;0,0166715
2345,9800;0,0167955
2346,9443;0,016881
2347,9084;0,0169699
2348,8728;0,0171061
2349,8369;0,0172998
2350,8013;0,0175248
2351,7654;0,0177439
2352,7297;0,0179463
2353,6938;0,0181581
2354,6582;0,0183949
2355,6223;0,0186044
2356,5867;0,0186826
2357,5508;0,018557
2358,5151;0,018249
2359,4792;0,0178621
2360,4436;0,0175131
2361,4077;0,01727
2362,3721;0,0171452
2363,3362;0,0171243
2364,3005;0,0171863
2365,2646;0,0173035
2366,2290;0,0174369
2367,1931;0,017544
2368,1575;0,0175986
2369,1216;0,0176041
2370,0859;0,0175914
2371,0500;0,017599
2372,0144;0,0176488
2372,9785;0,0177335
2373,9429;0,0178212
2374,9070;0,0178755
2375,8713;0,0178755
2376,8354;0,0178253
2377,7998;0,0177489
2378,7639;0,0176758
2379,7283;0,0176276
2380,6924;0,0176127
2381,6567;0,0176287
2382,6208;0,0176692
2383,5852;0,0177287
2384,5493;0,0178028
2385,5137;0,0178864
2386,4778;0,0179705
2387,4421;0,0180435
2388,4063;0,0180948
2389,3706;0,018121
2390,3347;0,0181283
2391,2991;0,01813
2392,2632;0,0181395
2393,2275;0,0181627
2394,1917;0,0181948
2395,1560;0,0182242
2396,1201;0,0182418
2397,0845;0,0182468
2398,0486;0,0182479
2399,0129;0,0182568
2399,9771;0,0182802
2400,9414;0,0183144
2401,9055;0,0183495
2402,8699;0,0183762
2403,8340;0,0183932
2404,7983;0,0184069
2405,7625;0,0184251
2406,7268;0,0184502
2407,6909;0,0184753
2408,6553;0,0184894
2409,6194;0,0184853
2410,5837;0,0184657
2411,5479;0,0184427
2412,5122;0,0184311
2413,4763;0,0184408
2414,4407;0,0184721
2415,4048;0,0185166
2416,3691;0,0185621
2417,3333;0,0185976
2418,2976;0,0186168
2419,2617;0,0186189
2420,2261;0,0186085
2421,1902;0,0185942
2422,1545;0,0185863
2423,1187;0,0185928
2424,0830;0,0186159
2425,0471;0,0186497
2426,0115;0,0186833
2426,9756;0,0187061
2427,9399;0,0187144
2428,9041;0,0187138
2429,8684;0,0187161
2430,8325;0,0187324
2431,7969;0,0187664
2432,7610;0,0188124
2433,7253;0,0188589
2434,6895;0,0188948
2435,6538;0,0189152
2436,6179;0,018923
2437,5823;0,0189266
2438,5464;0,0189346
2439,5107;0,0189514
2440,4749;0,0189749
2441,4392;0,0189976
2442,4033;0,0190108
2443,3677;0,0190102
2444,3318;0,0189987
2445,2961;0,0189856
2446,2603;0,0189817
2447,2246;0,0189924
2448,1887;0,0190144
2449,1531;0,0190374
2450,1172;0,0190505
2451,0815;0,0190489
2452,0457;0,0190369
2453,0100;0,0190247
2453,9741;0,0190226
2454,9385;0,0190345
2455,9026;0,0190558
2456,8669;0,0190768
2457,8311;0,0190879
2458,7954;0,0190853
2459,7595;0,0190739
2460,7239;0,019065
2461,6880;0,019071
2462,6523;0,0190977
2463,6165;0,0191393
2464,5808;0,0191805
2465,5449;0,0192041
2466,5093;0,0192027
2467,4734;0,0191849
2468,4377;0,0191716
2469,4019;0,019184
2470,3662;0,01923
2471,3303;0,019298
2472,2947;0,0193637
2473,2588;0,0194046
2474,2231;0,0194125
2475,1873;0,0193968
2476,1516;0,0193759
2477,1157;0,0193654
2478,0801;0,0193697
2479,0442;0,0193835
2480,0085;0,0193988
2480,9727;0,0194118
2481,9370;0,0194247
2482,9011;0,0194411
2483,8655;0,0194617
2484,8296;0,0194821
2485,7939;0,0194963
2486,7581;0,019501
2487,7224;0,0194984
2488,6865;0,019495
2489,6509;0,0194981
2490,6150;0,0195113
2491,5793;0,0195337
2492,5435;0,0195604
2493,5078;0,0195855
2494,4719;0,0196048
2495,4363;0,0196175
2496,4004;0,0196261
2497,3647;0,0196341
2498,3289;0,0196436
2499,2932;0,0196536
2500,2573;0,0196604
2501,2217;0,0196608
2502,1858;0,0196554
2503,1501;0,0196499
2504,1143;0,0196523
2505,0786;0,0196681
2506,0427;0,0196954
2507,0071;0,0197263
2507,9712;0,0197509
2508,9355;0,0197643
2509,8997;0,0197696
2510,8640;0,0197748
2511,8281;0,0197857
2512,7925;0,0198007
2513,7566;0,0198117
2514,7209;0,0198107
2515,6851;0,0197972
2516,6494;0,0197805
2517,6135;0,0197735
2518,5779;0,0197833
2519,5420;0,0198053
2520,5063;0,0198254
2521,4705;0,01983
2522,4348;0,0198157
2523,3989;0,0197922
2524,3633;0,0197763
2525,3274;0,0197811
2526,2917;0,0198084
2527,2559;0,0198492
2528,2202;0,0198893
2529,1843;0,0199171
2530,1487;0,0199285
2531,1128;0,0199267
2532,0771;0,0199193
2533,0413;0,0199147
2534,0056;0,019919
2534,9697;0,0199336
2535,9341;0,0199544
2536,8982;0,0199728
2537,8625;0,0199802
2538,8267;0,0199736
2539,7910;0,0199587
2540,7551;0,0199484
2541,7195;0,0199561
2542,6836;0,019987
2543,6479;0,0200343
2544,6121;0,0200815
2545,5764;0,0201114
2546,5405;0,0201143
2547,5049;0,0200926
2548,4690;0,0200577
2549,4333;0,0200241
2550,3975;0,0200019
2551,3618;0,0199949
2552,3259;0,0200021
2553,2903;0,0200208
2554,2544;0,020049
2555,2188;0,0200843
2556,1829;0,0201221
2557,1472;0,0201548
2558,1113;0,020174
2559,0757;0,0201748
2560,0398;0,0201591
2561,0042;0,020135
2561,9683;0,0201126
2562,9326;0,0200985
2563,8967;0,0200938
2564,8611;0,0200949
2565,8252;0,0200981
2566,7896;0,0201028
2567,7537;0,0201118
2568,7180;0,0201285
2569,6821;0,0201532
2570,6465;0,0201823
2571,6106;0,0202097
2572,5750;0,0202303
2573,5391;0,0202425
2574,5034;0,0202481
2575,4675;0,0202509
2576,4319;0,0202542
2577,3960;0,0202599
2578,3604;0,0202677
2579,3245;0,0202761
2580,2888;0,0202829
2581,2529;0,0202858
2582,2173;0,0202838
2583,1814;0,0202769
2584,1458;0,0202673
2585,1099;0,0202588
2586,0742;0,0202557
2587,0383;0,0202613
2588,0027;0,0202761
2588,9668;0,0202969
2589,9312;0,0203176
2590,8953;0,0203314
2591,8596;0,0203346
2592,8237;0,0203282
2593,7881;0,0203183
2594,7522;0,0203131
2595,7166;0,0203187
2596,6807;0,0203367
2597,6450;0,0203639
2598,6091;0,0203946
2599,5735;0,0204236
2600,5376;0,0204475
2601,5020;0,020465
2602,4661;0,0204762
2603,4304;0,0204825
2604,3945;0,0204873
2605,3589;0,0204956
2606,3230;0,020512
2607,2874;0,0205381
2608,2515;0,0205715
2609,2158;0,0206063
2610,1799;0,0206367
2611,1443;0,0206591
2612,1084;0,0206731
2613,0728;0,0206793
2614,0369;0,0206781
2615,0012;0,0206697
2615,9653;0,020655
2616,9297;0,0206386
2617,8938;0,0206272
2618,8582;0,0206274
2619,8223;0,0206419
2620,7866;0,0206684
2621,7507;0,0207013
2622,7151;0,0207352
2623,6792;0,0207672
2624,6436;0,0207971
2625,6077;0,0208257
2626,5720;0,0208522
2627,5361;0,0208749
2628,5005;0,0208923
2629,4646;0,0209046
2630,4290;0,0209133
2631,3931;0,0209208
2632,3574;0,0209287
2633,3215;0,0209379
2634,2859;0,0209492
2635,2500;0,0209635
2636,2144;0,0209814
2637,1785;0,0210021
2638,1428;0,0210224
2639,1069;0,0210389
2640,0713;0,0210503
2641,0354;0,0210593
2641,9998;0,0210717
2642,9639;0,0210931
2643,9282;0,0211247
2644,8923;0,0211615
2645,8567;0,0211944
2646,8208;0,0212151
2647,7852;0,0212211
2648,7493;0,0212174
2649,7136;0,0212138
2650,6777;0,0212195
2651,6421;0,0212383
2652,6062;0,0212671
2653,5706;0,0212986
2654,5347;0,0213254
2655,4990;0,0213439
2656,4631;0,0213554
2657,4275;0,0213642
2658,3916;0,0213749
2659,3560;0,0213904
2660,3201;0,0214111
2661,2844;0,0214355
2662,2485;0,0214612
2663,2129;0,0214854
2664,1770;0,0215064
2665,1414;0,0215238
2666,1055;0,0215389
2667,0698;0,0215542
2668,0339;0,0215717
2668,9983;0,0215919
2669,9624;0,0216134
2670,9268;0,0216345
2671,8909;0,0216545
2672,8552;0,0216745
2673,8193;0,0216956
2674,7837;0,0217175
2675,7478;0,0217364
2676,7122;0,0217477
2677,6763;0,0217486
2678,6406;0,0217417
2679,6047;0,0217342
2680,5691;0,0217349
2681,5332;0,0217493
2682,4976;0,0217776
2683,4617;0,0218149
2684,4260;0,0218546
2685,3901;0,0218912
2686,3545;0,0219215
2687,3186;0,0219444
2688,2830;0,0219595
2689,2471;0,0219677
2690,2114;0,021972
2691,1755;0,0219777
2692,1399;0,0219902
2693,1040;0,022013
2694,0684;0,0220451
2695,0325;0,022081
2695,9968;0,0221139
2696,9609;0,0221387
2697,9253;0,0221538
2698,8894;0,0221616
2699,8538;0,0221666
2700,8179;0,0221737
2701,7822;0,0221864
2702,7463;0,0222071
2703,7107;0,0222358
2704,6748;0,0222708
2705,6392;0,0223083
2706,6033;0,0223437
2707,5676;0,0223732
2708,5317;0,0223954
2709,4961;0,0224119
2710,4602;0,0224263
2711,4246;0,0224426
2712,3887;0,0224633
2713,3530;0,0224889
2714,3171;0,0225183
2715,2815;0,022549
2716,2456;0,0225784
2717,2100;0,0226044
2718,1741;0,0226259
2719,1384;0,0226428
2720,1025;0,0226559
2721,0669;0,0226667
2722,0310;0,0226758
2722,9954;0,0226839
2723,9595;0,0226915
2724,9238;0,0227001
2725,8879;0,0227122
2726,8523;0,0227305
2727,8164;0,0227561
2728,7808;0,0227869
2729,7449;0,0228183
2730,7092;0,022845
2731,6733;0,0228642
2732,6377;0,0228766
2733,6018;0,022886
2734,5662;0,0228965
2735,5303;0,02291
2736,4946;0,0229254
2737,4587;0,0229397
2738,4231;0,0229511
2739,3872;0,0229606
2740,3516;0,0229719
2741,3157;0,0229893
2742,2800;0,0230148
2743,2441;0,0230463
2744,2085;0,023078
2745,1726;0,0231033
2746,1370;0,0231176
2747,1011;0,0231205
2748,0654;0,023116
2749,0295;0,0231103
2749,9939;0,0231097
2750,9580;0,0231183
2751,9224;0,0231374
2752,8865;0,0231654
2753,8508;0,0231995
2754,8149;0,0232359
2755,7793;0,023271
2756,7434;0,0233023
2757,7078;0,0233283
2758,6719;0,0233491
2759,6362;0,0233659
2760,6003;0,0233801
2761,5647;0,0233927
2762,5288;0,0234039
2763,4932;0,023414
2764,4573;0,0234241
2765,4216;0,0234368
2766,3857;0,023455
2767,3501;0,0234817
2768,3142;0,0235175
2769,2786;0,0235609
2770,2427;0,023608
2771,2070;0,0236537
2772,1711;0,0236939
2773,1355;0,0237262
2774,0996;0,0237512
2775,0640;0,0237719
2776,0281;0,0237927
2776,9924;0,0238179
2777,9565;0,0238503
2778,9209;0,0238906
2779,8850;0,0239373
2780,8494;0,0239876
2781,8135;0,0240374
2782,7778;0,0240827
2783,7419;0,0241196
2784,7063;0,0241459
2785,6704;0,0241619
2786,6348;0,0241709
2787,5989;0,024179
2788,5632;0,0241934
2789,5273;0,0242198
2790,4917;0,0242608
2791,4558;0,0243146
2792,4202;0,0243757
2793,3843;0,0244372
2794,3486;0,0244935
2795,3127;0,0245417
2796,2771;0,0245825
2797,2412;0,0246191
2798,2056;0,024655
2799,1697;0,0246931
2800,1340;0,0247348
2801,0981;0,0247809
2802,0625;0,0248324
2803,0266;0,0248901
2803,9910;0,0249544
2804,9551;0,0250235
2805,9194;0,0250935
2806,8835;0,02516
2807,8479;0,0252201
2808,8120;0,0252746
2809,7764;0,0253273
2810,7405;0,025383
2811,7048;0,0254446
2812,6689;0,0255121
2813,6333;0,0255831
2814,5974;0,0256553
2815,5618;0,0257288
2816,5259;0,0258059
2817,4902;0,0258894
2818,4543;0,0259803
2819,4187;0,0260766
2820,3828;0,0261736
2821,3472;0,0262674
2822,3113;0,026357
2823,2756;0,0264455
2824,2397;0,0265384
2825,2041;0,0266411
2826,1682;0,0267552
2827,1326;0,0268789
2828,0967;0,027008
2829,0610;0,0271391
2830,0251;0,0272719
2830,9895;0,0274087
2831,9536;0,0275523
2832,9180;0,0277029
2833,8821;0,0278583
2834,8464;0,0280152
2835,8105;0,0281726
2836,7749;0,0283329
2837,7390;0,0285013
2838,7034;0,028683
2839,6675;0,0288809
2840,6318;0,0290959
2841,5959;0,0293284
2842,5603;0,0295797
2843,5244;0,0298509
2844,4888;0,030139
2845,4529;0,030434
2846,4172;0,0307182
2847,3813;0,03097
2848,3457;0,0311707
2849,3098;0,0313092
2850,2742;0,0313841
2851,2383;0,0314016
2852,2026;0,0313721
2853,1667;0,0313075
2854,1311;0,0312202
2855,0952;0,031124
2856,0596;0,0310328
2857,0237;0,0309585
2857,9880;0,0309088
2858,9521;0,0308857
2859,9165;0,0308868
2860,8806;0,0309076
2861,8450;0,0309447
2862,8091;0,0309964
2863,7734;0,0310618
2864,7375;0,0311383
2865,7019;0,0312209
2866,6660;0,0313032
2867,6304;0,0313789
2868,5945;0,0314448
2869,5588;0,0315012
2870,5229;0,0315505
2871,4873;0,0315953
2872,4514;0,0316373
2873,4158;0,0316763
2874,3799;0,0317118
2875,3442;0,0317444
2876,3083;0,0317757
2877,2727;0,0318086
2878,2368;0,0318457
2879,2012;0,031888
2880,1653;0,0319344
2881,1296;0,0319822
2882,0938;0,0320284
2883,0581;0,0320717
2884,0222;0,0321136
2884,9866;0,032157
2885,9507;0,0322049
2886,9150;0,0322579
2887,8792;0,0323136
2888,8435;0,0323684
2889,8076;0,0324201
2890,7720;0,0324702
2891,7361;0,0325233
2892,7004;0,0325842
2893,6646;0,0326548
2894,6289;0,032733
2895,5930;0,0328137
2896,5574;0,0328917
2897,5215;0,0329635
2898,4858;0,0330279
2899,4500;0,0330854
2900,4143;0,0331373
2901,3784;0,0331864
2902,3428;0,0332374
2903,3069;0,0332967
2904,2712;0,0333699
2905,2354;0,0334593
2906,1997;0,033563
2907,1638;0,0336768
2908,1282;0,0337987
2909,0923;0,0339315
2910,0566;0,0340814
2911,0208;0,0342537
2911,9851;0,0344466
2912,9492;0,0346493
2913,9136;0,0348437
2914,8777;0,0350102
2915,8420;0,0351341
2916,8062;0,0352079
2917,7705;0,0352307
2918,7346;0,0352058
2919,6990;0,0351388
2920,6631;0,0350379
2921,6274;0,0349137
2922,5916;0,0347771
2923,5559;0,0346362
2924,5200;0,034493
2925,4844;0,0343434
2926,4485;0,0341814
2927,4128;0,0340055
2928,3770;0,0338213
2929,3413;0,0336401
2930,3054;0,0334729
2931,2698;0,0333239
2932,2339;0,0331891
2933,1982;0,0330592
2934,1624;0,0329248
2935,1267;0,0327811
2936,0908;0,0326285
2937,0552;0,0324696
2938,0193;0,0323068
2938,9836;0,0321404
2939,9478;0,03197
2940,9121;0,0317956
2941,8762;0,0316194
2942,8406;0,0314449
2943,8047;0,0312763
2944,7690;0,0311163
2945,7332;0,0309656
2946,6975;0,0308229
2947,6616;0,0306864
2948,6260;0,0305552
2949,5901;0,0304297
2950,5544;0,0303119
2951,5186;0,0302035
2952,4829;0,0301044
2953,4470;0,0300124
2954,4114;0,0299241
2955,3755;0,029837
2956,3398;0,0297501
2957,3040;0,0296637
2958,2683;0,0295781
2959,2324;0,0294922
2960,1968;0,0294039
2961,1609;0,0293121
2962,1252;0,0292165
2963,0894;0,0291182
2964,0537;0,0290171
2965,0178;0,0289118
2965,9822;0,0288006
2966,9463;0,028684
2967,9106;0,028566
2968,8748;0,0284531
2969,8391;0,028351
2970,8032;0,0282613
2971,7676;0,0281804
2972,7317;0,0281016
2973,6960;0,0280189
2974,6602;0,0279299
2975,6245;0,027836
2976,5886;0,0277412
2977,5530;0,0276498
2978,5171;0,0275652
2979,4814;0,027489
2980,4456;0,027422
2981,4099;0,0273637
2982,3740;0,0273132
2983,3384;0,0272696
2984,3025;0,027232
2985,2668;0,0271995
2986,2310;0,0271712
2987,1953;0,0271455
2988,1594;0,0271214
2989,1238;0,0270996
2990,0879;0,0270824
2991,0522;0,0270738
2992,0164;0,0270763
2992,9807;0,0270886
2993,9448;0,0271057
2994,9092;0,027121
2995,8733;0,0271307
2996,8376;0,0271367
2997,8018;0,0271453
2998,7661;0,0271634
2999,7302;0,0271936
3000,6946;0,0272323
3001,6587;0,0272718
3002,6230;0,0273052
3003,5872;0,0273311
3004,5515;0,027354
3005,5156;0,0273823
3006,4800;0,0274225
3007,4441;0,0274759
3008,4084;0,0275373
3009,3726;0,0275975
3010,3369;0,0276468
3011,3010;0,0276786
3012,2654;0,0276917
3013,2295;0,0276905
3014,1938;0,0276831
3015,1580;0,0276793
3016,1223;0,0276872
3017,0864;0,0277117
3018,0508;0,0277528
3019,0149;0,0278071
3019,9792;0,0278688
3020,9434;0,0279324
3021,9077;0,0279942
3022,8718;0,0280531
3023,8362;0,0281109
3024,8003;0,0281717
3025,7646;0,0282399
3026,7288;0,0283183
3027,6931;0,028406
3028,6572;0,028497
3029,6216;0,0285817
3030,5857;0,0286503
3031,5500;0,0286969
3032,5142;0,0287231
3033,4785;0,0287378
3034,4426;0,0287535
3035,4070;0,0287814
3036,3711;0,0288275
3037,3354;0,0288906
3038,2996;0,0289635
3039,2639;0,0290374
3040,2280;0,0291055
3041,1924;0,0291673
3042,1565;0,0292284
3043,1208;0,029297
3044,0850;0,0293782
3045,0493;0,0294693
3046,0134;0,0295607
3046,9778;0,0296412
3047,9419;0,029706
3048,9063;0,029761
3049,8704;0,0298201
3050,8347;0,0298961
3051,7988;0,0299924
3052,7632;0,0300999
3053,7273;0,0302021
3054,6917;0,0302846
3055,6558;0,0303428
3056,6201;0,0303849
3057,5842;0,0304272
3058,5486;0,0304863
3059,5127;0,0305715
3060,4771;0,0306814
3061,4412;0,0308051
3062,4055;0,0309251
3063,3696;0,0310238
3064,3340;0,0310897
3065,2981;0,0311225
3066,2625;0,0311339
3067,2266;0,0311429
3068,1909;0,0311678
3069,1550;0,0312191
3070,1194;0,0312963
3071,0835;0,0313906
3072,0479;0,0314899
3073,0120;0,0315844
3073,9763;0,0316706
3074,9404;0,0317503
3075,9048;0,0318284
3076,8689;0,0319082
3077,8333;0,031989
3078,7974;0,0320662
3079,7617;0,0321339
3080,7258;0,0321893
3081,6902;0,0322353
3082,6543;0,0322791
3083,6187;0,0323286
3084,5828;0,0323876
3085,5471;0,0324539
3086,5112;0,0325216
3087,4756;0,0325858
3088,4397;0,0326466
3089,4041;0,0327099
3090,3682;0,0327837
3091,3325;0,0328737
3092,2966;0,0329792
3093,2610;0,0330938
3094,2251;0,0332082
3095,1895;0,0333144
3096,1536;0,0334076
3097,1179;0,0334871
3098,0820;0,0335543
3099,0464;0,0336112
3100,0105;0,0336606
3100,9749;0,0337067
3101,9390;0,0337555
3102,9033;0,0338129
3103,8674;0,0338828
3104,8318;0,0339647
3105,7959;0,0340543
3106,7603;0,0341459
3107,7244;0,0342361
3108,6887;0,0343262
3109,6528;0,0344216
3110,6172;0,0345278
3111,5813;0,0346461
3112,5457;0,034771
3113,5098;0,0348914
3114,4741;0,0349955
3115,4382;0,0350761
3116,4026;0,0351344
3117,3667;0,0351796
3118,3311;0,0352244
3119,2952;0,0352798
3120,2595;0,0353508
3121,2236;0,0354368
3122,1880;0,0355336
3123,1521;0,0356366
3124,1165;0,0357426
3125,0806;0,0358489
3126,0449;0,0359524
3127,0090;0,0360482
3127,9734;0,036132
3128,9375;0,0362023
3129,9019;0,0362629
3130,8660;0,0363216
3131,8303;0,0363874
3132,7944;0,0364654
3133,7588;0,0365546
3134,7229;0,0366486
3135,6873;0,0367402
3136,6514;0,0368255
3137,6157;0,0369062
3138,5798;0,0369882
3139,5442;0,0370777
3140,5083;0,0371771
3141,4727;0,0372832
3142,4368;0,0373894
3143,4011;0,0374895
3144,3652;0,0375813
3145,3296;0,0376682
3146,2937;0,0377566
3147,2581;0,0378521
3148,2222;0,0379564
3149,1865;0,0380663
3150,1506;0,0381761
3151,1150;0,0382808
3152,0791;0,0383783
3153,0435;0,0384701
3154,0076;0,0385597
3154,9719;0,0386507
3155,9360;0,0387456
3156,9004;0,0388461
3157,8645;0,0389529
3158,8289;0,0390659
3159,7930;0,0391838
3160,7573;0,0393031
3161,7214;0,0394184
3162,6858;0,0395241
3163,6499;0,0396169
3164,6143;0,0396974
3165,5784;0,03977
3166,5427;0,0398413
3167,5068;0,0399169
3168,4712;0,0399999
3169,4353;0,0399903
3170,3997;0,0400891
3171,3638;0,0401954
3172,3281;0,0403077
3173,2922;0,0404241
3174,2566;0,0405413
3175,2207;0,0406557
3176,1851;0,0407649
3177,1492;0,0408686
3178,1135;0,0409685
3179,0776;0,0410669
3180,0420;0,0411652
3181,0061;0,0412621
3181,9705;0,0413554
3182,9346;0,0414431
3183,8989;0,0415252
3184,8630;0,0416042
3185,8274;0,0416835
3186,7915;0,0417656
3187,7559;0,0418516
3188,7200;0,0419411
3189,6843;0,0420333
3190,6484;0,0421277
3191,6128;0,0422235
3192,5769;0,0423194
3193,5413;0,0424129
3194,5054;0,0425024
3195,4697;0,0425879
3196,4338;0,0426722
3197,3982;0,0427592
3198,3623;0,042851
3199,3267;0,0429466
3200,2908;0,0430419
3201,2551;0,0431334
3202,2192;0,0432213
3203,1836;0,0433098
3204,1477;0,0434042
3205,1121;0,0435063
3206,0762;0,0436116
3207,0405;0,0437107
3208,0046;0,0437948
3208,9690;0,0438604
3209,9331;0,0439114
3210,8975;0,0439574
3211,8616;0,0440094
3212,8259;0,0440752
3213,7900;0,0441573
3214,7544;0,0442528
3215,7185;0,0443553
3216,6829;0,0444572
3217,6470;0,0445528
3218,6113;0,04464
3219,5754;0,0447213
3220,5398;0,0448007
3221,5039;0,0448812
3222,4683;0,044962
3223,4324;0,0450402
3224,3967;0,0451139
3225,3608;0,0451853
3226,3252;0,0452608
3227,2893;0,0453466
3228,2537;0,0454438
3229,2178;0,0455469
3230,1821;0,0456462
3231,1462;0,045734
3232,1106;0,0458085
3233,0747;0,045874
3234,0391;0,0459372
3235,0032;0,046003
3235,9675;0,0460733
3236,9316;0,0461486
3237,8960;0,0462309
3238,8601;0,0463233
3239,8245;0,0464275
3240,7886;0,0465405
3241,7529;0,0466531
3242,7170;0,0467534
3243,6814;0,0468324
3244,6455;0,0468896
3245,6099;0,0469339
3246,5740;0,0469805
3247,5383;0,0470434
3248,5024;0,0471294
3249,4668;0,0472358
3250,4309;0,0473525
3251,3953;0,0474669
3252,3594;0,0475693
3253,3237;0,0476566
3254,2878;0,0477322
3255,2522;0,0478041
3256,2163;0,0478798
3257,1807;0,0479638
3258,1448;0,0480561
3259,1091;0,0481536
3260,0732;0,0482523
3261,0376;0,0483487
3262,0017;0,048441
3262,9661;0,0485282
3263,9302;0,0486105
3264,8945;0,0486889
3265,8586;0,048765
3266,8230;0,0488406
3267,7871;0,0489172
3268,7515;0,0489954
3269,7156;0,0490738
3270,6799;0,0491497
3271,6440;0,0492202
3272,6084;0,0492835
3273,5725;0,0493408
3274,5369;0,0493955
3275,5010;0,0494513
3276,4653;0,0495096
3277,4294;0,0495671
3278,3938;0,0496169
3279,3579;0,0496512
3280,3223;0,0496659
3281,2864;0,0496632
3282,2507;0,049651
3283,2148;0,0496399
3284,1792;0,0496384
3285,1433;0,0496506
3286,1077;0,0496755
3287,0718;0,0497088
3288,0361;0,0497457
3289,0002;0,0497814
3289,9646;0,049812
3290,9287;0,0498342
3291,8931;0,0498455
3292,8572;0,0498445
3293,8215;0,0498319
3294,7856;0,0498102
3295,7500;0,0497833
3296,7141;0,0497561
3297,6785;0,0497324
3298,6426;0,0497147
3299,6069;0,0497036
3300,5710;0,0496989
3301,5354;0,0497005
3302,4995;0,0497087
3303,4639;0,049724
3304,4280;0,0497444
3305,3923;0,0497652
3306,3564;0,0497795
3307,3208;0,0497813
3308,2849;0,0497684
3309,2493;0,0497441
3310,2134;0,0497158
3311,1777;0,049692
3312,1418;0,0496793
3313,1062;0,0496802
3314,0703;0,0496929
3315,0347;0,0497127
3315,9988;0,0497337
3316,9631;0,0497527
3317,9272;0,049771
3318,8916;0,0497948
3319,8557;0,0498317
3320,8201;0,0498858
3321,7842;0,0499538
3322,7485;0,0500256
3323,7126;0,0500889
3324,6770;0,0501359
3325,6411;0,0501666
3326,6055;0,0501877
3327,5696;0,050208
3328,5339;0,0502329
3329,4980;0,0502627
3330,4624;0,0502928
3331,4265;0,0503175
3332,3909;0,0503314
3333,3550;0,0503319
3334,3193;0,0503189
3335,2834;0,050295
3336,2478;0,0502648
3337,2119;0,0502325
3338,1763;0,0501994
3339,1404;0,0501627
3340,1047;0,0501165
3341,0688;0,0500557
3342,0332;0,0499785
3342,9973;0,0498883
3343,9617;0,0497916
3344,9258;0,049695
3345,8901;0,0496026
3346,8542;0,049516
3347,8186;0,0494355
3348,7827;0,0493611
3349,7471;0,0492922
3350,7112;0,0492266
3351,6755;0,0491594
3352,6396;0,0490843
3353,6040;0,0489958
3354,5681;0,0488929
3355,5325;0,0487795
3356,4966;0,0486632
3357,4609;0,0485523
3358,4250;0,0484529
3359,3894;0,048367
3360,3535;0,0482939
3361,3179;0,0482303
3362,2820;0,0481715
3363,2463;0,0481111
3364,2104;0,0480411
3365,1748;0,0479543
3366,1389;0,0478465
3367,1033;0,0477197
3368,0674;0,0475815
3369,0317;0,0474418
3369,9958;0,0473083
3370,9602;0,047184
3371,9243;0,0470671
3372,8887;0,0469544
3373,8528;0,0468436
3374,8171;0,0467346
3375,7813;0,0466291
3376,7456;0,0465291
3377,7097;0,0464357
3378,6741;0,0463483
3379,6382;0,0462647
3380,6025;0,0461804
3381,5667;0,0460897
3382,5310;0,045988
3383,4951;0,0458753
3384,4595;0,0457579
3385,4236;0,0456478
3386,3879;0,0455567
3387,3521;0,0454902
3388,3164;0,0454438
3389,2805;0,0454045
3390,2449;0,0453565
3391,2090;0,0452866
3392,1733;0,0451887
3393,1375;0,0450646
3394,1018;0,0449212
3395,0659;0,0447675
3396,0303;0,0446127
3396,9944;0,0444654
3397,9587;0,0443328
3398,9229;0,0442183
3399,8872;0,0441199
3400,8513;0,04403
3401,8157;0,0439381
3402,7798;0,0438351
3403,7441;0,0437166
3404,7083;0,0435841
3405,6726;0,0434438
3406,6367;0,0433038
3407,6011;0,0431706
3408,5652;0,0430467
3409,5295;0,04293
3410,4937;0,0428147
3411,4580;0,0426951
3412,4221;0,0425698
3413,3865;0,0424451
3414,3506;0,0423316
3415,3149;0,0422389
3416,2791;0,0421681
3417,2434;0,0421073
3418,2075;0,0420345
3419,1719;0,0419258
3420,1360;0,0417681
3421,1003;0,0415668
3422,0645;0,0413447
3423,0288;0,0411305
3423,9929;0,0409461
3424,9573;0,040799
3425,9214;0,0406825
3426,8857;0,0405806
3427,8499;0,0404748
3428,8142;0,0403503
3429,7783;0,0402004
3430,7427;0,0400273
3431,7068;0,0398403
3432,6711;0,0396521
3433,6353;0,0394737
3434,5996;0,0393114
3435,5637;0,0391655
3436,5281;0,0390318
3437,4922;0,0389052
3438,4565;0,0387844
3439,4207;0,038673
3440,3850;0,0385779
3441,3491;0,0385028
3442,3135;0,0384421
3443,2776;0,0383777
3444,2419;0,0382831
3445,2061;0,0381341
3446,1704;0,037922
3447,1345;0,0376624
3448,0989;0,0373902
3449,0630;0,0371427
3450,0273;0,036942
3450,9915;0,0367884
3451,9558;0,0366669
3452,9199;0,036558
3453,8843;0,0364469
3454,8484;0,0363281
3455,8127;0,0362035
3456,7769;0,0360776
3457,7412;0,035952
3458,7053;0,0358244
3459,6697;0,0356898
3460,6338;0,0355447
3461,5981;0,0353892
3462,5623;0,0352281
3463,5266;0,0350676
3464,4907;0,0349123
3465,4551;0,0347629
3466,4192;0,0346169
3467,3835;0,0344716
3468,3477;0,0343256
3469,3120;0,0341799
3470,2761;0,0340357
3471,2405;0,0338933
3472,2046;0,0337519
3473,1689;0,0336122
3474,1331;0,0334787
3475,0974;0,033358
3476,0615;0,0332549
3477,0259;0,0331668
3477,9900;0,0330826
3478,9543;0,0329863
3479,9185;0,0328645
3480,8828;0,0327139
3481,8469;0,0325442
3482,8113;0,032372
3483,7754;0,0322106
3484,7397;0,0320624
3485,7039;0,0319201
3486,6682;0,0317748
3487,6323;0,0316232
3488,5967;0,0314712
3489,5608;0,0313297
3490,5251;0,0312059
3491,4893;0,0310971
3492,4536;0,0309916
3493,4177;0,0308769
3494,3821;0,0307495
3495,3462;0,0306212
3496,3105;0,0305148
3497,2747;0,0304493
3498,2390;0,0304253
3499,2031;0,0304199
3500,1675;0,0303949
3501,1316;0,0303138
3502,0959;0,0301622
3503,0601;0,0299599
3504,0244;0,0297506
3504,9885;0,0295711
3505,9529;0,0294282
3506,9170;0,0293002
3507,8813;0,0291558
3508,8455;0,0289757
3509,8098;0,0287641
3510,7739;0,0285461
3511,7383;0,0283492
3512,7024;0,0281873
3513,6667;0,028057
3514,6309;0,0279485
3515,5952;0,0278565
3516,5593;0,0277834
3517,5237;0,0277346
3518,4878;0,0277096
3519,4521;0,0276988
3520,4163;0,0276868
3521,3806;0,0276596
3522,3447;0,0276104
3523,3091;0,0275398
3524,2732;0,0274489
3525,2375;0,0273314
3526,2017;0,0271743
3527,1660;0,0269672
3528,1301;0,0267163
3529,0945;0,0264495
3530,0586;0,0262046
3531,0229;0,0260085
3531,9871;0,0258639
3532,9514;0,0257514
3533,9155;0,0256425
3534,8799;0,025515
3535,8440;0,0253658
3536,8083;0,0252151
3537,7725;0,0250977
3538,7368;0,0250434
3539,7009;0,0250596
3540,6653;0,0251261
3541,6294;0,0252008
3542,5938;0,0252303
3543,5579;0,0251659
3544,5222;0,0249894
3545,4863;0,0247335
3546,4507;0,0244704
3547,4148;0,0242632
3548,3792;0,024124
3549,3433;0,024016
3550,3076;0,0238868
3551,2717;0,0237047
3552,2361;0,0234786
3553,2002;0,0232518
3554,1646;0,0230699
3555,1287;0,022949
3556,0930;0,0228715
3557,0571;0,0228112
3558,0215;0,0227621
3558,9856;0,0227484
3559,9500;0,0228081
3560,9141;0,0229598
3561,8784;0,0231767
3562,8425;0,0233856
3563,8069;0,0234808
3564,7710;0,0233456
3565,7354;0,0229041
3566,6995;0,02222
3567,6638;0,0215259
3568,6279;0,0210571
3569,5923;0,0208722
3570,5564;0,0208716
3571,5208;0,0209196
3572,4849;0,020926
3573,4492;0,0208622
3574,4133;0,020743
3575,3777;0,0205981
3576,3418;0,0204501
3577,3062;0,0203095
3578,2703;0,0201866
3579,2346;0,0201026
3580,1987;0,0200848
3581,1631;0,0201445
3582,1272;0,0202583
3583,0916;0,0203669
3584,0557;0,0203895
3585,0200;0,0202432
3585,9841;0,0198796
3586,9485;0,0193545
3587,9126;0,0188535
3588,8770;0,0185645
3589,8411;0,0185242
3590,8054;0,0186271
3591,7695;0,0187355
3592,7339;0,0187607
3593,6980;0,0186867
3594,6624;0,0185572
3595,6265;0,018433
3596,5908;0,0183403
3597,5549;0,0182529
3598,5193;0,0181248
3599,4834;0,0179419
3600,4478;0,0177442
3601,4119;0,0175988
3602,3762;0,0175435
3603,3403;0,0175594
3604,3047;0,0175918
3605,2688;0,0175918
3606,2332;0,0175447
3607,1973;0,0174764
3608,1616;0,0174387
3609,1257;0,0174757
3610,0901;0,017591
3611,0542;0,0177454
3612,0186;0,0178834
3612,9827;0,0179633
3613,9470;0,0179662
3614,9111;0,0178845
3615,8755;0,0177022
3616,8396;0,0173914
3617,8040;0,016937
3618,7681;0,0163896
3619,7324;0,0158966
3620,6965;0,0156295
3621,6609;0,0156531
3622,6250;0,015884
3623,5894;0,0161635
3624,5535;0,0163424
3625,5178;0,0163187
3626,4819;0,0160362
3627,4463;0,0154944
3628,4104;0,0148226
3629,3748;0,0142983
3630,3389;0,0141245
3631,3032;0,014244
3632,2673;0,0144562
3633,2317;0,0146058
3634,1958;0,0146518
3635,1602;0,0146389
3636,1243;0,0146336
3637,0886;0,0146723
3638,0527;0,0147515
3639,0171;0,0148562
3639,9812;0,0149915
3640,9456;0,0151853
3641,9097;0,0154615
3642,8740;0,0158106
3643,8381;0,016186
3644,8025;0,0165214
3645,7666;0,0167373
3646,7310;0,016708
3647,6951;0,0162521
3648,6594;0,0153491
3649,6235;0,0144119
3650,5879;0,0139247
3651,5520;0,013926
3652,5164;0,0141361
3653,4805;0,0142807
3654,4448;0,0142264
3655,4089;0,0139882
3656,3733;0,0136899
3657,3374;0,0134755
3658,3018;0,0134069
3659,2659;0,0134401
3660,2302;0,013498
3661,1943;0,0135505
3662,1587;0,0136315
3663,1228;0,0137917
3664,0872;0,0140374
3665,0513;0,0143147
3666,0156;0,0145444
3666,9797;0,0146698
3667,9441;0,0146801
3668,9082;0,014615
3669,8726;0,0145523
3670,8367;0,0145493
3671,8010;0,0145706
3672,7651;0,0145046
3673,7295;0,0142449
3674,6936;0,0137702
3675,6580;0,0132097
3676,6221;0,0127974
3677,5864;0,0126656
3678,5505;0,0127443
3679,5149;0,0128888
3680,4790;0,0130179
3681,4434;0,0131388
3682,4075;0,0132933
3683,3718;0,0134963
3684,3359;0,0137133
3685,3003;0,013882
3686,2644;0,0139419
3687,2288;0,0138405
3688,1929;0,0135413
3689,1572;0,0130876
3690,1213;0,0126477
3691,0857;0,0123862
3692,0498;0,0123221
3693,0142;0,012369
3693,9783;0,0124414
3694,9426;0,0124995
3695,9067;0,0125375
3696,8711;0,0125558
3697,8352;0,0125431
3698,7996;0,012478
3699,7637;0,0123466
3700,7280;0,0121686
3701,6921;0,0120134
3702,6565;0,0119754
3703,6206;0,0121116
3704,5850;0,012401
3705,5491;0,0127655
3706,5134;0,013116
3707,4775;0,0133778
3708,4419;0,0134848
3709,4060;0,0133719
3710,3704;0,0130284
3711,3345;0,0125957
3712,2988;0,0123151
3713,2629;0,012315
3714,2273;0,0125314
3715,1914;0,0128145
3716,1558;0,0130409
3717,1199;0,0131561
3718,0842;0,0131678
3719,0483;0,0131184
3720,0127;0,0130492
3720,9768;0,0129723
3721,9412;0,0128659
3722,9053;0,0127
3723,8696;0,0124769
3724,8337;0,0122552
3725,7981;0,0121268
3726,7622;0,0121592
3727,7266;0,0123555
3728,6907;0,0126681
3729,6550;0,0130365
3730,6191;0,0134084
3731,5835;0,013724
3732,5476;0,0138832
3733,5120;0,0137607
3734,4761;0,0133444
3735,4404;0,0128786
3736,4045;0,0127146
3737,3689;0,0129814
3738,3330;0,0135148
3739,2974;0,0140343
3740,2615;0,0143085
3741,2258;0,0142317
3742,1899;0,0138544
3743,1543;0,0133933
3744,1184;0,0131635
3745,0828;0,0133757
3746,0469;0,0139517
3747,0112;0,0145961
3747,9753;0,0150004
3748,9397;0,0149621
3749,9038;0,0144585
3750,8682;0,0137458
3751,8323;0,0132627
3752,7966;0,013242
3753,7607;0,0135519
3754,7251;0,0139163
3755,6892;0,0141248
3756,6536;0,0140946
3757,6177;0,0138636
3758,5820;0,0135619
3759,5461;0,013345
3760,5105;0,0132996
3761,4746;0,013405
3762,4390;0,0135771
3763,4031;0,0137328
3764,3674;0,0138223
3765,3315;0,0138281
3766,2959;0,0137508
3767,2600;0,0135962
3768,2244;0,0133759
3769,1885;0,0131234
3770,1528;0,012905
3771,1169;0,012799
3772,0813;0,0128465
3773,0454;0,0130227
3774,0098;0,0132531
3774,9739;0,013455
3775,9382;0,013569
3776,9023;0,0135738
3777,8667;0,0134909
3778,8308;0,0133807
3779,7952;0,0133152
3780,7593;0,0133306
3781,7236;0,0134048
3782,6877;0,0134796
3783,6521;0,0134981
3784,6162;0,0134328
3785,5806;0,0132974
3786,5447;0,01314
3787,5090;0,0130199
3788,4731;0,0129797
3789,4375;0,0130295
3790,4016;0,0131501
3791,3660;0,0133112
3792,3301;0,0134941
3793,2944;0,0137025
3794,2585;0,0139534
3795,2229;0,0142496
3796,1870;0,0145544
3797,1514;0,0147919
3798,1155;0,0148768
3799,0798;0,014759
3800,0439;0,0144675
3801,0083;0,0141242
3801,9724;0,0138765
3802,9368;0,0137712
3803,9009;0,0137129
3804,8652;0,0135589
3805,8293;0,0132509
3806,7937;0,0128871
3807,7578;0,0126726
3808,7222;0,0127532
3809,6863;0,0130906
3810,6506;0,0135125
3811,6147;0,0138501
3812,5791;0,0140305
3813,5432;0,0140939
3814,5076;0,0141502
3815,4717;0,0142963
3816,4360;0,0145332
3817,4001;0,0147505
3818,3645;0,0147933
3819,3286;0,0145657
3820,2930;0,0141204
3821,2571;0,013666
3822,2214;0,0134232
3823,1855;0,013451
3824,1499;0,0136419
3825,1140;0,0138458
3826,0784;0,0139693
3827,0425;0,0140004
3828,0068;0,0139852
3828,9709;0,0139848
3829,9353;0,0140398
3830,8994;0,0141568
3831,8638;0,014315
3832,8279;0,0144814
3833,7922;0,0146233
3834,7563;0,014715
3835,7207;0,0147386
3836,6848;0,0146829
3837,6492;0,0145492
3838,6133;0,0143628
3839,5776;0,0141618
3840,5417;0,0139657
3841,5061;0,0137698
3842,4702;0,0135815
3843,4346;0,0134534
3844,3987;0,0134701
3845,3630;0,0136928
3846,3271;0,0141069
3847,2915;0,0146164
3848,2556;0,0150797
3849,2200;0,0153529
3850,1841;0,0153074
3851,1484;0,014829
3852,1125;0,0138818
3853,0769;0,0127393
3854,0410;0,0120063
3855,0054;0,0120241
3855,9695;0,0125793
3856,9338;0,0132809
3857,8979;0,0138665
3858,8623;0,0142412
3859,8264;0,0144192
3860,7908;0,014462
3861,7549;0,0144337
3862,7192;0,0143819
3863,6833;0,0143411
3864,6477;0,0143326
3865,6118;0,0143534
3866,5762;0,0143761
3867,5403;0,0143666
3868,5046;0,0142993
3869,4688;0,0141632
3870,4331;0,0139709
3871,3972;0,0137658
3872,3616;0,0136084
3873,3257;0,0135423
3874,2900;0,0135706
3875,2542;0,013661
3876,2185;0,0137704
3877,1826;0,013869
3878,1470;0,013952
3879,1111;0,0140309
3880,0754;0,014109
3881,0396;0,0141599
3882,0039;0,014131
3882,9680;0,0139803
3883,9324;0,0137251
3884,8965;0,0134609
3885,8608;0,0133113
3886,8250;0,013336
3887,7893;0,013484
3888,7534;0,0136355
3889,7178;0,0136861
3890,6819;0,0136159
3891,6462;0,0135109
3892,6104;0,0135045
3893,5747;0,0136631
3894,5388;0,0139368
3895,5032;0,0142184
3896,4673;0,0144251
3897,4316;0,0145315
3898,3958;0,0145541
3899,3601;0,0145157
3900,3242;0,0144165
3901,2886;0,014232
3902,2527;0,0139438
3903,2170;0,0135821
3904,1812;0,0132346
3905,1455;0,012994
3906,1096;0,0128934
3907,0740;0,0128992
3908,0381;0,0129549
3909,0024;0,0130234
3909,9666;0,0131005
3910,9309;0,0132001
3911,8950;0,0133307
3912,8594;0,0134778
3913,8235;0,0136049
3914,7878;0,0136698
3915,7520;0,0136498
3916,7163;0,0135646
3917,6804;0,0134772
3918,6448;0,0134565
3919,6089;0,0135265
3920,5732;0,013649
3921,5374;0,0137549
3922,5017;0,01379
3923,4658;0,0137494
3924,4302;0,0136817
3925,3943;0,0136558
3926,3586;0,0137084
3927,3228;0,0138183
3928,2871;0,013923
3929,2512;0,0139556
3930,2156;0,0138791
3931,1797;0,013707
3932,1440;0,0135008
3933,1082;0,0133342
3934,0725;0,0132505
3935,0366;0,0132491
3936,0010;0,0133035
3936,9651;0,0133839
3937,9294;0,0134673
3938,8936;0,0135368
3939,8579;0,01358
3940,8220;0,0135922
3941,7864;0,0135826
3942,7505;0,0135745
3943,7148;0,013592
3944,6790;0,0136404
3945,6433;0,0136999
3946,6074;0,0137369
3947,5718;0,0137239
3948,5359;0,0136568
3949,5002;0,0135591
3950,4644;0,0134673
3951,4287;0,0134074
3952,3928;0,0133817
3953,3572;0,0133757
3954,3213;0,013373
3955,2856;0,0133663
3956,2498;0,0133575
3957,2141;0,0133511
3958,1782;0,013347
3959,1426;0,01334
3960,1067;0,0133249
3961,0710;0,0133033
3962,0352;0,0132851
3962,9995;0,0132827
3963,9636;0,0133017
3964,9280;0,0133361
3965,8921;0,0133713
3966,8564;0,0133934
3967,8206;0,0133977
3968,7849;0,0133904
3969,7490;0,0133834
3970,7134;0,0133844
3971,6775;0,0133913
3972,6418;0,0133938
3973,6060;0,0133816
3974,5703;0,0133531
3975,5344;0,0133172
3976,4988;0,0132881
3977,4629;0,0132759
3978,4272;0,0132805
3979,3914;0,0132926
3980,3557;0,0132991
3981,3198;0,0132909
3982,2842;0,0132684
3983,2483;0,0132411
3984,2126;0,0132229
3985,1768;0,013225
3986,1411;0,0132506
3987,1052;0,0132936
3988,0696;0,0133419
3989,0337;0,0133828
3989,9980;0,0134081
3990,9622;0,0134161
3991,9265;0,0134102
3992,8906;0,0133952
3993,8550;0,0133743
3994,8191;0,0133492
3995,7834;0,0133212
3996,7476;0,0132932
3997,7119;0,0132694
3998,6760;0,0132545
3999,6404;0,0132522
4000,6045;0,0134554

##### Extended Information
[Comments]
Sample name
Comment
Username
Division
Organization;UNIVERSIDAD INDUSTRIAL DE SANTANDER

[Detailed Information]
Creation date;18/03/2025 1:59 p.m.

Data array type;Linear data array
Horizontal axis;Wavenumber [cm-1]
Vertical axis;Abs
Start;399,193 cm-1
End;4000,6 cm-1
Data interval;0,964233 cm-1
Data points;3736    

[Measurement Information]
Model name;FT/IR-4X1typeA
Serial No.;A035162111

Accessory;ATR PRO 4X
Accessory S/N;A021162126
Incident angle;45 deg

Measurement date;18/03/2025 1:58 p.m.

Light source;Standard
Detector;TGS
Accumulation;40
Resolution;4 cm-1
Zero filling;On
Apodization;Cosine
Gain;Auto (8)
Aperture;Auto (7 mm)
Scan speed;Auto (2 mm/sec)
Filter;Auto (12800 Hz)

