TITLE;
DATA TYPE;INFRARED SPECTRUM
ORIGIN;JASCO
OWNER;
DATE;25/03/18
TIME;09:57:40
SPECTROMETER/DATA SYSTEM;
LOCALE;9226
RESOLUTION;
DELTAX;0,964233
XUNITS;1/CM
YUNITS;ABSORBANCE
FIRSTX;  399,1927
LASTX; 4000,6047
NPOINTS;    3736
FIRSTY;     0,21453
MAXY;     0,28602
MINY;    -0,01416
XYDATA
399,1927;0,214532
400,1569;0,213394
401,1211;0,211402
402,0854;0,209241
403,0496;0,207433
404,0138;0,206349
404,9781;0,206247
405,9423;0,207214
406,9065;0,209066
407,8708;0,211328
408,8350;0,213365
409,7992;0,214619
410,7635;0,214857
411,7277;0,214296
412,6919;0,213484
413,6562;0,212985
414,6204;0,213123
415,5846;0,213952
416,5489;0,215358
417,5131;0,217125
418,4773;0,218975
419,4416;0,220644
420,4058;0,222039
421,3700;0,223222
422,3343;0,22427
423,2985;0,225194
424,2627;0,225957
425,2270;0,226511
426,1912;0,226839
427,1554;0,226973
428,1197;0,227015
429,0839;0,227133
430,0481;0,227538
431,0124;0,228408
431,9766;0,229763
432,9408;0,231361
433,9051;0,232699
434,8693;0,233201
435,8335;0,232506
436,7978;0,230713
437,7620;0,228354
438,7262;0,226107
439,6905;0,224466
440,6547;0,223578
441,6189;0,223264
442,5832;0,223189
443,5474;0,223088
444,5116;0,222921
445,4759;0,222836
446,4401;0,222978
447,4043;0,223336
448,3686;0,223731
449,3328;0,22392
450,2970;0,223746
451,2613;0,223214
452,2255;0,222473
453,1897;0,221693
454,1540;0,220971
455,1182;0,220317
456,0824;0,219716
457,0467;0,219196
458,0109;0,218829
458,9751;0,218666
459,9394;0,218672
460,9036;0,218766
461,8678;0,218893
462,8321;0,219059
463,7963;0,219288
464,7605;0,219544
465,7248;0,21969
466,6890;0,219536
467,6532;0,218972
468,6175;0,218082
469,5817;0,217165
470,5459;0,21663
471,5102;0,216801
472,4744;0,217689
473,4386;0,218932
474,4029;0,220001
475,3671;0,220523
476,3313;0,220442
477,2956;0,219972
478,2598;0,219449
479,2240;0,219172
480,1883;0,219297
481,1525;0,219792
482,1167;0,220482
483,0810;0,221138
484,0452;0,221587
485,0094;0,221788
485,9737;0,221844
486,9379;0,221931
487,9021;0,222204
488,8664;0,222716
489,8306;0,223395
490,7948;0,224062
491,7591;0,224515
492,7233;0,224638
493,6875;0,22448
494,6518;0,224239
495,6160;0,224156
496,5802;0,224396
497,5445;0,224978
498,5087;0,225786
499,4729;0,226633
500,4372;0,227346
501,4014;0,22783
502,3656;0,228094
503,3299;0,228224
504,2941;0,228337
505,2583;0,228538
506,2226;0,228916
507,1868;0,229516
508,1510;0,23032
509,1153;0,231216
510,0795;0,232021
511,0437;0,23256
512,0080;0,23275
512,9722;0,23265
513,9365;0,232426
514,9007;0,23228
515,8649;0,232354
516,8292;0,232674
517,7934;0,233156
518,7576;0,233664
519,7219;0,234094
520,6861;0,234408
521,6503;0,234619
522,6146;0,234742
523,5788;0,234781
524,5430;0,234721
525,5073;0,234543
526,4715;0,234223
527,4357;0,233741
528,4000;0,233087
529,3642;0,232276
530,3284;0,231368
531,2927;0,230471
532,2569;0,229721
533,2211;0,229245
534,1854;0,229104
535,1496;0,229267
536,1138;0,229618
537,0781;0,229993
538,0423;0,230241
539,0065;0,23028
539,9708;0,230118
540,9350;0,229838
541,8992;0,229551
542,8635;0,229343
543,8277;0,22926
544,7919;0,229314
545,7562;0,229522
546,7204;0,229916
547,6846;0,230527
548,6489;0,231345
549,6131;0,232295
550,5773;0,233254
551,5416;0,234102
552,5058;0,23477
553,4700;0,235251
554,4343;0,235554
555,3985;0,235665
556,3627;0,235519
557,3270;0,235038
558,2912;0,234188
559,2554;0,233026
560,2197;0,231694
561,1839;0,230357
562,1481;0,229133
563,1124;0,228048
564,0766;0,227049
565,0408;0,22606
566,0051;0,225049
566,9693;0,224056
567,9335;0,223172
568,8978;0,222483
569,8620;0,22201
570,8262;0,221705
571,7905;0,221485
572,7547;0,221289
573,7189;0,2211
574,6832;0,220937
575,6474;0,220812
576,6116;0,220712
577,5759;0,22059
578,5401;0,220396
579,5043;0,220104
580,4686;0,219715
581,4328;0,21925
582,3970;0,218734
583,3613;0,218196
584,3255;0,217669
585,2897;0,217197
586,2540;0,216816
587,2182;0,216547
588,1824;0,216382
589,1467;0,2163
590,1109;0,216279
591,0751;0,216299
592,0394;0,216334
593,0036;0,216338
593,9678;0,216248
594,9321;0,21601
595,8963;0,215606
596,8605;0,215063
597,8248;0,214441
598,7890;0,213796
599,7532;0,213158
600,7175;0,212529
601,6817;0,211898
602,6459;0,211273
603,6102;0,210681
604,5744;0,210148
605,5386;0,209678
606,5029;0,209236
607,4671;0,208773
608,4313;0,208248
609,3956;0,207652
610,3598;0,207003
611,3240;0,206323
612,2883;0,205606
613,2525;0,204814
614,2167;0,203886
615,1810;0,202768
616,1452;0,201444
617,1094;0,199949
618,0737;0,198355
619,0379;0,196747
620,0021;0,195185
620,9664;0,193698
621,9306;0,192293
622,8948;0,19098
623,8591;0,189777
624,8233;0,188716
625,7875;0,187828
626,7518;0,187122
627,7160;0,186572
628,6802;0,186122
629,6445;0,185693
630,6087;0,185209
631,5729;0,184614
632,5372;0,183896
633,5014;0,183087
634,4656;0,182257
635,4299;0,181473
636,3941;0,180775
637,3583;0,180163
638,3226;0,179607
639,2868;0,179075
640,2510;0,178551
641,2153;0,178045
642,1795;0,177574
643,1437;0,177152
644,1080;0,176776
645,0722;0,176435
646,0364;0,176109
647,0007;0,175782
647,9649;0,175445
648,9291;0,175101
649,8934;0,174772
650,8576;0,174496
651,8218;0,17432
652,7861;0,174279
653,7503;0,174375
654,7145;0,174583
655,6788;0,174856
656,6430;0,175149
657,6072;0,175431
658,5715;0,175674
659,5357;0,175831
660,4999;0,175847
661,4642;0,175693
662,4284;0,175412
663,3926;0,175101
664,3569;0,174866
665,3211;0,174773
666,2853;0,174773
667,2496;0,174588
668,2138;0,173742
669,1780;0,172043
670,1423;0,169888
671,1065;0,167722
672,0707;0,165647
673,0350;0,163572
673,9992;0,161407
674,9634;0,159152
675,9277;0,1569
676,8919;0,154774
677,8561;0,152845
678,8204;0,151113
679,7846;0,149551
680,7488;0,148144
681,7131;0,146893
682,6773;0,145793
683,6415;0,144823
684,6058;0,143959
685,5700;0,143187
686,5342;0,142511
687,4985;0,141934
688,4627;0,141441
689,4269;0,140997
690,3912;0,140559
691,3554;0,140096
692,3196;0,139602
693,2839;0,139088
694,2481;0,138575
695,2123;0,138081
696,1766;0,137612
697,1408;0,137158
698,1050;0,136699
699,0693;0,136213
700,0335;0,135685
700,9977;0,135114
701,9620;0,134514
702,9262;0,133904
703,8904;0,133298
704,8547;0,1327
705,8189;0,132101
706,7831;0,131487
707,7474;0,130845
708,7116;0,130167
709,6758;0,12945
710,6401;0,128693
711,6043;0,127895
712,5685;0,12707
713,5328;0,126244
714,4970;0,125456
715,4612;0,124683
716,4255;0,124008
717,3897;0,123326
718,3539;0,12256
719,3182;0,121644
720,2824;0,120574
721,2466;0,119408
722,2109;0,118231
723,1751;0,117108
724,1393;0,116052
725,1036;0,115032
726,0678;0,114014
727,0320;0,112984
727,9963;0,11196
728,9605;0,110971
729,9247;0,110041
730,8890;0,109171
731,8532;0,108347
732,8174;0,107557
733,7817;0,106801
734,7459;0,106088
735,7101;0,105427
736,6744;0,104815
737,6386;0,104238
738,6028;0,103679
739,5671;0,103127
740,5313;0,102583
741,4955;0,102059
742,4598;0,101566
743,4240;0,101107
744,3882;0,100673
745,3525;0,100247
746,3167;0,0998113
747,2809;0,0993471
748,2452;0,0988406
749,2094;0,0982842
750,1736;0,0976841
751,1379;0,0970654
752,1021;0,0964685
753,0663;0,0959331
754,0306;0,0954772
754,9948;0,095086
755,9590;0,0947196
756,9233;0,0943357
757,8875;0,0939107
758,8517;0,0934455
759,8160;0,0929543
760,7802;0,0924488
761,7444;0,0919308
762,7087;0,0913988
763,6729;0,0908582
764,6371;0,090325
765,6014;0,0898183
766,5656;0,0893485
767,5298;0,0889122
768,4941;0,0884976
769,4583;0,0880927
770,4225;0,0876906
771,3868;0,0872879
772,3510;0,086882
773,3152;0,0864727
774,2795;0,0860682
775,2437;0,0856868
776,2079;0,0853489
777,1722;0,0850608
778,1364;0,0848025
779,1006;0,0845291
780,0649;0,0841902
781,0291;0,0837536
781,9933;0,0832209
782,9576;0,0826247
783,9218;0,0820109
784,8860;0,0814181
785,8503;0,0808666
786,8145;0,080357
787,7787;0,0798785
788,7430;0,0794163
789,7072;0,0789579
790,6714;0,078497
791,6357;0,0780367
792,5999;0,0775908
793,5641;0,0771807
794,5284;0,0768261
795,4926;0,0765342
796,4568;0,0762939
797,4211;0,0760789
798,3853;0,0758592
799,3495;0,0756149
800,3138;0,0753422
801,2780;0,0750513
802,2422;0,0747576
803,2065;0,0744736
804,1707;0,0742059
805,1349;0,0739566
806,0992;0,0737261
807,0634;0,0735139
808,0276;0,0733167
808,9919;0,0731278
809,9561;0,072938
810,9203;0,0727391
811,8846;0,0725272
812,8488;0,072305
813,8130;0,0720805
814,7773;0,0718647
815,7415;0,0716681
816,7057;0,0714976
817,6700;0,0713552
818,6342;0,0712373
819,5984;0,0711371
820,5627;0,0710477
821,5269;0,0709642
822,4911;0,0708837
823,4554;0,0708031
824,4196;0,0707183
825,3839;0,0706248
826,3481;0,0705198
827,3123;0,0704028
828,2766;0,0702726
829,2408;0,0701233
830,2050;0,0699432
831,1693;0,0697209
832,1335;0,0694543
833,0977;0,0691571
834,0620;0,0688549
835,0262;0,0685726
835,9904;0,0683204
836,9547;0,0680888
837,9189;0,0678564
838,8831;0,0676046
839,8474;0,0673296
840,8116;0,0670431
841,7758;0,066764
842,7401;0,0665066
843,7043;0,066275
844,6685;0,0660649
845,6328;0,0658694
846,5970;0,0656831
847,5612;0,0655027
848,5255;0,0653256
849,4897;0,0651492
850,4539;0,0649727
851,4182;0,0648001
852,3824;0,0646407
853,3466;0,0645066
854,3109;0,0644073
855,2751;0,0643442
856,2393;0,0643082
857,2036;0,0642819
858,1678;0,0642475
859,1320;0,0641953
860,0963;0,0641298
861,0605;0,0640685
862,0247;0,064033
862,9890;0,0640382
863,9532;0,0640852
864,9174;0,0641644
865,8817;0,064265
866,8459;0,0643852
867,8101;0,0645354
868,7744;0,0647312
869,7386;0,0649823
870,7028;0,0652837
871,6671;0,065615
872,6313;0,0659473
873,5955;0,0662527
874,5598;0,0665111
875,5240;0,0667149
876,4882;0,0668699
877,4525;0,0669953
878,4167;0,0671212
879,3809;0,0672835
880,3452;0,067517
881,3094;0,0678504
882,2736;0,0683042
883,2379;0,068893
884,2021;0,0696266
885,1663;0,0705093
886,1306;0,0715353
887,0948;0,0726852
888,0590;0,0739262
889,0233;0,0752171
889,9875;0,0765144
890,9517;0,0777759
891,9160;0,0789595
892,8802;0,0800214
893,8444;0,0809182
894,8087;0,0816137
895,7729;0,0820876
896,7371;0,0823397
897,7014;0,0823857
898,6656;0,0822462
899,6298;0,0819374
900,5941;0,0814689
901,5583;0,0808506
902,5225;0,0801022
903,4868;0,0792594
904,4510;0,0783703
905,4152;0,0774849
906,3795;0,0766425
907,3437;0,0758671
908,3079;0,0751699
909,2722;0,0745576
910,2364;0,0740393
911,2007;0,0736268
912,1649;0,0733301
913,1292;0,0731511
914,0934;0,0730819
915,0576;0,0731087
916,0219;0,0732188
916,9861;0,0734053
917,9503;0,0736658
918,9146;0,0739967
919,8788;0,0743858
920,8430;0,0748104
921,8073;0,0752411
922,7715;0,0756505
923,7357;0,0760218
924,7000;0,0763526
925,6642;0,0766527
926,6284;0,0769367
927,5927;0,0772164
928,5569;0,0774967
929,5211;0,0777755
930,4854;0,078047
931,4496;0,0783073
932,4138;0,0785575
933,3781;0,0788063
934,3423;0,0790695
935,3065;0,079369
936,2708;0,0797288
937,2350;0,0801706
938,1992;0,0807081
939,1635;0,081345
940,1277;0,0820757
941,0919;0,082892
942,0562;0,0837896
943,0204;0,0847731
943,9846;0,0858547
944,9489;0,0870488
945,9131;0,0883654
946,8773;0,0898059
947,8416;0,0913626
948,8058;0,0930217
949,7700;0,0947678
950,7343;0,0965874
951,6985;0,0984727
952,6627;0,100422
953,6270;0,10244
954,5912;0,104531
955,5554;0,106696
956,5197;0,108931
957,4839;0,111224
958,4481;0,113566
959,4124;0,115945
960,3766;0,118355
961,3408;0,120784
962,3051;0,123216
963,2693;0,125638
964,2335;0,128046
965,1978;0,130453
966,1620;0,132889
967,1262;0,135388
968,0905;0,137975
969,0547;0,140657
970,0189;0,143439
970,9832;0,146337
971,9474;0,149395
972,9116;0,15268
973,8759;0,15626
974,8401;0,160177
975,8043;0,16443
976,7686;0,168977
977,7328;0,173744
978,6970;0,178645
979,6613;0,183586
980,6255;0,188468
981,5897;0,193189
982,5540;0,197646
983,5182;0,201762
984,4824;0,2055
985,4467;0,208866
986,4109;0,211912
987,3751;0,214703
988,3394;0,217302
989,3036;0,219748
990,2678;0,222052
991,2321;0,224196
992,1963;0,226152
993,1605;0,227893
994,1248;0,229406
995,0890;0,230705
996,0532;0,231822
997,0175;0,232801
997,9817;0,23369
998,9459;0,234531
999,9102;0,235363
1000,8744;0,236227
1001,8386;0,237171
1002,8029;0,23824
1003,7671;0,239476
1004,7313;0,24091
1005,6956;0,242568
1006,6598;0,244474
1007,6240;0,246654
1008,5883;0,249129
1009,5525;0,251904
1010,5167;0,254953
1011,4810;0,258213
1012,4452;0,261591
1013,4094;0,264971
1014,3737;0,268235
1015,3379;0,271275
1016,3021;0,27401
1017,2664;0,276397
1018,2306;0,27843
1019,1948;0,280134
1020,1591;0,281549
1021,1233;0,282714
1022,0875;0,283659
1023,0518;0,284409
1024,0160;0,284987
1024,9802;0,285418
1025,9445;0,28573
1026,9087;0,285934
1027,8729;0,286022
1028,8372;0,285952
1029,8014;0,285658
1030,7656;0,285053
1031,7299;0,284054
1032,6941;0,282603
1033,6583;0,280693
1034,6226;0,278379
1035,5868;0,27578
1036,5510;0,273056
1037,5153;0,270381
1038,4795;0,267904
1039,4437;0,265735
1040,4080;0,263934
1041,3722;0,262509
1042,3364;0,261423
1043,3007;0,260597
1044,2649;0,25992
1045,2291;0,259271
1046,1934;0,258542
1047,1576;0,25766
1048,1218;0,256591
1049,0861;0,255332
1050,0503;0,253889
1051,0145;0,252257
1051,9788;0,250421
1052,9430;0,248363
1053,9072;0,246078
1054,8715;0,243574
1055,8357;0,240861
1056,7999;0,237933
1057,7642;0,234768
1058,7284;0,231336
1059,6926;0,227627
1060,6569;0,223678
1061,6211;0,219582
1062,5853;0,215471
1063,5496;0,211484
1064,5138;0,207731
1065,4780;0,204275
1066,4423;0,201123
1067,4065;0,198242
1068,3707;0,19558
1069,3350;0,193074
1070,2992;0,190662
1071,2634;0,188281
1072,2277;0,185872
1073,1919;0,183382
1074,1561;0,180776
1075,1204;0,178036
1076,0846;0,175173
1077,0488;0,172222
1078,0131;0,169247
1078,9773;0,166325
1079,9415;0,163546
1080,9058;0,160989
1081,8700;0,158712
1082,8342;0,156739
1083,7985;0,155062
1084,7627;0,153648
1085,7269;0,152453
1086,6912;0,151435
1087,6554;0,150562
1088,6196;0,149812
1089,5839;0,149176
1090,5481;0,148655
1091,5123;0,14825
1092,4766;0,147962
1093,4408;0,147778
1094,4050;0,147678
1095,3693;0,147629
1096,3335;0,1476
1097,2977;0,147566
1098,2620;0,147506
1099,2262;0,147407
1100,1904;0,147254
1101,1547;0,147031
1102,1189;0,14672
1103,0831;0,146308
1104,0474;0,14579
1105,0116;0,145175
1105,9758;0,144481
1106,9401;0,143735
1107,9043;0,142952
1108,8685;0,142124
1109,8328;0,141213
1110,7970;0,140157
1111,7612;0,138893
1112,7255;0,137383
1113,6897;0,135643
1114,6539;0,133745
1115,6182;0,131795
1116,5824;0,129904
1117,5466;0,128148
1118,5109;0,12655
1119,4751;0,125075
1120,4393;0,123648
1121,4036;0,122177
1122,3678;0,120575
1123,3320;0,118781
1124,2963;0,116764
1125,2605;0,114527
1126,2247;0,1121
1127,1890;0,10953
1128,1532;0,106871
1129,1174;0,104178
1130,0817;0,101502
1131,0459;0,098886
1132,0101;0,096368
1132,9744;0,0939814
1133,9386;0,0917601
1134,9028;0,0897419
1135,8671;0,0879694
1136,8313;0,0864869
1137,7955;0,0853329
1138,7598;0,0845311
1139,7240;0,0840832
1140,6882;0,0839665
1141,6525;0,0841375
1142,6167;0,0845402
1143,5809;0,0851165
1144,5452;0,0858155
1145,5094;0,0866002
1146,4736;0,0874491
1147,4379;0,0883533
1148,4021;0,0893096
1149,3663;0,090311
1150,3306;0,0913389
1151,2948;0,0923586
1152,2590;0,0933213
1153,2233;0,0941701
1154,1875;0,0948487
1155,1517;0,0953062
1156,1160;0,0954984
1157,0802;0,0953822
1158,0444;0,0949097
1159,0087;0,0940255
1159,9729;0,0926713
1160,9371;0,0907984
1161,9014;0,0883855
1162,8656;0,0854529
1163,8298;0,0820699
1164,7941;0,0783485
1165,7583;0,0744291
1166,7225;0,0704594
1167,6868;0,0665747
1168,6510;0,0628832
1169,6152;0,0594585
1170,5795;0,0563403
1171,5437;0,0535411
1172,5079;0,0510565
1173,4722;0,0488728
1174,4364;0,0469722
1175,4006;0,0453328
1176,3649;0,0439277
1177,3291;0,0427258
1178,2933;0,0416947
1179,2576;0,040806
1180,2218;0,0400397
1181,1860;0,0393851
1182,1503;0,0388388
1183,1145;0,0384004
1184,0787;0,0380691
1185,0430;0,0378428
1186,0072;0,0377199
1186,9714;0,0377023
1187,9357;0,0377967
1188,8999;0,0380125
1189,8641;0,0383574
1190,8284;0,0388329
1191,7926;0,039432
1192,7568;0,0401416
1193,7211;0,0409456
1194,6853;0,0418285
1195,6495;0,0427739
1196,6138;0,0437606
1197,5780;0,0447599
1198,5422;0,0457373
1199,5065;0,0465728
1200,4707;0,0474303
1201,4349;0,0482084
1202,3992;0,0489165
1203,3634;0,04957
1204,3276;0,0501808
1205,2919;0,0507533
1206,2561;0,0512891
1207,2203;0,0517947
1208,1846;0,0522902
1209,1488;0,0528093
1210,1130;0,0533939
1211,0773;0,0540822
1212,0415;0,0548982
1213,0057;0,055846
1213,9700;0,0569106
1214,9342;0,0580654
1215,8984;0,0592793
1216,8627;0,0605235
1217,8269;0,0617739
1218,7911;0,0630135
1219,7554;0,0642305
1220,7196;0,0654178
1221,6838;0,0665708
1222,6481;0,0676862
1223,6123;0,0687603
1224,5765;0,0697884
1225,5408;0,0707648
1226,5050;0,0716845
1227,4692;0,0725441
1228,4335;0,0733416
1229,3977;0,074075
1230,3619;0,0747404
1231,3262;0,0753311
1232,2904;0,0758398
1233,2546;0,0762617
1234,2189;0,0765984
1235,1831;0,0768591
1236,1473;0,0770579
1237,1116;0,0772092
1238,0758;0,0773232
1239,0400;0,0774035
1240,0043;0,0774487
1240,9685;0,0774544
1241,9327;0,0774158
1242,8970;0,0773274
1243,8612;0,0771822
1244,8254;0,0769716
1245,7897;0,0766881
1246,7539;0,0763298
1247,7181;0,0759037
1248,6824;0,0754261
1249,6466;0,0749199
1250,6108;0,0744091
1251,5751;0,0739146
1252,5393;0,0734497
1253,5035;0,0730181
1254,4678;0,0726122
1255,4320;0,0722149
1256,3962;0,0718038
1257,3605;0,0713587
1258,3247;0,0708682
1259,2889;0,0703322
1260,2532;0,0697576
1261,2174;0,0691505
1262,1816;0,0685106
1263,1459;0,0678305
1264,1101;0,0671022
1265,0743;0,0663233
1266,0386;0,0654989
1267,0028;0,0646385
1267,9670;0,0637497
1268,9313;0,0628351
1269,8955;0,0618936
1270,8597;0,0609242
1271,8240;0,0599301
1272,7882;0,0589197
1273,7524;0,0579058
1274,7167;0,0569041
1275,6809;0,0559311
1276,6451;0,0550002
1277,6094;0,0541165
1278,5736;0,0532734
1279,5378;0,0524553
1280,5021;0,0516459
1281,4663;0,0508391
1282,4305;0,0500447
1283,3948;0,0492844
1284,3590;0,0485819
1285,3232;0,0479544
1286,2875;0,0474101
1287,2517;0,0469522
1288,2159;0,0465848
1289,1802;0,0463141
1290,1444;0,0461451
1291,1086;0,0460764
1292,0729;0,0460996
1293,0371;0,0462041
1294,0013;0,0463824
1294,9656;0,046634
1295,9298;0,0469636
1296,8940;0,0473767
1297,8583;0,0478749
1298,8225;0,0484545
1299,7867;0,0491075
1300,7510;0,0498233
1301,7152;0,0505928
1302,6794;0,0514083
1303,6437;0,0522658
1304,6079;0,0531645
1305,5721;0,0541039
1306,5364;0,0550803
1307,5006;0,0560851
1308,4648;0,0571071
1309,4291;0,0581359
1310,3933;0,0591628
1311,3575;0,0601772
1312,3218;0,0611594
1313,2860;0,0620751
1314,2502;0,0628768
1315,2145;0,063511
1316,1787;0,0639304
1317,1429;0,0641074
1318,1072;0,0640467
1319,0714;0,0637899
1320,0356;0,0634065
1320,9999;0,0629708
1321,9641;0,0625391
1322,9283;0,0621414
1323,8926;0,0617877
1324,8568;0,0614807
1325,8210;0,0612235
1326,7853;0,0610195
1327,7495;0,0608664
1328,7137;0,0607514
1329,6780;0,060651
1330,6422;0,0605366
1331,6064;0,0603826
1332,5707;0,0601699
1333,5349;0,0598862
1334,4991;0,0595193
1335,4634;0,0590517
1336,4276;0,0584633
1337,3918;0,0577454
1338,3561;0,0569229
1339,3203;0,0560647
1340,2845;0,055262
1341,2488;0,0545806
1342,2130;0,0540325
1343,1772;0,0535889
1344,1415;0,0532148
1345,1057;0,0528938
1346,0699;0,052635
1347,0342;0,0524632
1347,9984;0,0524039
1348,9626;0,0524697
1349,9269;0,0526547
1350,8911;0,0529388
1351,8553;0,0532973
1352,8196;0,0537128
1353,7838;0,0541822
1354,7480;0,0547144
1355,7123;0,0553183
1356,6765;0,0559896
1357,6407;0,0567064
1358,6050;0,0574378
1359,5692;0,0581561
1360,5334;0,0588431
1361,4977;0,0594904
1362,4619;0,0600993
1363,4261;0,0606796
1364,3904;0,0612389
1365,3546;0,0617718
1366,3188;0,0622587
1367,2831;0,0626756
1368,2473;0,0630018
1369,2115;0,0632221
1370,1758;0,0633229
1371,1400;0,0632851
1372,1042;0,0630822
1373,0685;0,0626929
1374,0327;0,0621245
1374,9969;0,0614247
1375,9612;0,0606537
1376,9254;0,0598361
1377,8896;0,0589467
1378,8539;0,0579458
1379,8181;0,0568283
1380,7823;0,0556438
1381,7466;0,0544669
1382,7108;0,05334
1383,6750;0,0522418
1384,6393;0,0511079
1385,6035;0,0498956
1386,5677;0,0486502
1387,5320;0,0475142
1388,4962;0,0466346
1389,4604;0,046051
1390,4247;0,0456877
1391,3889;0,0454323
1392,3531;0,0452061
1393,3174;0,0449875
1394,2816;0,0447982
1395,2458;0,0446724
1396,2101;0,044629
1397,1743;0,0446674
1398,1385;0,0447829
1399,1028;0,0449774
1400,0670;0,0452518
1401,0313;0,045594
1401,9955;0,0459788
1402,9597;0,0463814
1403,9240;0,0467937
1404,8882;0,0472296
1405,8524;0,0477149
1406,8167;0,0482672
1407,7809;0,048884
1408,7451;0,0495516
1409,7094;0,0502631
1410,6736;0,0510251
1411,6378;0,0518445
1412,6021;0,0527086
1413,5663;0,0535777
1414,5305;0,0543988
1415,4948;0,0551252
1416,4590;0,0557293
1417,4232;0,0562068
1418,3875;0,0565849
1419,3517;0,05692
1420,3159;0,0572517
1421,2802;0,0575505
1422,2444;0,0577339
1423,2086;0,0577306
1424,1729;0,0575246
1425,1371;0,0571518
1426,1013;0,0566557
1427,0656;0,0560445
1428,0298;0,055293
1428,9940;0,0543935
1429,9583;0,0534076
1430,9225;0,0524468
1431,8867;0,0515828
1432,8510;0,0507817
1433,8152;0,0499252
1434,7794;0,0488952
1435,7437;0,0476891
1436,7079;0,046497
1437,6721;0,0455986
1438,6364;0,0451223
1439,6006;0,0449748
1440,5648;0,0449843
1441,5291;0,0450343
1442,4933;0,0450941
1443,4575;0,0451872
1444,4218;0,0453435
1445,3860;0,0455688
1446,3502;0,0458443
1447,3145;0,0461496
1448,2787;0,0464839
1449,2429;0,0468627
1450,2072;0,0472896
1451,1714;0,0477336
1452,1356;0,0481337
1453,0999;0,0484185
1454,0641;0,0485148
1455,0283;0,0483372
1455,9926;0,0478041
1456,9568;0,0469938
1457,9210;0,046289
1458,8853;0,0460287
1459,8495;0,046148
1460,8137;0,0463647
1461,7780;0,04642
1462,7422;0,0461315
1463,7064;0,0454034
1464,6707;0,04429
1465,6349;0,0430228
1466,5991;0,0418502
1467,5634;0,0408366
1468,5276;0,039856
1469,4918;0,0387041
1470,4561;0,0371802
1471,4203;0,035156
1472,3845;0,032707
1473,3488;0,0302044
1474,3130;0,0280901
1475,2772;0,0265201
1476,2415;0,0253669
1477,2057;0,0244449
1478,1699;0,023634
1479,1342;0,0228822
1480,0984;0,0221778
1481,0626;0,0215326
1482,0269;0,0209738
1482,9911;0,0205308
1483,9553;0,0202149
1484,9196;0,0200081
1485,8838;0,0198688
1486,8480;0,0197478
1487,8123;0,0196109
1488,7765;0,019473
1489,7407;0,0194176
1490,7050;0,019535
1491,6692;0,0198335
1492,6334;0,0202471
1493,5977;0,0207064
1494,5619;0,0211837
1495,5261;0,0216972
1496,4904;0,0222924
1497,4546;0,0230123
1498,4188;0,0238677
1499,3831;0,0248179
1500,3473;0,025777
1501,3115;0,0266455
1502,2758;0,0273435
1503,2400;0,0278259
1504,2042;0,0280755
1505,1685;0,0280659
1506,1327;0,0277205
1507,0969;0,0270412
1508,0612;0,0263189
1509,0254;0,0258332
1509,9896;0,0255459
1510,9539;0,0252885
1511,9181;0,0249412
1512,8823;0,024451
1513,8466;0,0238063
1514,8108;0,0230215
1515,7750;0,0221368
1516,7393;0,0212086
1517,7035;0,0202807
1518,6677;0,0193596
1519,6320;0,0184281
1520,5962;0,0174928
1521,5604;0,0166185
1522,5247;0,0158917
1523,4889;0,0153447
1524,4531;0,0149414
1525,4174;0,0146335
1526,3816;0,014409
1527,3458;0,0142862
1528,3101;0,0142722
1529,2743;0,0143408
1530,2385;0,0144515
1531,2028;0,0145842
1532,1670;0,0147582
1533,1312;0,0150186
1534,0955;0,0153912
1535,0597;0,0158446
1536,0239;0,0163051
1536,9882;0,0167033
1537,9524;0,0169991
1538,9166;0,0171522
1539,8809;0,0170704
1540,8451;0,0167003
1541,8093;0,0162326
1542,7736;0,0159093
1543,7378;0,0157542
1544,7020;0,0156882
1545,6663;0,0156697
1546,6305;0,0156994
1547,5947;0,0157786
1548,5590;0,0158892
1549,5232;0,0160067
1550,4874;0,0161265
1551,4517;0,0162745
1552,4159;0,0164839
1553,3801;0,0167559
1554,3444;0,017041
1555,3086;0,0172518
1556,2728;0,0172724
1557,2371;0,0169653
1558,2013;0,0163146
1559,1655;0,0157289
1560,1298;0,0157289
1561,0940;0,0163012
1562,0582;0,0171237
1563,0225;0,0179506
1563,9867;0,0186693
1564,9509;0,0192468
1565,9152;0,0196914
1566,8794;0,0200447
1567,8436;0,0203861
1568,8079;0,0208164
1569,7721;0,0214025
1570,7363;0,0221258
1571,7006;0,0229016
1572,6648;0,0236473
1573,6290;0,0243282
1574,5933;0,0249598
1575,5575;0,0255817
1576,5217;0,0262299
1577,4860;0,0269298
1578,4502;0,027688
1579,4144;0,028486
1580,3787;0,0292985
1581,3429;0,0301147
1582,3071;0,0309409
1583,2714;0,0317916
1584,2356;0,032681
1585,1998;0,0336175
1586,1641;0,0345983
1587,1283;0,0356043
1588,0925;0,0366006
1589,0568;0,037544
1590,0210;0,0383941
1590,9852;0,0391183
1591,9495;0,0396886
1592,9137;0,0400794
1593,8779;0,0402758
1594,8422;0,040288
1595,8064;0,0401572
1596,7706;0,0399408
1597,7349;0,0396882
1598,6991;0,0394265
1599,6633;0,0391625
1600,6276;0,0388968
1601,5918;0,0386374
1602,5560;0,0384044
1603,5203;0,0382204
1604,4845;0,0380915
1605,4487;0,0379974
1606,4130;0,0378985
1607,3772;0,0377636
1608,3414;0,0376027
1609,3057;0,0374749
1610,2699;0,0374506
1611,2341;0,0375543
1612,1984;0,0377445
1613,1626;0,0379422
1614,1268;0,0380734
1615,0911;0,0381104
1616,0553;0,0381103
1617,0195;0,038204
1617,9838;0,0384846
1618,9480;0,0389146
1619,9122;0,0393734
1620,8765;0,03975
1621,8407;0,0399875
1622,8049;0,040092
1623,7692;0,0401217
1624,7334;0,0401475
1625,6976;0,0402064
1626,6619;0,0402989
1627,6261;0,0404239
1628,5903;0,0405988
1629,5546;0,0408394
1630,5188;0,0411288
1631,4830;0,0414104
1632,4473;0,0416057
1633,4115;0,0416293
1634,3757;0,0414086
1635,3400;0,0409604
1636,3042;0,0404809
1637,2684;0,0402129
1638,2327;0,0402058
1639,1969;0,040349
1640,1611;0,0405289
1641,1254;0,0406866
1642,0896;0,0407984
1643,0538;0,0408415
1644,0181;0,0407743
1644,9823;0,0405488
1645,9465;0,04018
1646,9108;0,0398166
1647,8750;0,0396327
1648,8392;0,0396314
1649,8035;0,0396407
1650,7677;0,039409
1651,7319;0,0386563
1652,6962;0,0372626
1653,6604;0,0357101
1654,6246;0,0347906
1655,5889;0,0346189
1656,5531;0,0347867
1657,5173;0,0349417
1658,4816;0,0349101
1659,4458;0,0346267
1660,4100;0,034084
1661,3743;0,0333419
1662,3385;0,0325501
1663,3027;0,0318867
1664,2670;0,0314317
1665,2312;0,0311229
1666,1954;0,0308148
1667,1597;0,0303495
1668,1239;0,0296208
1669,0881;0,0286577
1670,0524;0,027655
1671,0166;0,0268231
1671,9808;0,0261949
1672,9451;0,0256369
1673,9093;0,0250032
1674,8735;0,024267
1675,8378;0,0235529
1676,8020;0,023035
1677,7662;0,0227826
1678,7305;0,0227173
1679,6947;0,0226843
1680,6589;0,0225137
1681,6232;0,022034
1682,5874;0,0211111
1683,5516;0,0198217
1684,5159;0,0185795
1685,4801;0,0177847
1686,4443;0,0174403
1687,4086;0,0173137
1688,3728;0,0172113
1689,3370;0,0170588
1690,3013;0,0168692
1691,2655;0,016688
1692,2297;0,0165529
1693,1940;0,0164772
1694,1582;0,0164501
1695,1224;0,0164383
1696,0867;0,0163874
1697,0509;0,0162376
1698,0151;0,0159672
1698,9794;0,0156436
1699,9436;0,0154159
1700,9078;0,0154159
1701,8721;0,0156619
1702,8363;0,0160686
1703,8005;0,0165249
1704,7648;0,0169566
1705,7290;0,0173488
1706,6932;0,0177383
1707,6575;0,0181806
1708,6217;0,0187105
1709,5859;0,0193255
1710,5502;0,0199975
1711,5144;0,0206882
1712,4786;0,0213566
1713,4429;0,0219566
1714,4071;0,0224336
1715,3713;0,022731
1716,3356;0,0228363
1717,2998;0,0228547
1718,2640;0,0229732
1719,2283;0,0232957
1720,1925;0,0237862
1721,1567;0,0243514
1722,1210;0,024913
1723,0852;0,0254277
1724,0494;0,0258869
1725,0137;0,0263113
1725,9779;0,0267387
1726,9421;0,0272008
1727,9064;0,0277
1728,8706;0,0281978
1729,8348;0,0286161
1730,7991;0,0288454
1731,7633;0,0287709
1732,7275;0,0283508
1733,6918;0,0277264
1734,6560;0,0271731
1735,6202;0,0268466
1736,5845;0,02667
1737,5487;0,0264569
1738,5129;0,026052
1739,4772;0,0253972
1740,4414;0,0245491
1741,4056;0,0236402
1742,3699;0,0227878
1743,3341;0,0220235
1744,2983;0,0213056
1745,2626;0,0205668
1746,2268;0,0197371
1747,1910;0,0187359
1748,1553;0,0174849
1749,1195;0,0159829
1750,0837;0,014385
1751,0480;0,0129386
1752,0122;0,0117996
1752,9764;0,0109437
1753,9407;0,010236
1754,9049;0,0095422
1755,8691;0,00879624
1756,8334;0,00800953
1757,7976;0,00722866
1758,7618;0,00647641
1759,7261;0,00573027
1760,6903;0,00495975
1761,6545;0,00418184
1762,6188;0,00346892
1763,5830;0,00289331
1764,5472;0,00246996
1765,5115;0,00215516
1766,4757;0,00188628
1767,4399;0,00161644
1768,4042;0,00132094
1769,3684;0,000980295
1770,3326;0,000565498
1771,2969;5,80012E-05
1772,2611;-0,000498458
1773,2253;-0,000989906
1774,1896;-0,00131384
1775,1538;-0,00145588
1776,1180;-0,00147822
1777,0823;-0,00146342
1778,0465;-0,00147353
1779,0107;-0,00153551
1779,9750;-0,00164572
1780,9392;-0,00178748
1781,9034;-0,00194907
1782,8677;-0,00212533
1783,8319;-0,00230224
1784,7961;-0,00244567
1785,7604;-0,0025133
1786,7246;-0,00248264
1787,6888;-0,00236932
1788,6531;-0,00222351
1789,6173;-0,00211435
1790,5815;-0,00210914
1791,5458;-0,00223759
1792,5100;-0,00245239
1793,4742;-0,00264908
1794,4385;-0,00275335
1795,4027;-0,00277097
1796,3669;-0,00275896
1797,3312;-0,00277786
1798,2954;-0,00286275
1799,2596;-0,00301071
1800,2239;-0,00318207
1801,1881;-0,00332128
1802,1523;-0,00338918
1803,1166;-0,00338064
1804,0808;-0,00331736
1805,0450;-0,00323107
1806,0093;-0,00315319
1806,9735;-0,00311198
1807,9377;-0,00313027
1808,9020;-0,00321808
1809,8662;-0,00336238
1810,8304;-0,00352533
1811,7947;-0,00366138
1812,7589;-0,00374357
1813,7231;-0,00377601
1814,6874;-0,00378382
1815,6516;-0,0037923
1816,6158;-0,00380988
1817,5801;-0,00382428
1818,5443;-0,00381451
1819,5085;-0,00377059
1820,4728;-0,00370366
1821,4370;-0,00363811
1822,4012;-0,00359376
1823,3655;-0,00357234
1824,3297;-0,00355871
1825,2939;-0,00353899
1826,2582;-0,00352212
1827,2224;-0,00354404
1828,1866;-0,0036459
1829,1509;-0,00383639
1830,1151;-0,0040668
1831,0793;-0,00425292
1832,0436;-0,00433456
1833,0078;-0,00431115
1833,9720;-0,00422502
1834,9363;-0,00412401
1835,9005;-0,00403521
1836,8647;-0,00395837
1837,8290;-0,00387856
1838,7932;-0,00378944
1839,7574;-0,00370831
1840,7217;-0,00367202
1841,6859;-0,00371988
1842,6501;-0,00387021
1843,6144;-0,0040959
1844,5786;-0,00432159
1845,5428;-0,00446802
1846,5071;-0,00450823
1847,4713;-0,00447223
1848,4355;-0,00440883
1849,3998;-0,00435328
1850,3640;-0,00431904
1851,3282;-0,0043059
1852,2925;-0,00431207
1853,2567;-0,00433999
1854,2209;-0,00439233
1855,1852;-0,00446357
1856,1494;-0,00453637
1857,1136;-0,00458763
1858,0779;-0,00460063
1859,0421;-0,00457325
1860,0063;-0,00451572
1860,9706;-0,00444044
1861,9348;-0,00435358
1862,8990;-0,00425603
1863,8633;-0,00415206
1864,8275;-0,00405762
1865,7917;-0,00400145
1866,7560;-0,00401492
1867,7202;-0,00410943
1868,6844;-0,00425503
1869,6487;-0,00439183
1870,6129;-0,00447606
1871,5771;-0,00451072
1872,5414;-0,00453252
1873,5056;-0,0045798
1874,4698;-0,00466857
1875,4341;-0,00478473
1876,3983;-0,0048922
1877,3625;-0,00495303
1878,3268;-0,00494711
1879,2910;-0,00487888
1880,2552;-0,00476966
1881,2195;-0,00464528
1882,1837;-0,00452794
1883,1479;-0,00443473
1884,1122;-0,00438019
1885,0764;-0,00437877
1886,0406;-0,00444328
1887,0049;-0,00457799
1887,9691;-0,00476859
1888,9333;-0,00497654
1889,8976;-0,00514813
1890,8618;-0,0052374
1891,8260;-0,00522601
1892,7903;-0,00512498
1893,7545;-0,00496317
1894,7188;-0,00477607
1895,6830;-0,00460114
1896,6472;-0,0044766
1897,6115;-0,00443852
1898,5757;-0,00451352
1899,5399;-0,00470733
1900,5042;-0,00499347
1901,4684;-0,00530987
1902,4326;-0,00557279
1903,3969;-0,00570741
1904,3611;-0,00567935
1905,3253;-0,00550654
1906,2896;-0,0052468
1907,2538;-0,00497267
1908,2180;-0,0047471
1909,1823;-0,00460666
1910,1465;-0,00455525
1911,1107;-0,00457038
1912,0750;-0,00461923
1913,0392;-0,00467547
1914,0034;-0,0047296
1914,9677;-0,00479148
1915,9319;-0,00488577
1916,8961;-0,00503799
1917,8604;-0,00525345
1918,8246;-0,00550325
1919,7888;-0,00573148
1920,7531;-0,0058783
1921,7173;-0,00590215
1922,6815;-0,00579398
1923,6458;-0,00558251
1924,6100;-0,00532585
1925,5742;-0,0050892
1926,5385;-0,00492158
1927,5027;-0,00484657
1928,4669;-0,00486756
1929,4312;-0,00497824
1930,3954;-0,00516944
1931,3596;-0,00542919
1932,3239;-0,00573749
1933,2881;-0,00605957
1934,2523;-0,0063437
1935,2166;-0,00652857
1936,1808;-0,00655982
1937,1450;-0,00640742
1938,1093;-0,00607449
1939,0735;-0,00559759
1940,0377;-0,00504627
1941,0020;-0,00452358
1941,9662;-0,00415508
1942,9304;-0,00405367
1943,8947;-0,00427466
1944,8589;-0,00479608
1945,8231;-0,00553607
1946,7874;-0,00638173
1947,7516;-0,00720526
1948,7158;-0,0078696
1949,6801;-0,0082403
1950,6443;-0,00821358
1951,6085;-0,0077544
1952,5728;-0,00692777
1953,5370;-0,00590495
1954,5012;-0,00493195
1955,4655;-0,0042614
1956,4297;-0,00407029
1957,3939;-0,00440039
1958,3582;-0,00515025
1959,3224;-0,00612262
1960,2866;-0,00710567
1961,2509;-0,00794707
1962,2151;-0,00857908
1963,1793;-0,00898395
1964,1436;-0,00913487
1965,1078;-0,00896643
1966,0720;-0,00840728
1967,0363;-0,00746207
1968,0005;-0,00628184
1968,9647;-0,00515589
1969,9290;-0,00441706
1970,8932;-0,00431873
1971,8574;-0,00494664
1972,8217;-0,00618901
1973,7859;-0,00776241
1974,7501;-0,00928585
1975,7144;-0,0103898
1976,6786;-0,0108306
1977,6428;-0,0105622
1978,6071;-0,00972482
1979,5713;-0,00855939
1980,5355;-0,00730938
1981,4998;-0,0061671
1982,4640;-0,00526902
1983,4282;-0,00470713
1984,3925;-0,00452736
1985,3567;-0,00471343
1986,3209;-0,00517713
1987,2852;-0,00577489
1988,2494;-0,00634946
1989,2136;-0,00677693
1990,1779;-0,00699868
1991,1421;-0,00702642
1992,1063;-0,00691941
1993,0706;-0,00674597
1994,0348;-0,00655248
1994,9990;-0,006357
1995,9633;-0,00616351
1996,9275;-0,00597998
1997,8917;-0,00582649
1998,8560;-0,00573005
1999,8202;-0,00571137
2000,7844;-0,00577299
2001,7487;-0,00589627
2002,7129;-0,00604872
2003,6771;-0,00619869
2004,6414;-0,00633295
2005,6056;-0,00646997
2006,5698;-0,00665659
2007,5341;-0,00693897
2008,4983;-0,00731611
2009,4625;-0,00770638
2010,4268;-0,00795633
2011,3910;-0,00789481
2012,3552;-0,00740774
2013,3195;-0,00649997
2014,2837;-0,00531881
2015,2479;-0,00412582
2016,2122;-0,00322
2017,1764;-0,00283911
2018,1406;-0,00308543
2019,1049;-0,00390967
2020,0691;-0,00514442
2021,0333;-0,00655101
2021,9976;-0,00785727
2022,9618;-0,00879344
2023,9260;-0,00914267
2024,8903;-0,00880304
2025,8545;-0,0078329
2026,8187;-0,0064479
2027,7830;-0,00496189
2028,7472;-0,00369584
2029,7114;-0,00289341
2030,6757;-0,00267045
2031,6399;-0,00300307
2032,6041;-0,00374511
2033,5684;-0,0046667
2034,5326;-0,00551212
2035,4968;-0,00606943
2036,4611;-0,00623027
2037,4253;-0,00601473
2038,3895;-0,00555166
2039,3538;-0,00502381
2040,3180;-0,0045972
2041,2822;-0,00435958
2042,2465;-0,00429513
2043,2107;-0,00431005
2044,1749;-0,00429547
2045,1392;-0,00419158
2046,1034;-0,00401913
2047,0676;-0,00386316
2048,0320;-0,00381807
2048,9961;-0,00392853
2049,9604;-0,00416659
2050,9246;-0,00445432
2051,8889;-0,00470544
2052,8530;-0,0048557
2053,8174;-0,00487225
2054,7815;-0,00474889
2055,7458;-0,00449721
2056,7100;-0,00414121
2057,6743;-0,00371711
2058,6384;-0,003275
2059,6028;-0,0028767
2060,5669;-0,00258685
2061,5313;-0,0024595
2062,4954;-0,00252481
2063,4597;-0,00278037
2064,4238;-0,00318809
2065,3882;-0,00367705
2066,3523;-0,00415317
2067,3167;-0,00451681
2068,2808;-0,00468641
2069,2451;-0,004622
2070,2092;-0,00433949
2071,1736;-0,00390804
2072,1377;-0,00342873
2073,1021;-0,00300277
2074,0662;-0,00270416
2075,0305;-0,00256834
2075,9946;-0,00259658
2076,9590;-0,00276634
2077,9231;-0,0030386
2078,8875;-0,00336101
2079,8516;-0,00367209
2080,8159;-0,00391122
2081,7800;-0,00403274
2082,7444;-0,00401741
2083,7085;-0,00387525
2084,6729;-0,00363966
2085,6370;-0,00335763
2086,6013;-0,00308113
2087,5654;-0,00286019
2088,5298;-0,00273474
2089,4939;-0,00272462
2090,4583;-0,002822
2091,4224;-0,00299293
2092,3867;-0,00318981
2093,3508;-0,00336906
2094,3152;-0,00350416
2095,2793;-0,00358753
2096,2437;-0,00362267
2097,2078;-0,00361533
2098,1721;-0,00357146
2099,1362;-0,00350142
2100,1006;-0,00342225
2101,0647;-0,00335204
2102,0291;-0,00329835
2102,9932;-0,00325161
2103,9575;-0,0031904
2104,9216;-0,00309665
2105,8860;-0,00296958
2106,8501;-0,00282774
2107,8145;-0,00269882
2108,7786;-0,00260648
2109,7429;-0,00256491
2110,7070;-0,00258271
2111,6714;-0,00266827
2112,6355;-0,00282741
2113,5999;-0,00305235
2114,5640;-0,00331069
2115,5283;-0,00354535
2116,4924;-0,00368912
2117,4568;-0,00368745
2118,4209;-0,0035185
2119,3853;-0,00320206
2120,3494;-0,00279596
2121,3137;-0,00238337
2122,2778;-0,00205594
2123,2422;-0,0018959
2124,2063;-0,00195924
2125,1707;-0,00226201
2126,1348;-0,00277369
2127,0991;-0,00342021
2128,0632;-0,00409668
2129,0276;-0,00468535
2129,9917;-0,00507418
2130,9561;-0,00517429
2131,9202;-0,00493826
2132,8845;-0,00438081
2133,8486;-0,00359562
2134,8130;-0,00275438
2135,7771;-0,00207493
2136,7415;-0,0017617
2137,7056;-0,00194144
2138,6699;-0,00262127
2139,6340;-0,00368287
2140,5984;-0,00491015
2141,5625;-0,00603899
2142,5269;-0,00681592
2143,4910;-0,00705329
2144,4553;-0,00667149
2145,4194;-0,00572261
2146,3838;-0,00438963
2147,3479;-0,00295448
2148,3123;-0,00173423
2149,2764;-0,000999752
2150,2407;-0,000904693
2151,2048;-0,00145103
2152,1692;-0,00250116
2153,1333;-0,00382403
2154,0977;-0,00514884
2155,0618;-0,00620614
2156,0261;-0,00676294
2156,9902;-0,00668178
2157,9546;-0,00601041
2158,9187;-0,00502918
2159,8831;-0,00414753
2160,8472;-0,00367555
2161,8115;-0,00365653
2162,7756;-0,00388645
2163,7400;-0,00407019
2164,7041;-0,00399881
2165,6685;-0,00365926
2166,6326;-0,00322901
2167,5969;-0,00296448
2168,5610;-0,00305553
2169,5254;-0,00353491
2170,4895;-0,00428153
2171,4539;-0,00509159
2172,4180;-0,00576288
2173,3823;-0,00615026
2174,3464;-0,00618068
2175,3108;-0,00584211
2176,2749;-0,00517019
2177,2393;-0,00424727
2178,2034;-0,0032116
2179,1677;-0,0022598
2180,1318;-0,00162121
2181,0962;-0,00149331
2182,0603;-0,00195431
2183,0247;-0,00290136
2183,9888;-0,00406553
2184,9531;-0,00510963
2185,9172;-0,00575701
2186,8816;-0,00588206
2187,8457;-0,00552373
2188,8101;-0,00483103
2189,7742;-0,00398394
2190,7385;-0,00313852
2191,7026;-0,00241855
2192,6670;-0,00193476
2193,6311;-0,00179078
2194,5955;-0,00205219
2195,5596;-0,00269567
2196,5239;-0,00358284
2197,4880;-0,00449165
2198,4524;-0,00519613
2199,4165;-0,00554914
2200,3809;-0,00552115
2201,3450;-0,00518161
2202,3093;-0,00464871
2203,2734;-0,00404723
2204,2378;-0,00349432
2205,2019;-0,00310056
2206,1663;-0,00295944
2207,1304;-0,00311358
2208,0947;-0,00351691
2209,0588;-0,00402808
2210,0232;-0,00445519
2210,9873;-0,00463652
2211,9517;-0,00451341
2212,9158;-0,00415339
2213,8801;-0,00371107
2214,8442;-0,00335175
2215,8086;-0,00318118
2216,7727;-0,00321563
2217,7371;-0,00339781
2218,7012;-0,00363848
2219,6655;-0,00385623
2220,6296;-0,00399937
2221,5940;-0,00404964
2222,5581;-0,00401594
2223,5225;-0,00392459
2224,4866;-0,00380789
2225,4509;-0,00369226
2226,4150;-0,00359041
2227,3794;-0,00350347
2228,3435;-0,00343153
2229,3079;-0,00338594
2230,2720;-0,00338994
2231,2363;-0,00346357
2232,2004;-0,0036022
2233,1648;-0,00376614
2234,1289;-0,00389301
2235,0933;-0,00392804
2236,0574;-0,00385319
2237,0217;-0,00369567
2237,9858;-0,00351059
2238,9502;-0,00335065
2239,9143;-0,00324324
2240,8787;-0,0031878
2241,8428;-0,00317027
2242,8071;-0,00317995
2243,7712;-0,00321548
2244,7356;-0,00327804
2245,6997;-0,00336125
2246,6641;-0,00344877
2247,6282;-0,00352253
2248,5925;-0,00357453
2249,5566;-0,0036117
2250,5210;-0,00364927
2251,4851;-0,00369756
2252,4495;-0,00375214
2253,4136;-0,00379484
2254,3779;-0,00380452
2255,3420;-0,00376988
2256,3064;-0,0036956
2257,2705;-0,00359918
2258,2349;-0,00350222
2259,1990;-0,00342267
2260,1633;-0,00337126
2261,1274;-0,00335109
2262,0918;-0,00335786
2263,0559;-0,00337979
2264,0203;-0,0033989
2264,9844;-0,00339584
2265,9487;-0,00335719
2266,9128;-0,00328158
2267,8772;-0,00317984
2268,8413;-0,0030688
2269,8057;-0,00296236
2270,7698;-0,00286631
2271,7341;-0,00278036
2272,6982;-0,00270573
2273,6626;-0,00265227
2274,6267;-0,00263867
2275,5911;-0,0026843
2276,5552;-0,00279646
2277,5195;-0,00296088
2278,4836;-0,00314145
2279,4480;-0,00329028
2280,4121;-0,00336346
2281,3765;-0,00333527
2282,3406;-0,00320538
2283,3049;-0,00299781
2284,2690;-0,00275348
2285,2334;-0,00251957
2286,1975;-0,00233808
2287,1619;-0,0022357
2288,1260;-0,00221727
2289,0903;-0,00226536
2290,0544;-0,00234625
2291,0188;-0,00242064
2291,9829;-0,00245466
2292,9473;-0,00242756
2293,9114;-0,00233454
2294,8757;-0,00218595
2295,8398;-0,00200445
2296,8042;-0,00182149
2297,7683;-0,00167178
2298,7327;-0,00158522
2299,6968;-0,0015769
2300,6611;-0,00163949
2301,6252;-0,00174296
2302,5896;-0,00184389
2303,5537;-0,00190079
2304,5181;-0,00188932
2305,4822;-0,00181121
2306,4465;-0,0016936
2307,4106;-0,00157949
2308,3750;-0,00151288
2309,3391;-0,00152404
2310,3035;-0,00161976
2311,2676;-0,00178139
2312,2319;-0,00197112
2313,1960;-0,00214432
2314,1604;-0,0022629
2315,1245;-0,00230427
2316,0889;-0,00226305
2317,0530;-0,00214808
2318,0173;-0,00197902
2318,9814;-0,00178511
2319,9458;-0,00160315
2320,9099;-0,00146966
2321,8743;-0,00140771
2322,8384;-0,0014188
2323,8027;-0,00148948
2324,7668;-0,00160556
2325,7312;-0,00175823
2326,6953;-0,00193669
2327,6597;-0,00211704
2328,6238;-0,00225972
2329,5881;-0,00232075
2330,5522;-0,00227242
2331,5166;-0,00212185
2332,4807;-0,00191532
2333,4451;-0,00172445
2334,4092;-0,00162029
2335,3735;-0,00164619
2336,3376;-0,00179934
2337,3020;-0,00202825
2338,2661;-0,00225215
2339,2305;-0,00239973
2340,1946;-0,0024486
2341,1589;-0,0024385
2342,1230;-0,00244073
2343,0874;-0,00248386
2344,0515;-0,00248386
2345,0159;-0,00228539
2345,9800;-0,00181953
2346,9443;-0,00119386
2347,9084;-0,000619512
2348,8728;-0,000282343
2349,8369;-0,000260682
2350,8013;-0,000503327
2351,7654;-0,000853691
2352,7297;-0,00111561
2353,6938;-0,0011458
2354,6582;-0,000922266
2355,6223;-0,000541609
2356,5867;-0,000162497
2357,5508;5,60599E-05
2358,5151;5,96706E-06
2359,4792;-0,00033056
2360,4436;-0,000877197
2361,4077;-0,00150945
2362,3721;-0,00211473
2363,3362;-0,00262148
2364,3005;-0,0029964
2365,2646;-0,00323652
2366,2290;-0,00336804
2367,1931;-0,00344251
2368,1575;-0,00352028
2369,1216;-0,00364616
2370,0859;-0,00383116
2371,0500;-0,00404991
2372,0144;-0,00425289
2372,9785;-0,00438547
2373,9429;-0,00440597
2374,9070;-0,00429792
2375,8713;-0,00407338
2376,8354;-0,00376699
2377,7998;-0,00342335
2378,7639;-0,00308445
2379,7283;-0,00278278
2380,6924;-0,00254125
2381,6567;-0,00237631
2382,6208;-0,00229855
2383,5852;-0,00230876
2384,5493;-0,00239204
2385,5137;-0,00251586
2386,4778;-0,00263654
2387,4421;-0,00271374
2388,4063;-0,00272638
2389,3706;-0,00268119
2390,3347;-0,00260811
2391,2991;-0,00254468
2392,2632;-0,00251811
2393,2275;-0,00253467
2394,1917;-0,00258073
2395,1560;-0,00263203
2396,1201;-0,00266438
2397,0845;-0,00266065
2398,0486;-0,0026129
2399,0129;-0,00252459
2399,9771;-0,00241052
2400,9414;-0,00229465
2401,9055;-0,00220463
2402,8699;-0,0021615
2403,8340;-0,00217062
2404,7983;-0,00221828
2405,7625;-0,00227692
2406,7268;-0,00231656
2407,6909;-0,00231563
2408,6553;-0,00226684
2409,6194;-0,00217713
2410,5837;-0,00206302
2411,5479;-0,00194603
2412,5122;-0,00184831
2413,4763;-0,00178844
2414,4407;-0,00177668
2415,4048;-0,00181158
2416,3691;-0,00187998
2417,3333;-0,0019614
2418,2976;-0,00203475
2419,2617;-0,00208368
2420,2261;-0,00209852
2421,1902;-0,00207525
2422,1545;-0,00201391
2423,1187;-0,00191956
2424,0830;-0,0018046
2425,0471;-0,00168945
2426,0115;-0,00159847
2426,9756;-0,00155134
2427,9399;-0,00155404
2428,9041;-0,00159458
2429,8684;-0,00164691
2430,8325;-0,0016811
2431,7969;-0,00167492
2432,7610;-0,00162109
2433,7253;-0,00152769
2434,6895;-0,00141298
2435,6538;-0,00129847
2436,6179;-0,00120366
2437,5823;-0,00114336
2438,5464;-0,0011265
2439,5107;-0,00115453
2440,4749;-0,00121909
2441,4392;-0,00130083
2442,4033;-0,00137197
2443,3677;-0,00140372
2444,3318;-0,00137674
2445,2961;-0,00128982
2446,2603;-0,0011621
2447,2246;-0,00102672
2448,1887;-0,000918536
2449,1531;-0,000861422
2450,1172;-0,00086084
2451,0815;-0,000904311
2452,0457;-0,000968164
2453,0100;-0,00102658
2453,9741;-0,00105907
2454,9385;-0,00105461
2455,9026;-0,00101252
2456,8669;-0,000940946
2457,8311;-0,000853654
2458,7954;-0,000765687
2459,7595;-0,000689191
2460,7239;-0,000631106
2461,6880;-0,000593755
2462,6523;-0,000577538
2463,6165;-0,000583191
2464,5808;-0,000611196
2465,5449;-0,000658198
2466,5093;-0,000713155
2467,4734;-0,000757038
2468,4377;-0,000768085
2469,4019;-0,00073097
2470,3662;-0,000645326
2471,3303;-0,000528799
2472,2947;-0,000412426
2473,2588;-0,000329868
2474,2231;-0,000304883
2475,1873;-0,000342195
2476,1516;-0,000425468
2477,1157;-0,000523342
2478,0801;-0,000601223
2479,0442;-0,000634042
2480,0085;-0,000614607
2480,9727;-0,000553994
2481,9370;-0,000474331
2482,9011;-0,000398072
2483,8655;-0,000339452
2484,8296;-0,000301954
2485,7939;-0,000281616
2486,7581;-0,000272613
2487,7224;-0,000270972
2488,6865;-0,000274655
2489,6509;-0,000281398
2490,6150;-0,000287188
2491,5793;-0,000287089
2492,5435;-0,000277626
2493,5078;-0,000258338
2494,4719;-0,00023088
2495,4363;-0,000196302
2496,4004;-0,000153048
2497,3647;-9,79069E-05
2498,3289;-2,98966E-05
2499,2932;4,55826E-05
2500,2573;0,000115694
2501,2217;0,000163816
2502,1858;0,000176337
2503,1501;0,000148781
2504,1143;8,78555E-05
2505,0786;8,70435E-06
2506,0427;-7,0289E-05
2507,0071;-0,000131746
2507,9712;-0,000160812
2508,9355;-0,000145083
2509,8997;-7,57196E-05
2510,8640;4,85524E-05
2511,8281;0,000216002
2512,7925;0,000399132
2513,7566;0,000558515
2514,7209;0,000653716
2515,6851;0,000657265
2516,6494;0,00056518
2517,6135;0,00039898
2518,5779;0,000198663
2519,5420;1,06024E-05
2520,5063;-0,000124135
2521,4705;-0,00017755
2522,4348;-0,000138517
2523,3989;-1,45397E-05
2524,3633;0,000167682
2525,3274;0,00036469
2526,2917;0,000524676
2527,2559;0,000602393
2528,2202;0,000575988
2529,1843;0,0004574
2530,1487;0,000289359
2531,1128;0,000128809
2532,0771;2,44782E-05
2533,0413;-2,9506E-07
2534,0056;4,79524E-05
2534,9697;0,00014064
2535,9341;0,000240641
2536,8982;0,000314197
2537,8625;0,000338284
2538,8267;0,000304821
2539,7910;0,000223574
2540,7551;0,000122337
2541,7195;4,06126E-05
2542,6836;1,53789E-05
2543,6479;6,39622E-05
2544,6121;0,000173818
2545,5764;0,000307017
2546,5405;0,000418394
2547,5049;0,00047693
2548,4690;0,0004775
2549,4333;0,000437036
2550,3975;0,000380093
2551,3618;0,000325286
2552,3259;0,000281409
2553,2903;0,000252997
2554,2544;0,000247531
2555,2188;0,000276217
2556,1829;0,000346853
2557,1472;0,000454665
2558,1113;0,000578982
2559,0757;0,000689191
2560,0398;0,000756605
2561,0042;0,000765245
2561,9683;0,000716252
2562,9326;0,000625572
2563,8967;0,00051821
2564,8611;0,000422393
2565,8252;0,000364471
2566,7896;0,00036347
2567,7537;0,000424929
2568,7180;0,000536286
2569,6821;0,000667743
2570,6465;0,000781045
2571,6106;0,000844145
2572,5750;0,000845207
2573,5391;0,00079826
2574,5034;0,000736567
2575,4675;0,000696567
2576,4319;0,000700918
2577,3960;0,000749765
2578,3604;0,000824272
2579,3245;0,000898849
2580,2888;0,000953703
2581,2529;0,000980465
2582,2173;0,0009797
2583,1814;0,00095506
2584,1458;0,000910268
2585,1099;0,00085112
2586,0742;0,000789245
2587,0383;0,000742252
2588,0027;0,00072805
2588,9668;0,000756474
2589,9312;0,000824119
2590,8953;0,000915937
2591,8596;0,00101206
2592,8237;0,00109483
2593,7881;0,00115221
2594,7522;0,00117777
2595,7166;0,00117031
2596,6807;0,0011353
2597,6450;0,00108655
2598,6091;0,00104476
2599,5735;0,00103102
2600,5376;0,00105797
2601,5020;0,00112403
2602,4661;0,00121439
2603,4304;0,00130826
2604,3945;0,00138733
2605,3589;0,00144112
2606,3230;0,00146743
2607,2874;0,00147027
2608,2515;0,00145798
2609,2158;0,00144246
2610,1799;0,00143806
2611,1443;0,00145851
2612,1084;0,00151216
2613,0728;0,00159798
2614,0369;0,00170466
2615,0012;0,00181357
2615,9653;0,00190428
2616,9297;0,00196033
2617,8938;0,00197392
2618,8582;0,00194846
2619,8223;0,00189847
2620,7866;0,00184624
2621,7507;0,00181525
2622,7151;0,00182232
2623,6792;0,00187161
2624,6436;0,00195359
2625,6077;0,00204963
2626,5720;0,00213968
2627,5361;0,00220937
2628,5005;0,00225335
2629,4646;0,00227456
2630,4290;0,00228117
2631,3931;0,00228351
2632,3574;0,00229173
2633,3215;0,00231412
2634,2859;0,00235507
2635,2500;0,00241338
2636,2144;0,00248208
2637,1785;0,00255073
2638,1428;0,00260959
2639,1069;0,00265353
2640,0713;0,00268325
2641,0354;0,00270326
2641,9998;0,00271814
2642,9639;0,00272985
2643,9282;0,00273793
2644,8923;0,0027422
2645,8567;0,00274566
2646,8208;0,00275489
2647,7852;0,00277739
2648,7493;0,00281731
2649,7136;0,00287234
2650,6777;0,00293401
2651,6421;0,0029912
2652,6062;0,00303508
2653,5706;0,00306286
2654,5347;0,00307855
2655,4990;0,00309084
2656,4631;0,00310924
2657,4275;0,00314023
2658,3916;0,00318492
2659,3560;0,00323879
2660,3201;0,00329373
2661,2844;0,00334155
2662,2485;0,00337744
2663,2129;0,00340187
2664,1770;0,00341976
2665,1414;0,0034372
2666,1055;0,00345773
2667,0698;0,00348045
2668,0339;0,00350159
2668,9983;0,0035186
2669,9624;0,00353393
2670,9268;0,00355543
2671,8909;0,00359241
2672,8552;0,00364926
2673,8193;0,00372081
2674,7837;0,0037929
2675,7478;0,00384869
2676,7122;0,00387738
2677,6763;0,00388061
2678,6406;0,00387234
2679,6047;0,00387225
2680,5691;0,00389597
2681,5332;0,00394762
2682,4976;0,00401869
2683,4617;0,00409345
2684,4260;0,00415755
2685,3901;0,00420479
2686,3545;0,00423841
2687,3186;0,00426716
2688,2830;0,00429893
2689,2471;0,00433631
2690,2114;0,0043764
2691,1755;0,00441431
2692,1399;0,00444759
2693,1040;0,00447867
2694,0684;0,00451367
2695,0325;0,00455896
2695,9968;0,0046172
2696,9609;0,00468543
2697,9253;0,00475591
2698,8894;0,00481922
2699,8538;0,00486832
2700,8179;0,00490152
2701,7822;0,00492319
2702,7463;0,00494176
2703,7107;0,00496597
2704,6748;0,0050013
2705,6392;0,0050483
2706,6033;0,00510351
2707,5676;0,00516191
2708,5317;0,00521912
2709,4961;0,00527241
2710,4602;0,00532031
2711,4246;0,00536241
2712,3887;0,00539961
2713,3530;0,00543477
2714,3171;0,00547241
2715,2815;0,005517
2716,2456;0,0055707
2717,2100;0,00563204
2718,1741;0,00569668
2719,1384;0,00575952
2720,1025;0,00581647
2721,0669;0,0058648
2722,0310;0,00590246
2722,9954;0,00592796
2723,9595;0,00594166
2724,9238;0,00594759
2725,8879;0,00595398
2726,8523;0,00597093
2727,8164;0,00600626
2728,7808;0,00606176
2729,7449;0,0061324
2730,7092;0,00620863
2731,6733;0,0062802
2732,6377;0,00633918
2733,6018;0,00638113
2734,5662;0,00640485
2735,5303;0,00641194
2736,4946;0,00640676
2737,4587;0,00639631
2738,4231;0,00638933
2739,3872;0,00639436
2740,3516;0,00641725
2741,3157;0,00645932
2742,2800;0,00651681
2743,2441;0,00658175
2744,2085;0,00664407
2745,1726;0,00669436
2746,1370;0,00672685
2747,1011;0,00674164
2748,0654;0,00674507
2749,0295;0,00674786
2749,9939;0,00676118
2750,9580;0,00679227
2751,9224;0,00684167
2752,8865;0,00690324
2753,8508;0,00696708
2754,8149;0,00702387
2755,7793;0,00706862
2756,7434;0,00710228
2757,7078;0,0071307
2758,6719;0,00716151
2759,6362;0,00720059
2760,6003;0,00724934
2761,5647;0,00730431
2762,5288;0,00735907
2763,4932;0,00740777
2764,4573;0,00744872
2765,4216;0,00748593
2766,3857;0,00752759
2767,3501;0,00758158
2768,3142;0,00765026
2769,2786;0,00772765
2770,2427;0,00780141
2771,2070;0,00785901
2772,1711;0,00789506
2773,1355;0,00791522
2774,0996;0,00793381
2775,0640;0,00796624
2776,0281;0,00802082
2776,9924;0,00809518
2777,9565;0,00817955
2778,9209;0,00826429
2779,8850;0,00834643
2780,8494;0,00843052
2781,8135;0,00852346
2782,7778;0,00862715
2783,7419;0,00873433
2784,7063;0,00883076
2785,6704;0,00890266
2786,6348;0,00894477
2787,5989;0,00896439
2788,5632;0,00897907
2789,5273;0,00900925
2790,4917;0,00906995
2791,4558;0,00916516
2792,4202;0,00928755
2793,3843;0,00942268
2794,3486;0,00955542
2795,3127;0,00967541
2796,2771;0,00977978
2797,2412;0,00987245
2798,2056;0,00996144
2799,1697;0,0100554
2800,1340;0,0101612
2801,0981;0,0102825
2802,0625;0,0104196
2803,0266;0,0105703
2803,9910;0,0107299
2804,9551;0,0108923
2805,9194;0,0110511
2806,8835;0,0112003
2807,8479;0,0113371
2808,8120;0,0114623
2809,7764;0,0115821
2810,7405;0,0117062
2811,7048;0,0118448
2812,6689;0,012005
2813,6333;0,0121867
2814,5974;0,012383
2815,5618;0,012583
2816,5259;0,0127779
2817,4902;0,0129652
2818,4543;0,0131494
2819,4187;0,0133386
2820,3828;0,0135392
2821,3472;0,0137528
2822,3113;0,0139766
2823,2756;0,0142082
2824,2397;0,0144487
2825,2041;0,0147032
2826,1682;0,014978
2827,1326;0,0152755
2828,0967;0,0155926
2829,0610;0,0159221
2830,0251;0,0162578
2830,9895;0,0165973
2831,9536;0,0169434
2832,9180;0,0173016
2833,8821;0,0176772
2834,8464;0,0180751
2835,8105;0,0185008
2836,7749;0,0189627
2837,7390;0,0194721
2838,7034;0,0200406
2839,6675;0,0206781
2840,6318;0,0213924
2841,5959;0,0221895
2842,5603;0,0230741
2843,5244;0,0240451
2844,4888;0,0250876
2845,4529;0,0261638
2846,4172;0,0272114
2847,3813;0,0281523
2848,3457;0,0289121
2849,3098;0,0294417
2850,2742;0,0297316
2851,2383;0,0298105
2852,2026;0,029731
2853,1667;0,0295491
2854,1311;0,0293096
2855,0952;0,0290409
2856,0596;0,0287613
2857,0237;0,0284876
2857,9880;0,0282409
2858,9521;0,0280447
2859,9165;0,0279175
2860,8806;0,0278664
2861,8450;0,0278861
2862,8091;0,0279632
2863,7734;0,0280846
2864,7375;0,0282417
2865,7019;0,0284308
2866,6660;0,0286476
2867,6304;0,0288821
2868,5945;0,0291169
2869,5588;0,0293318
2870,5229;0,0295104
2871,4873;0,029647
2872,4514;0,029749
2873,4158;0,0298341
2874,3799;0,0299234
2875,3442;0,0300341
2876,3083;0,0301737
2877,2727;0,030339
2878,2368;0,0305191
2879,2012;0,0307012
2880,1653;0,0308761
2881,1296;0,0310419
2882,0938;0,0312032
2883,0581;0,0313666
2884,0222;0,0315365
2884,9866;0,0317133
2885,9507;0,0318947
2886,9150;0,0320796
2887,8792;0,0322706
2888,8435;0,0324721
2889,8076;0,0326862
2890,7720;0,0329088
2891,7361;0,0331301
2892,7004;0,0333391
2893,6646;0,0335297
2894,6289;0,0337045
2895,5930;0,033873
2896,5574;0,0340461
2897,5215;0,0342301
2898,4858;0,0344245
2899,4500;0,0346233
2900,4143;0,0348196
2901,3784;0,0350094
2902,3428;0,0351939
2903,3069;0,0353795
2904,2712;0,0355772
2905,2354;0,0358013
2906,1997;0,0360687
2907,1638;0,0363965
2908,1282;0,0367995
2909,0923;0,0372871
2910,0566;0,0378604
2911,0208;0,0385097
2911,9851;0,0392119
2912,9492;0,0399291
2913,9136;0,0406112
2914,8777;0,0412019
2915,8420;0,0416508
2916,8062;0,0419246
2917,7705;0,0420151
2918,7346;0,0419383
2919,6990;0,0417256
2920,6631;0,041411
2921,6274;0,0410221
2922,5916;0,0405762
2923,5559;0,0400833
2924,5200;0,0395508
2925,4844;0,0389868
2926,4485;0,0384001
2927,4128;0,0377989
2928,3770;0,03719
2929,3413;0,0365793
2930,3054;0,0359731
2931,2698;0,035378
2932,2339;0,0347993
2933,1982;0,0342391
2934,1624;0,0336959
2935,1267;0,0331662
2936,0908;0,0326463
2937,0552;0,0321337
2938,0193;0,0316268
2938,9836;0,0311233
2939,9478;0,0306202
2940,9121;0,0301151
2941,8762;0,0296093
2942,8406;0,0291093
2943,8047;0,0286265
2944,7690;0,0281732
2945,7332;0,0277586
2946,6975;0,0273844
2947,6616;0,0270452
2948,6260;0,02673
2949,5901;0,0264271
2950,5544;0,0261272
2951,5186;0,0258251
2952,4829;0,0255193
2953,4470;0,0252104
2954,4114;0,0248988
2955,3755;0,0245851
2956,3398;0,0242694
2957,3040;0,0239525
2958,2683;0,0236349
2959,2324;0,0233166
2960,1968;0,0229963
2961,1609;0,0226722
2962,1252;0,0223429
2963,0894;0,0220087
2964,0537;0,0216719
2965,0178;0,0213362
2965,9822;0,0210045
2966,9463;0,020679
2967,9106;0,0203606
2968,8748;0,02005
2969,8391;0,0197484
2970,8032;0,0194579
2971,7676;0,0191804
2972,7317;0,0189171
2973,6960;0,0186682
2974,6602;0,0184326
2975,6245;0,018209
2976,5886;0,0179957
2977,5530;0,0177913
2978,5171;0,017594
2979,4814;0,0174015
2980,4456;0,017212
2981,4099;0,0170257
2982,3740;0,0168465
2983,3384;0,0166829
2984,3025;0,0165454
2985,2668;0,0164414
2986,2310;0,0163704
2987,1953;0,0163216
2988,1594;0,0162785
2989,1238;0,0162269
2990,0879;0,016162
2991,0522;0,0160906
2992,0164;0,0160257
2992,9807;0,0159782
2993,9448;0,0159508
2994,9092;0,015939
2995,8733;0,0159371
2996,8376;0,0159444
2997,8018;0,0159655
2998,7661;0,0160054
2999,7302;0,0160639
3000,6946;0,0161334
3001,6587;0,0162041
3002,6230;0,01627
3003,5872;0,0163333
3004,5515;0,0164013
3005,5156;0,0164791
3006,4800;0,016564
3007,4441;0,0166453
3008,4084;0,0167108
3009,3726;0,0167544
3010,3369;0,0167801
3011,3010;0,0167999
3012,2654;0,0168271
3013,2295;0,0168696
3014,1938;0,0169277
3015,1580;0,0169965
3016,1223;0,0170703
3017,0864;0,0171455
3018,0508;0,0172215
3019,0149;0,0172987
3019,9792;0,0173779
3020,9434;0,0174593
3021,9077;0,0175443
3022,8718;0,0176354
3023,8362;0,0177364
3024,8003;0,017851
3025,7646;0,0179807
3026,7288;0,0181235
3027,6931;0,0182731
3028,6572;0,0184203
3029,6216;0,0185558
3030,5857;0,0186735
3031,5500;0,0187734
3032,5142;0,0188633
3033,4785;0,0189563
3034,4426;0,0190657
3035,4070;0,0191995
3036,3711;0,0193572
3037,3354;0,0195302
3038,2996;0,0197059
3039,2639;0,0198735
3040,2280;0,0200285
3041,1924;0,0201738
3042,1565;0,0203176
3043,1208;0,0204679
3044,0850;0,0206286
3045,0493;0,0207978
3046,0134;0,0209701
3046,9778;0,0211408
3047,9419;0,0213088
3048,9063;0,0214774
3049,8704;0,0216511
3050,8347;0,0218316
3051,7988;0,0220159
3052,7632;0,0221985
3053,7273;0,0223749
3054,6917;0,0225449
3055,6558;0,0227131
3056,6201;0,0228854
3057,5842;0,023066
3058,5486;0,0232555
3059,5127;0,0234526
3060,4771;0,0236555
3061,4412;0,0238627
3062,4055;0,0240713
3063,3696;0,0242757
3064,3340;0,0244683
3065,2981;0,0246442
3066,2625;0,0248055
3067,2266;0,0249631
3068,1909;0,025132
3069,1550;0,0253238
3070,1194;0,0255412
3071,0835;0,0257763
3072,0479;0,0260154
3073,0120;0,0262459
3073,9763;0,0264603
3074,9404;0,0266572
3075,9048;0,0268386
3076,8689;0,0270071
3077,8333;0,0271656
3078,7974;0,027319
3079,7617;0,027476
3080,7258;0,0276467
3081,6902;0,0278386
3082,6543;0,0280518
3083,6187;0,0282774
3084,5828;0,0285019
3085,5471;0,0287142
3086,5112;0,0289113
3087,4756;0,0290988
3088,4397;0,0292869
3089,4041;0,0294832
3090,3682;0,0296891
3091,3325;0,0299009
3092,2966;0,0301141
3093,2610;0,0303273
3094,2251;0,0305429
3095,1895;0,0307635
3096,1536;0,030989
3097,1179;0,0312153
3098,0820;0,0314373
3099,0464;0,0316528
3100,0105;0,0318648
3100,9749;0,0320799
3101,9390;0,0323039
3102,9033;0,032538
3103,8674;0,0327777
3104,8318;0,0330153
3105,7959;0,0332454
3106,7603;0,0334682
3107,7244;0,0336902
3108,6887;0,0339214
3109,6528;0,0341699
3110,6172;0,0344369
3111,5813;0,0347153
3112,5457;0,0349921
3113,5098;0,035254
3114,4741;0,0354928
3115,4382;0,0357083
3116,4026;0,0359083
3117,3667;0,0361039
3118,3311;0,0363055
3119,2952;0,0365193
3120,2595;0,0367468
3121,2236;0,0369852
3122,1880;0,0372293
3123,1521;0,0374743
3124,1165;0,0377175
3125,0806;0,0379593
3126,0449;0,0382027
3127,0090;0,038451
3127,9734;0,0387053
3128,9375;0,0389637
3129,9019;0,0392229
3130,8660;0,0394808
3131,8303;0,0397383
3132,7944;0,0399983
3133,7588;0,0402627
3134,7229;0,0405295
3135,6873;0,0407926
3136,6514;0,0410455
3137,6157;0,0412852
3138,5798;0,0415149
3139,5442;0,0417429
3140,5083;0,0419792
3141,4727;0,0422305
3142,4368;0,0424989
3143,4011;0,0427812
3144,3652;0,0430712
3145,3296;0,0433613
3146,2937;0,0436446
3147,2581;0,0439156
3148,2222;0,0441718
3149,1865;0,0444147
3150,1506;0,0446502
3151,1150;0,0448873
3152,0791;0,0451349
3153,0435;0,0453986
3154,0076;0,0456788
3154,9719;0,0459701
3155,9360;0,0462642
3156,9004;0,0465527
3157,8645;0,0468303
3158,8289;0,0470958
3159,7930;0,0473517
3160,7573;0,0476022
3161,7214;0,0478519
3162,6858;0,0481051
3163,6499;0,0483657
3164,6143;0,0486373
3165,5784;0,0489212
3166,5427;0,0492153
3167,5068;0,0495138
3168,4712;0,049809
3169,4353;0,0500801
3170,3997;0,0503575
3171,3638;0,0506304
3172,3281;0,050904
3173,2922;0,0511796
3174,2566;0,0514523
3175,2207;0,0517136
3176,1851;0,0519579
3177,1492;0,0521877
3178,1135;0,0524141
3179,0776;0,0526513
3180,0420;0,0529089
3181,0061;0,0531866
3181,9705;0,0534751
3182,9346;0,0537623
3183,8989;0,0540394
3184,8630;0,0543048
3185,8274;0,0545629
3186,7915;0,05482
3187,7559;0,0550799
3188,7200;0,0553423
3189,6843;0,0556043
3190,6484;0,055862
3191,6128;0,056112
3192,5769;0,0563528
3193,5413;0,0565848
3194,5054;0,0568114
3195,4697;0,0570381
3196,4338;0,0572707
3197,3982;0,0575124
3198,3623;0,0577608
3199,3267;0,0580088
3200,2908;0,0582482
3201,2551;0,0584754
3202,2192;0,0586937
3203,1836;0,0589118
3204,1477;0,0591392
3205,1121;0,0593809
3206,0762;0,0596352
3207,0405;0,0598961
3208,0046;0,0601569
3208,9690;0,0604122
3209,9331;0,0606583
3210,8975;0,0608927
3211,8616;0,061114
3212,8259;0,0613241
3213,7900;0,0615286
3214,7544;0,0617358
3215,7185;0,0619515
3216,6829;0,0621752
3217,6470;0,0624
3218,6113;0,0626166
3219,5754;0,0628201
3220,5398;0,0630134
3221,5039;0,0632056
3222,4683;0,0634062
3223,4324;0,0636205
3224,3967;0,0638485
3225,3608;0,0640868
3226,3252;0,0643321
3227,2893;0,0645818
3228,2537;0,0648318
3229,2178;0,065075
3230,1821;0,065303
3231,1462;0,0655095
3232,1106;0,0656948
3233,0747;0,0658663
3234,0391;0,0660353
3235,0032;0,0662117
3235,9675;0,0664003
3236,9316;0,0666013
3237,8960;0,0668135
3238,8601;0,0670362
3239,8245;0,0672682
3240,7886;0,0675051
3241,7529;0,0677366
3242,7170;0,0679496
3243,6814;0,0681346
3244,6455;0,0682935
3245,6099;0,068441
3246,5740;0,0685995
3247,5383;0,0687869
3248,5024;0,0690081
3249,4668;0,0692531
3250,4309;0,0695037
3251,3953;0,0697443
3252,3594;0,069969
3253,3237;0,070182
3254,2878;0,070392
3255,2522;0,0706044
3256,2163;0,0708184
3257,1807;0,0710286
3258,1448;0,0712311
3259,1091;0,0714269
3260,0732;0,0716226
3261,0376;0,0718264
3262,0017;0,0720434
3262,9661;0,072273
3263,9302;0,0725086
3264,8945;0,0727394
3265,8586;0,0729542
3266,8230;0,073145
3267,7871;0,0733092
3268,7515;0,0734506
3269,7156;0,0735767
3270,6799;0,0736942
3271,6440;0,0738052
3272,6084;0,073907
3273,5725;0,0739958
3274,5369;0,0740718
3275,5010;0,0741414
3276,4653;0,0742138
3277,4294;0,0742941
3278,3938;0,0743789
3279,3579;0,0744584
3280,3223;0,074524
3281,2864;0,074577
3282,2507;0,0746296
3283,2148;0,0746978
3284,1792;0,0747904
3285,1433;0,0749013
3286,1077;0,0750116
3287,0718;0,0751005
3288,0361;0,0751579
3289,0002;0,0751889
3289,9646;0,0752102
3290,9287;0,0752386
3291,8931;0,0752814
3292,8572;0,0753333
3293,8215;0,0753821
3294,7856;0,0754177
3295,7500;0,075439
3296,7141;0,0754543
3297,6785;0,0754761
3298,6426;0,0755137
3299,6069;0,075568
3300,5710;0,075631
3301,5354;0,0756896
3302,4995;0,075732
3303,4639;0,0757524
3304,4280;0,0757523
3305,3923;0,0757385
3306,3564;0,0757191
3307,3208;0,0757001
3308,2849;0,0756853
3309,2493;0,0756777
3310,2134;0,075682
3311,1777;0,0757042
3312,1418;0,0757488
3313,1062;0,0758162
3314,0703;0,0759009
3315,0347;0,0759944
3315,9988;0,0760896
3316,9631;0,0761852
3317,9272;0,0762855
3318,8916;0,076397
3319,8557;0,0765231
3320,8201;0,0766614
3321,7842;0,0768041
3322,7485;0,0769423
3323,7126;0,0770694
3324,6770;0,0771831
3325,6411;0,0772847
3326,6055;0,0773767
3327,5696;0,0774615
3328,5339;0,0775412
3329,4980;0,0776182
3330,4624;0,0776946
3331,4265;0,0777711
3332,3909;0,0778441
3333,3550;0,0779062
3334,3193;0,0779476
3335,2834;0,0779597
3336,2478;0,0779389
3337,2119;0,0778873
3338,1763;0,0778115
3339,1404;0,0777189
3340,1047;0,0776161
3341,0688;0,0775077
3342,0332;0,0773977
3342,9973;0,0772899
3343,9617;0,0771863
3344,9258;0,0770864
3345,8901;0,0769852
3346,8542;0,0768746
3347,8186;0,0767466
3348,7827;0,0765959
3349,7471;0,0764225
3350,7112;0,0762318
3351,6755;0,0760327
3352,6396;0,0758352
3353,6040;0,0756481
3354,5681;0,0754771
3355,5325;0,0753238
3356,4966;0,0751852
3357,4609;0,0750551
3358,4250;0,0749267
3359,3894;0,0747953
3360,3535;0,0746593
3361,3179;0,0745193
3362,2820;0,0743753
3363,2463;0,0742244
3364,2104;0,074061
3365,1748;0,0738802
3366,1389;0,0736822
3367,1033;0,0734744
3368,0674;0,0732691
3369,0317;0,0730776
3369,9958;0,0729047
3370,9602;0,0727457
3371,9243;0,0725901
3372,8887;0,0724265
3373,8528;0,07225
3374,8171;0,0720634
3375,7813;0,0718759
3376,7456;0,0716966
3377,7097;0,0715291
3378,6741;0,0713688
3379,6382;0,0712048
3380,6025;0,0710256
3381,5667;0,0708251
3382,5310;0,0706069
3383,4951;0,0703847
3384,4595;0,0701765
3385,4236;0,0699973
3386,3879;0,0698518
3387,3521;0,0697315
3388,3164;0,0696192
3389,2805;0,069496
3390,2449;0,0693492
3391,2090;0,0691765
3392,1733;0,0689841
3393,1375;0,0687818
3394,1018;0,0685777
3395,0659;0,0683757
3396,0303;0,0681759
3396,9944;0,0679767
3397,9587;0,0677754
3398,9229;0,0675687
3399,8872;0,0673527
3400,8513;0,0671249
3401,8157;0,0668864
3402,7798;0,0666422
3403,7441;0,0663986
3404,7083;0,0661602
3405,6726;0,065927
3406,6367;0,065696
3407,6011;0,0654633
3408,5652;0,0652258
3409,5295;0,0649813
3410,4937;0,0647282
3411,4580;0,0644649
3412,4221;0,0641924
3413,3865;0,0639146
3414,3506;0,0636374
3415,3149;0,0633643
3416,2791;0,0630933
3417,2434;0,0628165
3418,2075;0,0625248
3419,1719;0,0622135
3420,1360;0,0618861
3421,1003;0,0615545
3422,0645;0,0612333
3423,0288;0,0609347
3423,9929;0,0606633
3424,9573;0,0604147
3425,9214;0,060176
3426,8857;0,0599284
3427,8499;0,059653
3428,8142;0,0593386
3429,7783;0,0589873
3430,7427;0,0586139
3431,7068;0,0582401
3432,6711;0,057885
3433,6353;0,0575586
3434,5996;0,0572602
3435,5637;0,0569811
3436,5281;0,0567084
3437,4922;0,05643
3438,4565;0,0561378
3439,4207;0,0558301
3440,3850;0,0555112
3441,3491;0,0551871
3442,3135;0,0548591
3443,2776;0,0545206
3444,2419;0,0541594
3445,2061;0,0537674
3446,1704;0,0533501
3447,1345;0,0529289
3448,0989;0,0525302
3449,0630;0,0521707
3450,0273;0,0518479
3450,9915;0,051544
3451,9558;0,051238
3452,9199;0,050917
3453,8843;0,0505806
3454,8484;0,0502376
3455,8127;0,0498986
3456,7769;0,0495689
3457,7412;0,0492461
3458,7053;0,0489227
3459,6697;0,0485906
3460,6338;0,0482452
3461,5981;0,0478879
3462,5623;0,0475248
3463,5266;0,0471623
3464,4907;0,0468028
3465,4551;0,0464429
3466,4192;0,0460776
3467,3835;0,0457061
3468,3477;0,0453353
3469,3120;0,0449774
3470,2761;0,0446409
3471,2405;0,0443236
3472,2046;0,0440124
3473,1689;0,0436921
3474,1331;0,0433558
3475,0974;0,0430098
3476,0615;0,0426684
3477,0259;0,0423416
3477,9900;0,042028
3478,9543;0,0417156
3479,9185;0,0413921
3480,8828;0,0410549
3481,8469;0,0407136
3482,8113;0,040382
3483,7754;0,0400661
3484,7397;0,0397582
3485,7039;0,0394417
3486,6682;0,0391026
3487,6323;0,0387404
3488,5967;0,0383699
3489,5608;0,0380126
3490,5251;0,0376822
3491,4893;0,0373755
3492,4536;0,0370745
3493,4177;0,0367591
3494,3821;0,0364227
3495,3462;0,0360797
3496,3105;0,0357579
3497,2747;0,035478
3498,2390;0,0352348
3499,2031;0,0349952
3500,1675;0,0347137
3501,1316;0,0343595
3502,0959;0,033939
3503,0601;0,0334964
3504,0244;0,0330864
3504,9885;0,0327383
3505,9529;0,0324405
3506,9170;0,0321548
3507,8813;0,0318434
3508,8455;0,031491
3509,8098;0,031111
3510,7739;0,0307334
3511,7383;0,0303837
3512,7024;0,0300698
3513,6667;0,0297836
3514,6309;0,0295122
3515,5952;0,0292479
3516,5593;0,0289899
3517,5237;0,0287405
3518,4878;0,0284982
3519,4521;0,0282553
3520,4163;0,0279993
3521,3806;0,0277193
3522,3447;0,0274105
3523,3091;0,0270761
3524,2732;0,0267237
3525,2375;0,0263591
3526,2017;0,0259854
3527,1660;0,0256061
3528,1301;0,0252312
3529,0945;0,0248765
3530,0586;0,0245563
3531,0229;0,0242728
3531,9871;0,0240122
3532,9514;0,0237503
3533,9155;0,023464
3534,8799;0,0231434
3535,8440;0,0227988
3536,8083;0,0224587
3537,7725;0,0221569
3538,7368;0,0219167
3539,7009;0,0217394
3540,6653;0,0216017
3541,6294;0,0214602
3542,5938;0,0212629
3543,5579;0,0209687
3544,5222;0,0205724
3545,4863;0,0201164
3546,4507;0,0196693
3547,4148;0,0192807
3548,3792;0,0189513
3549,3433;0,0186405
3550,3076;0,0183007
3551,2717;0,0179123
3552,2361;0,0175012
3553,2002;0,0171234
3554,1646;0,016825
3555,1287;0,0166089
3556,0930;0,0164357
3557,0571;0,0162544
3558,0215;0,0160383
3558,9856;0,0158037
3559,9500;0,0155994
3560,9141;0,0154678
3561,8784;0,0154038
3562,8425;0,0153401
3563,8069;0,015163
3564,7710;0,0147585
3565,7354;0,0140897
3566,6995;0,0132704
3567,6638;0,0125243
3568,6279;0,0120177
3569,5923;0,0117544
3570,5564;0,0116262
3571,5208;0,0115112
3572,4849;0,0113317
3573,4492;0,0110689
3574,4133;0,0107516
3575,3777;0,0104279
3576,3418;0,0101339
3577,3062;0,00988058
3578,2703;0,0096658
3579,2346;0,00949294
3580,1987;0,00937593
3581,1631;0,00932314
3582,1272;0,00931431
3583,0916;0,009289
3584,0557;0,00915495
3585,0200;0,00882067
3585,9841;0,00825952
3586,9485;0,00757701
3587,9126;0,00698246
3588,8770;0,00663641
3589,8411;0,00653917
3590,8054;0,00656978
3591,7695;0,00658335
3592,7339;0,00647857
3593,6980;0,00623004
3594,6624;0,00588882
3595,6265;0,00553905
3596,5908;0,00523223
3597,5549;0,0049586
3598,5193;0,0046784
3599,4834;0,004376
3600,4478;0,00408621
3601,4119;0,00386853
3602,3762;0,00375268
3603,3403;0,00370744
3604,3047;0,00365457
3605,2688;0,00350839
3606,2332;0,00321833
3607,1973;0,00279953
3608,1616;0,00232852
3609,1257;0,00189465
3610,0901;0,00154661
3611,0542;0,00128371
3612,0186;0,00108554
3612,9827;0,000937088
3613,9470;0,000825917
3614,9111;0,000722941
3615,8755;0,000572628
3616,8396;0,000309913
3617,8040;-9,49253E-05
3618,7681;-0,000584687
3619,7324;-0,00101399
3620,6965;-0,00123671
3621,6609;-0,00120691
3622,6250;-0,000990751
3623,5894;-0,000711354
3624,5535;-0,000504051
3625,5178;-0,000504058
3626,4819;-0,000832915
3627,4463;-0,00152872
3628,4104;-0,00243214
3629,3748;-0,00322451
3630,3389;-0,00369764
3631,3032;-0,00389672
3632,2673;-0,0039879
3633,2317;-0,00410389
3634,1958;-0,00429268
3635,1602;-0,00453372
3636,1243;-0,00478069
3637,0886;-0,00500297
3638,0527;-0,00519942
3639,0171;-0,00537939
3639,9812;-0,00553449
3640,9456;-0,00563028
3641,9097;-0,00562736
3642,8740;-0,00551419
3643,8381;-0,00532714
3644,8025;-0,00515266
3645,7666;-0,00512447
3646,7310;-0,00540977
3647,6951;-0,00612084
3648,6594;-0,00711707
3649,6235;-0,00798374
3650,5879;-0,00842404
3651,5520;-0,00849861
3652,5164;-0,00843875
3653,4805;-0,00844268
3654,4448;-0,00860906
3655,4089;-0,00892627
3656,3733;-0,00928908
3657,3374;-0,00956936
3658,3018;-0,00970878
3659,2659;-0,00974219
3660,2302;-0,00973915
3661,1943;-0,00973735
3662,1587;-0,00972114
3663,1228;-0,0096493
3664,0872;-0,00950412
3665,0513;-0,00931968
3666,0156;-0,00917139
3666,9797;-0,0091385
3667,9441;-0,00925413
3668,9082;-0,00946056
3669,8726;-0,00962921
3670,8367;-0,00967463
3671,8010;-0,00964334
3672,7651;-0,00967876
3673,7295;-0,00992245
3674,6936;-0,0104089
3675,6580;-0,0109933
3676,6221;-0,0114351
3677,5864;-0,0116086
3678,5505;-0,0115668
3679,5149;-0,0114226
3680,4790;-0,0112462
3681,4434;-0,0110482
3682,4075;-0,0108147
3683,3718;-0,010548
3684,3359;-0,0102888
3685,3003;-0,0101099
3686,2644;-0,0100939
3687,2288;-0,0102961
3688,1929;-0,0106878
3689,1572;-0,0111188
3690,1213;-0,0113995
3691,0857;-0,0114526
3692,0498;-0,0113379
3693,0142;-0,0111548
3693,9783;-0,0109692
3694,9426;-0,0108045
3695,9067;-0,0106633
3696,8711;-0,010551
3697,8352;-0,010487
3698,7996;-0,0104968
3699,7637;-0,0105905
3700,7280;-0,0107386
3701,6921;-0,0108677
3702,6565;-0,0108964
3703,6206;-0,0107874
3704,5850;-0,010567
3705,5491;-0,0103049
3706,5134;-0,0100872
3707,4775;-0,0100057
3708,4419;-0,0101527
3709,4060;-0,0105859
3710,3704;-0,0112472
3711,3345;-0,0119207
3712,2988;-0,01236
3713,2629;-0,0124678
3714,2273;-0,0123087
3715,1914;-0,0120058
3716,1558;-0,0116656
3717,1199;-0,0113557
3718,0842;-0,0111077
3719,0483;-0,010926
3720,0127;-0,0108012
3720,9768;-0,0107252
3721,9412;-0,0107022
3722,9053;-0,0107412
3723,8696;-0,0108346
3724,8337;-0,0109424
3725,7981;-0,0110033
3726,7622;-0,0109714
3727,7266;-0,0108435
3728,6907;-0,0106569
3729,6550;-0,0104703
3730,6191;-0,0103504
3731,5835;-0,0103688
3732,5476;-0,0105956
3733,5120;-0,0110577
3734,4761;-0,0116648
3735,4404;-0,0121956
3736,4045;-0,0124378
3737,3689;-0,0123435
3738,3330;-0,0120232
3739,2974;-0,0116459
3740,2615;-0,0113675
3741,2258;-0,0113024
3742,1899;-0,011496
3743,1543;-0,0118705
3744,1184;-0,0122055
3745,0828;-0,0122788
3746,0469;-0,0120703
3747,0112;-0,0117653
3747,9753;-0,0116039
3748,9397;-0,0117576
3749,9038;-0,0122302
3750,8682;-0,0127879
3751,8323;-0,0131049
3752,7966;-0,0130573
3753,7607;-0,0127728
3754,7251;-0,0124534
3755,6892;-0,012249
3756,6536;-0,0122257
3757,6177;-0,0123612
3758,5820;-0,0125572
3759,5461;-0,0126939
3760,5105;-0,0127055
3761,4746;-0,0126063
3762,4390;-0,012456
3763,4031;-0,0123145
3764,3674;-0,0122198
3765,3315;-0,0121881
3766,2959;-0,0122238
3767,2600;-0,012328
3768,2244;-0,0124948
3769,1885;-0,0126966
3770,1528;-0,0128773
3771,1169;-0,0129712
3772,0813;-0,0129418
3773,0454;-0,0128032
3774,0098;-0,0126107
3774,9739;-0,0124338
3775,9382;-0,0123312
3776,9023;-0,012331
3777,8667;-0,0124151
3778,8308;-0,0125242
3779,7952;-0,012594
3780,7593;-0,0126003
3781,7236;-0,0125691
3782,6877;-0,0125491
3783,6521;-0,0125783
3784,6162;-0,0126649
3785,5806;-0,0127852
3786,5447;-0,0128983
3787,5090;-0,0129654
3788,4731;-0,0129655
3789,4375;-0,0128992
3790,4016;-0,0127832
3791,3660;-0,0126409
3792,3301;-0,0124901
3793,2944;-0,0123357
3794,2585;-0,0121714
3795,2229;-0,0119926
3796,1870;-0,0118147
3797,1514;-0,011682
3798,1155;-0,0116542
3799,0798;-0,0117728
3800,0439;-0,0120182
3801,0083;-0,0122947
3801,9724;-0,012489
3802,9368;-0,0125685
3803,9009;-0,0126062
3804,8652;-0,0127084
3805,8293;-0,0129216
3806,7937;-0,0131795
3807,7578;-0,0133346
3808,7222;-0,0132737
3809,6863;-0,0130062
3810,6506;-0,0126384
3811,6147;-0,0122923
3812,5791;-0,0120497
3813,5432;-0,011931
3814,5076;-0,0118956
3815,4717;-0,0118734
3816,4360;-0,0118293
3817,4001;-0,0118066
3818,3645;-0,0118973
3819,3286;-0,0121609
3820,2930;-0,0125502
3821,2571;-0,0129127
3822,2214;-0,0131024
3823,1855;-0,0130907
3824,1499;-0,0129539
3825,1140;-0,012789
3826,0784;-0,0126561
3827,0425;-0,0125669
3828,0068;-0,0125008
3828,9709;-0,0124288
3829,9353;-0,0123319
3830,8994;-0,0122064
3831,8638;-0,0120621
3832,8279;-0,0119203
3833,7922;-0,0118138
3834,7563;-0,0117843
3835,7207;-0,0118687
3836,6848;-0,0120745
3837,6492;-0,0123595
3838,6133;-0,0126435
3839,5776;-0,0128608
3840,5417;-0,0130017
3841,5061;-0,0130948
3842,4702;-0,0131581
3843,4346;-0,0131687
3844,3987;-0,0130737
3845,3630;-0,0128311
3846,3271;-0,0124468
3847,2915;-0,0119829
3848,2556;-0,011541
3849,2200;-0,0112475
3850,1841;-0,0112481
3851,1484;-0,0116828
3852,1125;-0,0125603
3853,0769;-0,0135585
3854,0410;-0,0141584
3855,0054;-0,0141588
3855,9695;-0,013761
3856,9338;-0,0132396
3857,8979;-0,0127669
3858,8623;-0,0124184
3859,8264;-0,0122168
3860,7908;-0,0121578
3861,7549;-0,0122124
3862,7192;-0,0123226
3863,6833;-0,0124142
3864,6477;-0,0124362
3865,6118;-0,0123905
3866,5762;-0,012323
3867,5403;-0,0122936
3868,5046;-0,0123482
3869,4688;-0,0124993
3870,4331;-0,0127164
3871,3972;-0,0129347
3872,3616;-0,0130863
3873,3257;-0,0131313
3874,2900;-0,0130704
3875,2542;-0,0129375
3876,2185;-0,0127822
3877,1826;-0,0126515
3878,1470;-0,0125743
3879,1111;-0,0125513
3880,0754;-0,0125616
3881,0396;-0,0125861
3882,0039;-0,0126295
3882,9680;-0,0127135
3883,9324;-0,0128411
3884,8965;-0,0129712
3885,8608;-0,0130386
3886,8250;-0,0130115
3887,7893;-0,0129265
3888,7534;-0,0128667
3889,7178;-0,012903
3890,6819;-0,0130348
3891,6462;-0,0131701
3892,6104;-0,0131852
3893,5747;-0,0130244
3894,5388;-0,0127352
3895,5032;-0,0124181
3896,4673;-0,0121646
3897,4316;-0,0120278
3898,3958;-0,0120189
3899,3601;-0,0121193
3900,3242;-0,0123041
3901,2886;-0,0125588
3902,2527;-0,0128675
3903,2170;-0,0131871
3904,1812;-0,0134458
3905,1455;-0,0135847
3906,1096;-0,0135957
3907,0740;-0,0135176
3908,0381;-0,0134019
3909,0024;-0,0132842
3909,9666;-0,0131751
3910,9309;-0,0130688
3911,8950;-0,0129601
3912,8594;-0,0128577
3913,8235;-0,0127853
3914,7878;-0,0127691
3915,7520;-0,0128182
3916,7163;-0,0129093
3917,6804;-0,0129931
3918,6448;-0,0130245
3919,6089;-0,0129947
3920,5732;-0,0129344
3921,5374;-0,0128892
3922,5017;-0,0128903
3923,4658;-0,0129341
3924,4302;-0,0129853
3925,3943;-0,0130022
3926,3586;-0,0129687
3927,3228;-0,0129053
3928,2871;-0,0128539
3929,2512;-0,0128524
3930,2156;-0,0129125
3931,1797;-0,0130122
3932,1440;-0,0131083
3933,1082;-0,0131631
3934,0725;-0,0131645
3935,0366;-0,0131235
3936,0010;-0,0130605
3936,9651;-0,0129938
3937,9294;-0,0129378
3938,8936;-0,0129042
3939,8579;-0,0129012
3940,8220;-0,0129274
3941,7864;-0,0129674
3942,7505;-0,0129962
3943,7148;-0,0129945
3944,6790;-0,012964
3945,6433;-0,0129272
3946,6074;-0,012914
3947,5718;-0,0129435
3948,5359;-0,0130117
3949,5002;-0,0130938
3950,4644;-0,01316
3951,4287;-0,0131943
3952,3928;-0,0131994
3953,3572;-0,0131881
3954,3213;-0,0131713
3955,2856;-0,0131524
3956,2498;-0,0131299
3957,2141;-0,0131043
3958,1782;-0,0130825
3959,1426;-0,0130747
3960,1067;-0,0130868
3961,0710;-0,0131148
3962,0352;-0,0131451
3962,9995;-0,0131628
3963,9636;-0,0131606
3964,9280;-0,0131428
3965,8921;-0,0131216
3966,8564;-0,0131093
3967,8206;-0,0131115
3968,7849;-0,0131255
3969,7490;-0,0131446
3970,7134;-0,0131626
3971,6775;-0,0131774
3972,6418;-0,0131897
3973,6060;-0,0132
3974,5703;-0,0132067
3975,5344;-0,0132081
3976,4988;-0,0132037
3977,4629;-0,0131962
3978,4272;-0,0131892
3979,3914;-0,0131859
3980,3557;-0,0131873
3981,3198;-0,0131935
3982,2842;-0,0132049
3983,2483;-0,0132213
3984,2126;-0,0132408
3985,1768;-0,013258
3986,1411;-0,0132651
3987,1052;-0,0132568
3988,0696;-0,0132343
3989,0337;-0,0132067
3989,9980;-0,0131874
3990,9622;-0,013187
3991,9265;-0,0132076
3992,8906;-0,013242
3993,8550;-0,0132777
3994,8191;-0,0133045
3995,7834;-0,0133189
3996,7476;-0,0133241
3997,7119;-0,0133262
3998,6760;-0,0133285
3999,6404;-0,013329
4000,6045;-0,0132696

##### Extended Information
[Comments]
Sample name
Comment
Username
Division
Organization;UNIVERSIDAD INDUSTRIAL DE SANTANDER

[Detailed Information]
Creation date;18/03/2025 9:57 a.m.

Data array type;Linear data array
Horizontal axis;Wavenumber [cm-1]
Vertical axis;Abs
Start;399,193 cm-1
End;4000,6 cm-1
Data interval;0,964233 cm-1
Data points;3736    

[Measurement Information]
Model name;FT/IR-4X1typeA
Serial No.;A035162111

Accessory;ATR PRO 4X
Accessory S/N;A021162126
Incident angle;45 deg

Measurement date;18/03/2025 9:49 a.m.

Light source;Standard
Detector;TGS
Accumulation;40
Resolution;4 cm-1
Zero filling;On
Apodization;Cosine
Gain;Auto (8)
Aperture;Auto (7 mm)
Scan speed;Auto (2 mm/sec)
Filter;Auto (12800 Hz)

