TITLE;
DATA TYPE;INFRARED SPECTRUM
ORIGIN;JASCO
OWNER;
DATE;25/03/20
TIME;12:40:51
SPECTROMETER/DATA SYSTEM;
LOCALE;9226
RESOLUTION;
DELTAX;0,964233
XUNITS;1/CM
YUNITS;ABSORBANCE
FIRSTX;  399,1927
LASTX; 4000,6047
NPOINTS;    3736
FIRSTY;     0,19525
MAXY;     0,25870
MINY;    -0,00385
XYDATA
399,1927;0,195252
400,1569;0,195644
401,1211;0,195358
402,0854;0,194717
403,0496;0,193933
404,0138;0,193207
404,9781;0,192759
405,9423;0,192766
406,9065;0,193257
407,8708;0,19409
408,8350;0,195057
409,7992;0,19603
410,7635;0,197028
411,7277;0,198161
412,6919;0,199513
413,6562;0,201085
414,6204;0,202831
415,5846;0,204721
416,5489;0,206746
417,5131;0,208832
418,4773;0,210725
419,4416;0,212079
420,4058;0,212791
421,3700;0,213077
422,3343;0,213207
423,2985;0,213323
424,2627;0,213445
425,2270;0,213546
426,1912;0,213616
427,1554;0,213703
428,1197;0,213894
429,0839;0,214263
430,0481;0,214811
431,0124;0,215426
431,9766;0,215896
432,9408;0,215984
433,9051;0,21553
434,8693;0,214553
435,8335;0,213266
436,7978;0,211996
437,7620;0,211039
438,7262;0,210552
439,6905;0,210538
440,6547;0,210903
441,6189;0,211484
442,5832;0,212048
443,5474;0,212304
444,5116;0,211981
445,4759;0,210965
446,4401;0,209376
447,4043;0,207535
448,3686;0,205838
449,3328;0,204617
450,2970;0,204024
451,2613;0,203996
452,2255;0,204321
453,1897;0,204753
454,1540;0,205106
455,1182;0,20527
456,0824;0,205186
457,0467;0,204829
458,0109;0,204239
458,9751;0,203547
459,9394;0,20292
460,9036;0,202462
461,8678;0,20217
462,8321;0,201947
463,7963;0,201662
464,7605;0,201213
465,7248;0,200591
466,6890;0,199892
467,6532;0,199285
468,6175;0,198943
469,5817;0,198986
470,5459;0,199436
471,5102;0,200193
472,4744;0,201043
473,4386;0,201735
474,4029;0,202098
475,3671;0,202094
476,3313;0,2018
477,2956;0,201363
478,2598;0,200956
479,2240;0,200756
480,1883;0,200892
481,1525;0,201402
482,1167;0,202215
483,0810;0,203177
484,0452;0,204121
485,0094;0,204952
485,9737;0,205681
486,9379;0,206385
487,9021;0,207121
488,8664;0,207873
489,8306;0,208551
490,7948;0,209044
491,7591;0,209283
492,7233;0,209284
493,6875;0,209119
494,6518;0,208873
495,6160;0,208605
496,5802;0,208353
497,5445;0,208156
498,5087;0,208077
499,4729;0,208192
500,4372;0,208562
501,4014;0,209193
502,3656;0,210012
503,3299;0,21089
504,2941;0,211692
505,2583;0,212324
506,2226;0,212751
507,1868;0,212992
508,1510;0,213105
509,1153;0,21317
510,0795;0,213272
511,0437;0,213483
512,0080;0,21386
512,9722;0,214437
513,9365;0,215224
514,9007;0,216186
515,8649;0,217223
516,8292;0,218166
517,7934;0,218822
518,7576;0,219074
519,7219;0,218953
520,6861;0,218622
521,6503;0,218277
522,6146;0,218055
523,5788;0,217977
524,5430;0,217957
525,5073;0,217854
526,4715;0,217554
527,4357;0,217051
528,4000;0,216442
529,3642;0,215854
530,3284;0,215371
531,2927;0,215009
532,2569;0,214728
533,2211;0,214477
534,1854;0,214231
535,1496;0,213992
536,1138;0,213775
537,0781;0,213585
538,0423;0,213417
539,0065;0,213274
539,9708;0,21319
540,9350;0,213225
541,8992;0,213426
542,8635;0,213784
543,8277;0,21422
544,7919;0,214614
545,7562;0,21487
546,7204;0,214976
547,6846;0,215015
548,6489;0,215116
549,6131;0,215378
550,5773;0,215826
551,5416;0,216412
552,5058;0,217055
553,4700;0,217685
554,4343;0,218253
555,3985;0,218705
556,3627;0,218951
557,3270;0,218871
558,2912;0,218352
559,2554;0,21735
560,2197;0,21594
561,1839;0,214309
562,1481;0,212702
563,1124;0,211339
564,0766;0,210341
565,0408;0,209702
566,0051;0,209314
566,9693;0,20902
567,9335;0,208691
568,8978;0,208273
569,8620;0,207799
570,8262;0,207357
571,7905;0,207027
572,7547;0,206848
573,7189;0,2068
574,6832;0,206829
575,6474;0,206876
576,6116;0,206899
577,5759;0,206883
578,5401;0,206822
579,5043;0,206707
580,4686;0,206518
581,4328;0,206235
582,3970;0,205854
583,3613;0,205396
584,3255;0,204907
585,2897;0,204453
586,2540;0,204108
587,2182;0,203936
588,1824;0,203973
589,1467;0,204196
590,1109;0,204512
591,0751;0,204774
592,0394;0,204829
593,0036;0,204599
593,9678;0,204109
594,9321;0,203469
595,8963;0,2028
596,8605;0,202176
597,8248;0,201608
598,7890;0,201071
599,7532;0,200541
600,7175;0,200028
601,6817;0,199557
602,6459;0,199146
603,6102;0,198777
604,5744;0,198406
605,5386;0,19798
606,5029;0,197464
607,4671;0,196849
608,4313;0,196143
609,3956;0,19537
610,3598;0,194579
611,3240;0,193844
612,2883;0,19325
613,2525;0,192854
614,2167;0,192625
615,1810;0,192421
616,1452;0,19201
617,1094;0,191175
618,0737;0,189826
619,0379;0,188065
620,0021;0,186128
620,9664;0,184266
621,9306;0,182649
622,8948;0,181333
623,8591;0,180289
624,8233;0,17941
625,7875;0,178703
626,7518;0,178118
627,7160;0,177619
628,6802;0,177164
629,6445;0,176703
630,6087;0,176183
631,5729;0,175566
632,5372;0,174839
633,5014;0,174026
634,4656;0,173186
635,4299;0,172401
636,3941;0,171749
637,3583;0,171272
638,3226;0,170963
639,2868;0,170766
640,2510;0,1706
641,2153;0,170393
642,1795;0,170115
643,1437;0,169776
644,1080;0,169417
645,0722;0,169072
646,0364;0,168746
647,0007;0,168416
647,9649;0,168046
648,9291;0,167619
649,8934;0,16716
650,8576;0,166734
651,8218;0,166422
652,7861;0,166275
653,7503;0,166298
654,7145;0,16644
655,6788;0,166623
656,6430;0,166783
657,6072;0,166901
658,5715;0,167002
659,5357;0,167088
660,4999;0,167088
661,4642;0,166854
662,4284;0,166229
663,3926;0,165121
664,3569;0,163592
665,3211;0,161953
666,2853;0,160807
667,2496;0,160711
668,2138;0,161346
669,1780;0,161544
670,1423;0,160812
671,1065;0,159482
672,0707;0,157797
673,0350;0,155812
673,9992;0,153633
674,9634;0,151451
675,9277;0,14944
676,8919;0,147661
677,8561;0,146064
678,8204;0,144579
679,7846;0,143189
680,7488;0,141927
681,7131;0,140829
682,6773;0,139891
683,6415;0,139077
684,6058;0,13835
685,5700;0,137693
686,5342;0,137105
687,4985;0,136574
688,4627;0,136079
689,4269;0,135581
690,3912;0,135066
691,3554;0,134555
692,3196;0,134086
693,2839;0,133692
694,2481;0,133375
695,2123;0,133106
696,1766;0,132831
697,1408;0,132493
698,1050;0,13205
699,0693;0,131485
700,0335;0,130814
700,9977;0,130074
701,9620;0,129314
702,9262;0,128569
703,8904;0,12784
704,8547;0,127119
705,8189;0,126381
706,7831;0,125609
707,7474;0,124805
708,7116;0,123991
709,6758;0,123194
710,6401;0,122423
711,6043;0,121667
712,5685;0,120899
713,5328;0,120105
714,4970;0,119307
715,4612;0,117778
716,4255;0,117286
717,3897;0,116942
718,3539;0,116617
719,3182;0,116108
720,2824;0,115241
721,2466;0,113979
722,2109;0,112449
723,1751;0,110863
724,1393;0,109408
725,1036;0,108176
726,0678;0,107158
727,0320;0,106292
727,9963;0,105508
728,9605;0,10476
729,9247;0,104024
730,8890;0,103288
731,8532;0,102544
732,8174;0,101795
733,7817;0,101064
734,7459;0,100392
735,7101;0,0998201
736,6744;0,0993627
737,6386;0,0989934
738,6028;0,0986521
739,5671;0,0982704
740,5313;0,0978028
741,4955;0,0972442
742,4598;0,0966277
743,4240;0,0960039
744,3882;0,0954156
745,3525;0,0948805
746,3167;0,0943892
747,2809;0,093917
748,2452;0,0934395
749,2094;0,0929452
750,1736;0,0924372
751,1379;0,0919288
752,1021;0,0914329
753,0663;0,0909544
754,0306;0,090487
754,9948;0,0900165
755,9590;0,0895297
756,9233;0,0890239
757,8875;0,0885127
758,8517;0,0880227
759,8160;0,0875818
760,7802;0,0872043
761,7444;0,0868809
762,7087;0,0865811
763,6729;0,0862674
764,6371;0,0859148
765,6014;0,0855221
766,5656;0,0851105
767,5298;0,0847103
768,4941;0,0843434
769,4583;0,0840138
770,4225;0,0837095
771,3868;0,0834124
772,3510;0,0831103
773,3152;0,0828025
774,2795;0,0824994
775,2437;0,0822151
776,2079;0,0819585
777,1722;0,0817258
778,1364;0,0814985
779,1006;0,0812482
780,0649;0,0809476
781,0291;0,0805827
781,9933;0,0801604
782,9576;0,0797047
783,9218;0,0792438
784,8860;0,078796
785,8503;0,0783623
786,8145;0,0779308
787,7787;0,0774905
788,7430;0,0770424
789,7072;0,0766024
790,6714;0,0761932
791,6357;0,0758317
792,5999;0,0755193
793,5641;0,0752421
794,5284;0,0749784
795,4926;0,0747098
796,4568;0,0744283
797,4211;0,0741385
798,3853;0,0738519
799,3495;0,0735801
800,3138;0,073329
801,2780;0,0730968
802,2422;0,0728774
803,2065;0,0726652
804,1707;0,0724584
805,1349;0,0722594
806,0992;0,072072
807,0634;0,0718983
808,0276;0,0717367
808,9919;0,0715829
809,9561;0,0714306
810,9203;0,0712734
811,8846;0,0711061
812,8488;0,0709262
813,8130;0,0707363
814,7773;0,0705442
815,7415;0,0703605
816,7057;0,0701945
817,6700;0,0700503
818,6342;0,0699247
819,5984;0,0698094
820,5627;0,0696939
821,5269;0,069568
822,4911;0,0694231
823,4554;0,0692535
824,4196;0,0690571
825,3839;0,0688364
826,3481;0,0685971
827,3123;0,0683458
828,2766;0,0680882
829,2408;0,0678278
830,2050;0,0675678
831,1693;0,0673117
832,1335;0,0670627
833,0977;0,0668213
834,0620;0,0665844
835,0262;0,0663464
835,9904;0,0661036
836,9547;0,065857
837,9189;0,0656119
838,8831;0,0653739
839,8474;0,0651447
840,8116;0,0649209
841,7758;0,0646966
842,7401;0,0644667
843,7043;0,0642298
844,6685;0,0639884
845,6328;0,0637483
846,5970;0,0635184
847,5612;0,06331
848,5255;0,0631336
849,4897;0,0629937
850,4539;0,0628854
851,4182;0,0627942
852,3824;0,0627017
853,3466;0,0625943
854,3109;0,062468
855,2751;0,0623283
856,2393;0,0621855
857,2036;0,0620491
858,1678;0,0619248
859,1320;0,061814
860,0963;0,0617138
861,0605;0,0616175
862,0247;0,0615168
862,9890;0,0614067
863,9532;0,0612925
864,9174;0,0611933
865,8817;0,0611379
866,8459;0,0611529
867,8101;0,0612501
868,7744;0,0614198
869,7386;0,0616359
870,7028;0,0618688
871,6671;0,0620975
872,6313;0,062316
873,5955;0,0625309
874,5598;0,0627537
875,5240;0,0629955
876,4882;0,0632639
877,4525;0,0635638
878,4167;0,063898
879,3809;0,0642684
880,3452;0,064678
881,3094;0,0651345
882,2736;0,065653
883,2379;0,066255
884,2021;0,0669614
885,1663;0,0677825
886,1306;0,0687097
887,0948;0,0697155
888,0590;0,0707618
889,0233;0,0718127
889,9875;0,0728435
890,9517;0,0738402
891,9160;0,0747913
892,8802;0,0756765
893,8444;0,0764613
894,8087;0,0771003
895,7729;0,0775487
896,7371;0,0777759
897,7014;0,0777733
898,6656;0,0775538
899,6298;0,0771442
900,5941;0,0765745
901,5583;0,0758716
902,5225;0,0750585
903,4868;0,07416
904,4510;0,0732092
905,4152;0,0722514
906,3795;0,0713391
907,3437;0,0705223
908,3079;0,0698353
909,2722;0,0692883
910,2364;0,0688677
911,2007;0,0685448
912,1649;0,0682891
913,1292;0,0680796
914,0934;0,0679102
915,0576;0,0677874
916,0219;0,067723
916,9861;0,0677265
917,9503;0,0677992
918,9146;0,067933
919,8788;0,0681129
920,8430;0,0683221
921,8073;0,0685468
922,7715;0,0687804
923,7357;0,0690223
924,7000;0,0692746
925,6642;0,0695367
926,6284;0,0698024
927,5927;0,0700619
928,5569;0,0703077
929,5211;0,0705422
930,4854;0,0707805
931,4496;0,0710459
932,4138;0,07136
933,3781;0,0717324
934,3423;0,0721578
935,3065;0,0726224
936,2708;0,0731169
937,2350;0,0736466
938,1992;0,0742331
939,1635;0,0749043
940,1277;0,0756806
941,0919;0,0765653
942,0562;0,0775462
943,0204;0,0786068
943,9846;0,0797381
944,9489;0,0809421
945,9131;0,0822252
946,8773;0,0835869
947,8416;0,0850116
948,8058;0,0864732
949,7700;0,087947
950,7343;0,0894223
951,6985;0,0909069
952,6627;0,0924203
953,6270;0,0939818
954,5912;0,0956012
955,5554;0,0972767
956,5197;0,0990006
957,4839;0,100766
958,4481;0,102569
959,4124;0,104407
960,3766;0,106279
961,3408;0,108176
962,3051;0,110093
963,2693;0,112025
964,2335;0,113971
965,1978;0,115932
966,1620;0,117912
967,1262;0,119915
968,0905;0,121954
969,0547;0,124051
970,0189;0,126248
970,9832;0,128594
971,9474;0,13114
972,9116;0,133924
973,8759;0,136962
974,8401;0,140242
975,8043;0,143738
976,7686;0,147416
977,7328;0,151244
978,6970;0,155187
979,6613;0,159194
980,6255;0,16319
981,5897;0,167074
982,5540;0,170744
983,5182;0,174117
984,4824;0,177162
985,4467;0,179906
986,4109;0,182414
987,3751;0,184761
988,3394;0,186998
989,3036;0,189136
990,2678;0,191148
991,2321;0,192993
992,1963;0,194637
993,1605;0,196073
994,1248;0,19732
995,0890;0,198413
996,0532;0,199389
997,0175;0,200279
997,9817;0,201104
998,9459;0,201891
999,9102;0,202676
1000,8744;0,20351
1001,8386;0,204453
1002,8029;0,20556
1003,7671;0,206873
1004,7313;0,208417
1005,6956;0,210208
1006,6598;0,21226
1007,6240;0,214586
1008,5883;0,217189
1009,5525;0,220049
1010,5167;0,223112
1011,4810;0,226296
1012,4452;0,229503
1013,4094;0,232642
1014,3737;0,235642
1015,3379;0,238456
1016,3021;0,241057
1017,2664;0,243428
1018,2306;0,245558
1019,1948;0,247446
1020,1591;0,2491
1021,1233;0,250548
1022,0875;0,251831
1023,0518;0,252994
1024,0160;0,25408
1024,9802;0,255112
1025,9445;0,25609
1026,9087;0,256994
1027,8729;0,257776
1028,8372;0,258372
1029,8014;0,258698
1030,7656;0,25866
1031,7299;0,258165
1032,6941;0,25714
1033,6583;0,255565
1034,6226;0,253484
1035,5868;0,251017
1036,5510;0,248338
1037,5153;0,245653
1038,4795;0,243155
1039,4437;0,240995
1040,4080;0,239259
1041,3722;0,237963
1042,3364;0,237057
1043,3007;0,236447
1044,2649;0,236017
1045,2291;0,235657
1046,1934;0,23528
1047,1576;0,234827
1048,1218;0,234259
1049,0861;0,233542
1050,0503;0,23264
1051,0145;0,231514
1051,9788;0,230137
1052,9430;0,228503
1053,9072;0,22663
1054,8715;0,224543
1055,8357;0,222251
1056,7999;0,219731
1057,7642;0,21693
1058,7284;0,213789
1059,6926;0,210288
1060,6569;0,20647
1061,6211;0,202449
1062,5853;0,198384
1063,5496;0,194431
1064,5138;0,190704
1065,4780;0,187252
1066,4423;0,184071
1067,4065;0,181117
1068,3707;0,178338
1069,3350;0,175689
1070,2992;0,17313
1071,2634;0,170623
1072,2277;0,168124
1073,1919;0,165589
1074,1561;0,162978
1075,1204;0,160274
1076,0846;0,157491
1077,0488;0,154679
1078,0131;0,151913
1078,9773;0,149281
1079,9415;0,146863
1080,9058;0,14472
1081,8700;0,142884
1082,8342;0,141359
1083,7985;0,140125
1084,7627;0,139149
1085,7269;0,138384
1086,6912;0,137785
1087,6554;0,137313
1088,6196;0,136939
1089,5839;0,136646
1090,5481;0,136428
1091,5123;0,13628
1092,4766;0,136197
1093,4408;0,136169
1094,4050;0,136182
1095,3693;0,136223
1096,3335;0,136279
1097,2977;0,136336
1098,2620;0,136382
1099,2262;0,136403
1100,1904;0,136384
1101,1547;0,136309
1102,1189;0,136161
1103,0831;0,135926
1104,0474;0,135599
1105,0116;0,13519
1105,9758;0,134722
1106,9401;0,134218
1107,9043;0,133691
1108,8685;0,13312
1109,8328;0,132454
1110,7970;0,131618
1111,7612;0,13054
1112,7255;0,12919
1113,6897;0,127589
1114,6539;0,125818
1115,6182;0,123987
1116,5824;0,122203
1117,5466;0,12054
1118,5109;0,119018
1119,4751;0,117603
1120,4393;0,116227
1121,4036;0,114805
1122,3678;0,113257
1123,3320;0,111523
1124,2963;0,109577
1125,2605;0,107425
1126,2247;0,105099
1127,1890;0,10265
1128,1532;0,100129
1129,1174;0,0975863
1130,0817;0,0950601
1131,0459;0,0925819
1132,0101;0,0901799
1132,9744;0,0878865
1133,9386;0,0857419
1134,9028;0,0837958
1135,8671;0,0821013
1136,8313;0,0807056
1137,7955;0,079639
1138,7598;0,0789086
1139,7240;0,0784984
1140,6882;0,0783771
1141,6525;0,0785058
1142,6167;0,0788443
1143,5809;0,0793529
1144,5452;0,0799915
1145,5094;0,0807225
1146,4736;0,0815151
1147,4379;0,0823513
1148,4021;0,0832258
1149,3663;0,0841381
1150,3306;0,0850808
1151,2948;0,0860313
1152,2590;0,086951
1153,2233;0,0877932
1154,1875;0,0885123
1155,1517;0,0890681
1156,1160;0,0894213
1157,0802;0,0895259
1158,0444;0,0893226
1159,0087;0,0887409
1159,9729;0,0877094
1160,9371;0,0861726
1161,9014;0,0841079
1162,8656;0,0815387
1163,8298;0,078538
1164,7941;0,0752213
1165,7583;0,0717301
1166,7225;0,0682099
1167,6868;0,0647889
1168,6510;0,0615641
1169,6152;0,0585966
1170,5795;0,0559149
1171,5437;0,0535241
1172,5079;0,0514142
1173,4722;0,0495674
1174,4364;0,0479619
1175,4006;0,0465733
1176,3649;0,0453759
1177,3291;0,0443438
1178,2933;0,0434529
1179,2576;0,0426836
1180,2218;0,042023
1181,1860;0,041466
1182,1503;0,0410135
1183,1145;0,0406684
1184,0787;0,0404307
1185,0430;0,0402954
1186,0072;0,0402537
1186,9714;0,0402978
1187,9357;0,0404255
1188,8999;0,0406416
1189,8641;0,0409552
1190,8284;0,0413737
1191,7926;0,0418978
1192,7568;0,0425195
1193,7211;0,0432231
1194,6853;0,0439881
1195,6495;0,0447907
1196,6138;0,0456048
1197,5780;0,0464046
1198,5422;0,0471681
1199,5065;0,0475742
1200,4707;0,0482745
1201,4349;0,0489332
1202,3992;0,0495568
1203,3634;0,0501458
1204,3276;0,0506931
1205,2919;0,0511888
1206,2561;0,0516311
1207,2203;0,0520332
1208,1846;0,0524245
1209,1488;0,0528424
1210,1130;0,0533215
1211,0773;0,0538848
1212,0415;0,0545407
1213,0057;0,0552869
1213,9700;0,0561145
1214,9342;0,0570121
1215,8984;0,0579669
1216,8627;0,0589606
1217,8269;0,0599704
1218,7911;0,0609749
1219,7554;0,0619569
1220,7196;0,0629059
1221,6838;0,0638173
1222,6481;0,064689
1223,6123;0,0655179
1224,5765;0,0662986
1225,5408;0,0670255
1226,5050;0,0676953
1227,4692;0,0683086
1228,4335;0,0688688
1229,3977;0,0693791
1230,3619;0,0698392
1231,3262;0,0702451
1232,2904;0,0705913
1233,2546;0,0708741
1234,2189;0,0710948
1235,1831;0,0712603
1236,1473;0,0713814
1237,1116;0,0714705
1238,0758;0,0715382
1239,0400;0,0715916
1240,0043;0,0716327
1240,9685;0,071657
1241,9327;0,0716541
1242,8970;0,0716097
1243,8612;0,0715087
1244,8254;0,0713409
1245,7897;0,0711045
1246,7539;0,0708089
1247,7181;0,0704725
1248,6824;0,0701178
1249,6466;0,0697657
1250,6108;0,0694299
1251,5751;0,0691162
1252,5393;0,0688246
1253,5035;0,0685526
1254,4678;0,0682975
1255,4320;0,0680559
1256,3962;0,0678203
1257,3605;0,0675783
1258,3247;0,0673132
1259,2889;0,0670096
1260,2532;0,0666579
1261,2174;0,0662576
1262,1816;0,0658153
1263,1459;0,0653399
1264,1101;0,0648389
1265,0743;0,064316
1266,0386;0,0637715
1267,0028;0,0632012
1267,9670;0,0625978
1268,9313;0,0619515
1269,8955;0,0612537
1270,8597;0,0605017
1271,8240;0,0597019
1272,7882;0,0588705
1273,7524;0,0580308
1274,7167;0,0572088
1275,6809;0,056428
1276,6451;0,055704
1277,6094;0,0550394
1278,5736;0,0544215
1279,5378;0,0538267
1280,5021;0,0532318
1281,4663;0,0526268
1282,4305;0,0520224
1283,3948;0,0514461
1284,3590;0,0509294
1285,3232;0,0504929
1286,2875;0,0501391
1287,2517;0,0498549
1288,2159;0,0496236
1289,1802;0,0494378
1290,1444;0,0493046
1291,1086;0,0492422
1292,0729;0,0492698
1293,0371;0,0493978
1294,0013;0,049624
1294,9656;0,0499349
1295,9298;0,0503122
1296,8940;0,0507402
1297,8583;0,0512098
1298,8225;0,0517205
1299,7867;0,052277
1300,7510;0,0528861
1301,7152;0,0535571
1302,6794;0,0542941
1303,6437;0,0550946
1304,6079;0,0559517
1305,5721;0,0568539
1306,5364;0,0577904
1307,5006;0,0587556
1308,4648;0,0597499
1309,4291;0,0607727
1310,3933;0,0618123
1311,3575;0,062839
1312,3218;0,0638081
1313,2860;0,0646733
1314,2502;0,0653989
1315,2145;0,0659596
1316,1787;0,0663297
1317,1429;0,066475
1318,1072;0,066364
1319,0714;0,0659959
1320,0356;0,0654245
1320,9999;0,0647508
1321,9641;0,0640863
1322,9283;0,0635125
1323,8926;0,0630639
1324,8568;0,0627335
1325,8210;0,0624928
1326,7853;0,0623109
1327,7495;0,0621638
1328,7137;0,0620334
1329,6780;0,0619014
1330,6422;0,0617506
1331,6064;0,0615748
1332,5707;0,0613884
1333,5349;0,061229
1334,4991;0,0611384
1335,4634;0,061131
1336,4276;0,0611602
1337,3918;0,0611011
1338,3561;0,0607835
1339,3203;0,0600961
1340,2845;0,0590894
1341,2488;0,057958
1342,2130;0,0569119
1343,1772;0,0560755
1344,1415;0,0554784
1345,1057;0,0550958
1346,0699;0,0548854
1347,0342;0,0548069
1347,9984;0,0548332
1348,9626;0,0549529
1349,9269;0,0551655
1350,8911;0,0554711
1351,8553;0,05586
1352,8196;0,0563089
1353,7838;0,0567866
1354,7480;0,057268
1355,7123;0,0577508
1356,6765;0,0582618
1357,6407;0,0588453
1358,6050;0,0595397
1359,5692;0,06035
1360,5334;0,0612131
1361,4977;0,0619902
1362,4619;0,0625403
1363,4261;0,0628417
1364,3904;0,0630089
1365,3546;0,0631817
1366,3188;0,0634271
1367,2831;0,0637305
1368,2473;0,0640359
1369,2115;0,0642891
1370,1758;0,0644626
1371,1400;0,0645513
1372,1042;0,0645449
1373,0685;0,064403
1374,0327;0,0640679
1374,9969;0,0635179
1375,9612;0,0627959
1376,9254;0,0619633
1377,8896;0,0610436
1378,8539;0,0600265
1379,8181;0,05892
1380,7823;0,0577845
1381,7466;0,0567144
1382,7108;0,0557821
1383,6750;0,0549977
1384,6393;0,0543118
1385,6035;0,0536432
1386,5677;0,052924
1387,5320;0,0521642
1388,4962;0,0514665
1389,4604;0,0509378
1390,4247;0,0506086
1391,3889;0,050459
1392,3531;0,0504796
1393,3174;0,0506749
1394,2816;0,051008
1395,2458;0,0513656
1396,2101;0,051606
1397,1743;0,0516549
1398,1385;0,0515537
1399,1028;0,0514245
1400,0670;0,0513906
1401,0313;0,0515131
1401,9955;0,0517784
1402,9597;0,0521274
1403,9240;0,0524971
1404,8882;0,0528535
1405,8524;0,0532094
1406,8167;0,0536094
1407,7809;0,0540865
1408,7451;0,0546347
1409,7094;0,0552262
1410,6736;0,0558429
1411,6378;0,056489
1412,6021;0,0571769
1413,5663;0,0578992
1414,5305;0,0586211
1415,4948;0,0592977
1416,4590;0,0598802
1417,4232;0,0602933
1418,3875;0,0604671
1419,3517;0,0604651
1420,3159;0,0604783
1421,2802;0,0605996
1422,2444;0,0607204
1423,2086;0,0606603
1424,1729;0,0603203
1425,1371;0,0597306
1426,1013;0,0589952
1427,0656;0,0582039
1428,0298;0,0573858
1428,9940;0,0565284
1429,9583;0,0556294
1430,9225;0,0547164
1431,8867;0,0538046
1432,8510;0,0528531
1433,8152;0,0517886
1434,7794;0,0505677
1435,7437;0,0492351
1436,7079;0,0479747
1437,6721;0,0470629
1438,6364;0,0466503
1439,6006;0,0466284
1440,5648;0,0467683
1441,5291;0,0469132
1442,4933;0,0470393
1443,4575;0,0472034
1444,4218;0,0474592
1445,3860;0,0478064
1446,3502;0,0481982
1447,3145;0,0485905
1448,2787;0,0489879
1449,2429;0,0494363
1450,2072;0,0499534
1451,1714;0,0504694
1452,1356;0,0508561
1453,0999;0,0510277
1454,0641;0,0510277
1455,0283;0,0509947
1455,9926;0,0509214
1456,9568;0,0505087
1457,9210;0,0497471
1458,8853;0,0491867
1459,8495;0,049071
1460,8137;0,0491208
1461,7780;0,0489979
1462,7422;0,0485455
1463,7064;0,0477697
1464,6707;0,0467783
1465,6349;0,0457532
1466,5991;0,0448527
1467,5634;0,0440712
1468,5276;0,0432686
1469,4918;0,0423254
1470,4561;0,0412196
1471,4203;0,0399553
1472,3845;0,0384607
1473,3488;0,0367046
1474,3130;0,0349115
1475,2772;0,0333902
1476,2415;0,0322416
1477,2057;0,0313852
1478,1699;0,0307116
1479,1342;0,0301462
1480,0984;0,0296476
1481,0626;0,0292009
1482,0269;0,0288224
1482,9911;0,028557
1483,9553;0,0284575
1484,9196;0,0285694
1485,8838;0,0289235
1486,8480;0,0294987
1487,8123;0,0301241
1488,7765;0,0304708
1489,7407;0,0303585
1490,7050;0,0300173
1491,6692;0,0297949
1492,6334;0,0298156
1493,5977;0,0300402
1494,5619;0,0304446
1495,5261;0,0310644
1496,4904;0,031905
1497,4546;0,0328737
1498,4188;0,0338709
1499,3831;0,03486
1500,3473;0,0357591
1501,3115;0,0363951
1502,2758;0,0366314
1503,2400;0,0365326
1504,2042;0,0364765
1505,1685;0,0370614
1506,1327;0,0384614
1507,0969;0,0396658
1508,0612;0,0396915
1509,0254;0,0390091
1509,9896;0,0382934
1510,9539;0,0376686
1511,9181;0,0370734
1512,8823;0,0365077
1513,8466;0,036016
1514,8108;0,0355927
1515,7750;0,0351402
1516,7393;0,0345341
1517,7035;0,0337278
1518,6677;0,0327898
1519,6320;0,0318558
1520,5962;0,0310563
1521,5604;0,0304716
1522,5247;0,0301147
1523,4889;0,0299195
1524,4531;0,029766
1525,4174;0,0295557
1526,3816;0,0292779
1527,3458;0,0289992
1528,3101;0,0287881
1529,2743;0,0286685
1530,2385;0,0286472
1531,2028;0,0287555
1532,1670;0,0290201
1533,1312;0,0293907
1534,0955;0,0297381
1535,0597;0,0299258
1536,0239;0,029872
1536,9882;0,0296286
1537,9524;0,0294828
1538,9166;0,0298994
1539,8809;0,031014
1540,8451;0,0320809
1541,8093;0,0323618
1542,7736;0,0321228
1543,7378;0,0318172
1544,7020;0,0315777
1545,6663;0,0314296
1546,6305;0,0314084
1547,5947;0,0315208
1548,5590;0,0317157
1549,5232;0,0319155
1550,4874;0,0320717
1551,4517;0,0321876
1552,4159;0,0322821
1553,3801;0,0323277
1554,3444;0,0322452
1555,3086;0,031983
1556,2728;0,0315945
1557,2371;0,0311341
1558,2013;0,0304456
1559,1655;0,029667
1560,1298;0,0296635
1561,0940;0,0307247
1562,0582;0,032271
1563,0225;0,0337004
1563,9867;0,0347373
1564,9509;0,0353746
1565,9152;0,0357528
1566,8794;0,0360602
1567,8436;0,0364467
1568,8079;0,0369663
1569,7721;0,0375914
1570,7363;0,0382567
1571,7006;0,038878
1572,6648;0,0393946
1573,6290;0,0398435
1574,5933;0,0403618
1575,5575;0,0410531
1576,5217;0,0418699
1577,4860;0,0427278
1578,4502;0,0436179
1579,4144;0,044518
1580,3787;0,0453696
1581,3429;0,0461516
1582,3071;0,0468983
1583,2714;0,0476587
1584,2356;0,0484584
1585,1998;0,0492985
1586,1641;0,0501685
1587,1283;0,0510532
1588,0925;0,0519284
1589,0568;0,0527592
1590,0210;0,0535046
1590,9852;0,0541274
1591,9495;0,0545953
1592,9137;0,0548781
1593,8779;0,0549518
1594,8422;0,0548159
1595,8064;0,0545099
1596,7706;0,0541078
1597,7349;0,0536899
1598,6991;0,0533112
1599,6633;0,0529881
1600,6276;0,0527036
1601,5918;0,0524299
1602,5560;0,0521537
1603,5203;0,0518865
1604,4845;0,0516493
1605,4487;0,0514458
1606,4130;0,05125
1607,3772;0,0510227
1608,3414;0,0507457
1609,3057;0,050447
1610,2699;0,0501787
1611,2341;0,0499561
1612,1984;0,0497338
1613,1626;0,0494588
1614,1268;0,0491377
1615,0911;0,0488408
1616,0553;0,0486559
1617,0195;0,0486738
1617,9838;0,0489593
1618,9480;0,0494457
1619,9122;0,049946
1620,8765;0,0502974
1621,8407;0,050446
1622,8049;0,050428
1623,7692;0,0503216
1624,7334;0,0502107
1625,6976;0,0501465
1626,6619;0,0501343
1627,6261;0,0501617
1628,5903;0,0502196
1629,5546;0,050281
1630,5188;0,050278
1631,4830;0,0501371
1632,4473;0,0498655
1633,4115;0,0495996
1634,3757;0,0495027
1635,3400;0,0495442
1636,3042;0,0495521
1637,2684;0,0495521
1638,2327;0,0496685
1639,1969;0,0498589
1640,1611;0,0499838
1641,1254;0,0499467
1642,0896;0,0497412
1643,0538;0,0494573
1644,0181;0,0492634
1644,9823;0,0492981
1645,9465;0,0494832
1646,9108;0,0495446
1647,8750;0,0493038
1648,8392;0,0487241
1649,8035;0,0477806
1650,7677;0,0465226
1651,7319;0,045136
1652,6962;0,0437909
1653,6604;0,0426793
1654,6246;0,0422638
1655,5889;0,0426401
1656,5531;0,0432851
1657,5173;0,0436788
1658,4816;0,0436173
1659,4458;0,0431546
1660,4100;0,0424523
1661,3743;0,0416567
1662,3385;0,0408759
1663,3027;0,0402143
1664,2670;0,0397299
1665,2312;0,0393783
1666,1954;0,0390615
1667,1597;0,038701
1668,1239;0,0382406
1669,0881;0,0376229
1670,0524;0,0368444
1671,0166;0,0359949
1671,9808;0,0351424
1672,9451;0,0342591
1673,9093;0,0333253
1674,8735;0,0324542
1675,8378;0,0318759
1676,8020;0,0317582
1677,7662;0,0320257
1678,7305;0,0323898
1679,6947;0,032538
1680,6589;0,0322833
1681,6232;0,0315805
1682,5874;0,0304476
1683,5516;0,0289863
1684,5159;0,0276092
1685,4801;0,0268504
1686,4443;0,0267569
1687,4086;0,0269272
1688,3728;0,0269614
1689,3370;0,0266784
1690,3013;0,0261001
1691,2655;0,0253628
1692,2297;0,0246392
1693,1940;0,0240932
1694,1582;0,02384
1695,1224;0,023876
1696,0867;0,0240133
1697,0509;0,0239248
1698,0151;0,0233682
1698,9794;0,0224538
1699,9436;0,0216508
1700,9078;0,0214208
1701,8721;0,0218453
1702,8363;0,0226364
1703,8005;0,0234055
1704,7648;0,0238858
1705,7290;0,0240207
1706,6932;0,023949
1707,6575;0,0238989
1708,6217;0,0240352
1709,5859;0,0243829
1710,5502;0,024872
1711,5144;0,0254229
1712,4786;0,0259912
1713,4429;0,0265617
1714,4071;0,0270956
1715,3713;0,0274439
1716,3356;0,0273585
1717,2998;0,0268133
1718,2640;0,0262501
1719,2283;0,0261289
1720,1925;0,0264722
1721,1567;0,0270134
1722,1210;0,0274966
1723,0852;0,0278082
1724,0494;0,02798
1725,0137;0,0281383
1725,9779;0,0284235
1726,9421;0,028906
1727,9064;0,0295409
1728,8706;0,0301892
1729,8348;0,0306816
1730,7991;0,0308793
1731,7633;0,0306995
1732,7275;0,0301421
1733,6918;0,0293838
1734,6560;0,0287797
1735,6202;0,0285591
1736,5845;0,0286109
1737,5487;0,0286664
1738,5129;0,0285503
1739,4772;0,0282625
1740,4414;0,0279204
1741,4056;0,0276458
1742,3699;0,0274742
1743,3341;0,0273456
1744,2983;0,027168
1745,2626;0,0268771
1746,2268;0,0264387
1747,1910;0,0257966
1748,1553;0,024832
1749,1195;0,0234392
1750,0837;0,021715
1751,0480;0,0200022
1752,0122;0,0186331
1752,9764;0,017696
1753,9407;0,0170705
1754,9049;0,0165849
1755,8691;0,0161204
1756,8334;0,0156321
1757,7976;0,0151196
1758,7618;0,0145858
1759,7261;0,0140179
1760,6903;0,0134066
1761,6545;0,012785
1762,6188;0,0122358
1763,5830;0,0118424
1764,5472;0,0116279
1765,5115;0,0115477
1766,4757;0,0115306
1767,4399;0,0115183
1768,4042;0,0114754
1769,3684;0,0113753
1770,3326;0,0111837
1771,2969;0,0108714
1772,2611;0,0104742
1773,2253;0,0101246
1774,1896;0,00995497
1775,1538;0,00997631
1776,1180;0,0100907
1777,0823;0,0101892
1778,0465;0,0102146
1779,0107;0,0101598
1779,9750;0,0100377
1780,9392;0,00985944
1781,9034;0,00963558
1782,8677;0,00938795
1783,8319;0,00916009
1784,7961;0,00901035
1785,7604;0,00898138
1786,7246;0,00906824
1787,6888;0,00922025
1788,6531;0,00937915
1789,6173;0,00951319
1790,5815;0,00960881
1791,5458;0,00964332
1792,5100;0,00961183
1793,4742;0,00957477
1794,4385;0,00959901
1795,4027;0,00967083
1796,3669;0,00972271
1797,3312;0,00971082
1798,2954;0,00964137
1799,2596;0,00953912
1800,2239;0,00940975
1801,1881;0,0092422
1802,1523;0,00903985
1803,1166;0,00883444
1804,0808;0,00867205
1805,0450;0,00859298
1806,0093;0,00861708
1806,9735;0,0087339
1807,9377;0,00889792
1808,9020;0,00903582
1809,8662;0,00907432
1810,8304;0,00898166
1811,7947;0,00878794
1812,7589;0,00855854
1813,7231;0,0083482
1814,6874;0,00818021
1815,6516;0,00805504
1816,6158;0,00796591
1817,5801;0,00790932
1818,5443;0,00788985
1819,5085;0,00791693
1820,4728;0,00799526
1821,4370;0,00811842
1822,4012;0,00826856
1823,3655;0,00841984
1824,3297;0,00854869
1825,2939;0,00864736
1826,2582;0,00872245
1827,2224;0,00877264
1828,1866;0,00876899
1829,1509;0,00866667
1830,1151;0,00845596
1831,0793;0,00820131
1832,0436;0,0080002
1833,0078;0,0079036
1833,9720;0,00789609
1834,9363;0,00793468
1835,9005;0,00798341
1836,8647;0,00802347
1837,8290;0,00804938
1838,7932;0,0080592
1839,7574;0,00804791
1840,7217;0,0080176
1841,6859;0,00799042
1842,6501;0,0079929
1843,6144;0,00802126
1844,5786;0,00804513
1845,5428;0,00805017
1846,5071;0,00803798
1847,4713;0,00799096
1848,4355;0,00787827
1849,3998;0,00769124
1850,3640;0,00745873
1851,3282;0,00723168
1852,2925;0,00705546
1853,2567;0,00695376
1854,2209;0,00693003
1855,1852;0,00697682
1856,1494;0,00707954
1857,1136;0,00721485
1858,0779;0,00734857
1859,0421;0,00744503
1860,0063;0,00748591
1860,9706;0,00748534
1861,9348;0,00748617
1862,8990;0,00753774
1863,8633;0,00767163
1864,8275;0,00789012
1865,7917;0,00815975
1866,7560;0,00839935
1867,7202;0,008489
1868,6844;0,00834698
1869,6487;0,00802138
1870,6129;0,00765629
1871,5771;0,00736288
1872,5414;0,00716148
1873,5056;0,00702109
1874,4698;0,00691216
1875,4341;0,0068248
1876,3983;0,00676275
1877,3625;0,00672965
1878,3268;0,00672296
1879,2910;0,00673387
1880,2552;0,0067535
1881,2195;0,0067777
1882,1837;0,00680702
1883,1479;0,00684273
1884,1122;0,00688302
1885,0764;0,00692245
1886,0406;0,00695424
1887,0049;0,00697164
1887,9691;0,0069676
1888,9333;0,00693889
1889,8976;0,00689621
1890,8618;0,00686658
1891,8260;0,00687703
1892,7903;0,00693282
1893,7545;0,00700826
1894,7188;0,00705473
1895,6830;0,00702376
1896,6472;0,00689732
1897,6115;0,0067038
1898,5757;0,00650295
1899,5399;0,00635085
1900,5042;0,00627135
1901,4684;0,00625054
1902,4326;0,00625524
1903,3969;0,00626359
1904,3611;0,00628488
1905,3253;0,00635156
1906,2896;0,00648755
1907,2538;0,00667528
1908,2180;0,00684732
1909,1823;0,00691733
1910,1465;0,00683671
1911,1107;0,00663046
1912,0750;0,00637823
1913,0392;0,00616271
1914,0034;0,00603322
1914,9677;0,00600093
1915,9319;0,00605076
1916,8961;0,00615661
1917,8604;0,0062957
1918,8246;0,00645241
1919,7888;0,00660462
1920,7531;0,00670944
1921,7173;0,00671134
1922,6815;0,00657238
1923,6458;0,00630321
1924,6100;0,00596842
1925,5742;0,00565518
1926,5385;0,00542874
1927,5027;0,00531029
1928,4669;0,00528441
1929,4312;0,0053159
1930,3954;0,00536278
1931,3596;0,00538462
1932,3239;0,00534802
1933,2881;0,00523565
1934,2523;0,005057
1935,2166;0,00485336
1936,1808;0,00468818
1937,1450;0,00462294
1938,1093;0,00469142
1939,0735;0,00488469
1940,0377;0,00514756
1941,0020;0,00538484
1941,9662;0,00548763
1942,9304;0,00538572
1943,8947;0,00509445
1944,8589;0,0047092
1945,8231;0,00435036
1946,7874;0,00410661
1947,7516;0,00400719
1948,7158;0,00402284
1949,6801;0,00408791
1950,6443;0,00413425
1951,6085;0,00411967
1952,5728;0,00403414
1953,5370;0,0038844
1954,5012;0,00367462
1955,4655;0,00340106
1956,4297;0,00306373
1957,3939;0,00268176
1958,3582;0,002296
1959,3224;0,00195417
1960,2866;0,00168859
1961,2509;0,0015037
1962,2151;0,00138129
1963,1793;0,00129505
1964,1436;0,00121878
1965,1078;0,00112368
1966,0720;0,000976208
1967,0363;0,000751239
1968,0005;0,000455933
1968,9647;0,000137811
1969,9290;-0,000140865
1970,8932;-0,000345823
1971,8574;-0,000496391
1972,8217;-0,000651686
1973,7859;-0,000860591
1974,7501;-0,00110575
1975,7144;-0,00128122
1976,6786;-0,00124101
1977,6428;-0,000895907
1978,6071;-0,000285341
1979,5713;0,000437651
1980,5355;0,00109144
1981,4998;0,00155003
1982,4640;0,00177879
1983,4282;0,00182276
1984,3925;0,00177086
1985,3567;0,00171658
1986,3209;0,0017282
1987,2852;0,00183619
1988,2494;0,00203675
1989,2136;0,00230333
1990,1779;0,00259718
1991,1421;0,00287449
1992,1063;0,00309205
1993,0706;0,00321269
1994,0348;0,00320992
1994,9990;0,00307449
1995,9633;0,00282499
1996,9275;0,00251652
1997,8917;0,00223437
1998,8560;0,00206376
1999,8202;0,00204534
2000,7844;0,00214503
2001,7487;0,00226464
2002,7129;0,00229262
2003,6771;0,00216668
2004,6414;0,00191243
2005,6056;0,00163326
2006,5698;0,00145325
2007,5341;0,00144342
2008,4983;0,00158071
2009,4625;0,00176633
2010,4268;0,00188257
2011,3910;0,00184574
2012,3552;0,00162936
2013,3195;0,00126234
2014,2837;0,000817456
2015,2479;0,000396729
2016,2122;0,00010857
2017,1764;3,318E-05
2018,1406;0,000188035
2019,1049;0,000516081
2020,0691;0,000908367
2021,0333;0,00124935
2021,9976;0,00146036
2022,9618;0,0015217
2023,9260;0,0014666
2024,8903;0,00135305
2025,8545;0,00122954
2026,8187;0,00111403
2027,7830;0,000996916
2028,7472;0,000864597
2029,7114;0,000727502
2030,6757;0,000633397
2031,6399;0,000653713
2032,6041;0,000845465
2033,5684;0,00121153
2034,5326;0,00168745
2035,4968;0,00217149
2036,4611;0,00258035
2037,4253;0,00289522
2038,3895;0,00316135
2039,3538;0,00344181
2040,3180;0,00375531
2041,2822;0,0040426
2042,2465;0,0041943
2043,2107;0,00413003
2044,1749;0,00387639
2045,1392;0,0035846
2046,1034;0,00346545
2047,0676;0,00367015
2048,0320;0,00419177
2048,9961;0,00486613
2049,9604;0,0054783
2050,9246;0,00588875
2051,8889;0,00608888
2052,8530;0,00616918
2053,8174;0,00624213
2054,7815;0,00637019
2055,7458;0,00653853
2056,7100;0,00667969
2057,6743;0,006729
2058,6384;0,0066702
2059,6028;0,00654382
2060,5669;0,0064213
2061,5313;0,00636758
2062,4954;0,00641397
2063,4597;0,00655095
2064,4238;0,00673772
2065,3882;0,00692028
2066,3523;0,00704993
2067,3167;0,00709724
2068,2808;0,00705865
2069,2451;0,00695549
2070,2092;0,00682645
2071,1736;0,00671608
2072,1377;0,00666111
2073,1021;0,00668036
2074,0662;0,00676866
2075,0305;0,00689824
2075,9946;0,00702792
2076,9590;0,00711911
2077,9231;0,00715225
2078,8875;0,00713547
2079,8516;0,00709892
2080,8159;0,00707709
2081,7800;0,00709012
2082,7444;0,00713659
2083,7085;0,00720205
2084,6729;0,00727476
2085,6370;0,00735601
2086,6013;0,00745501
2087,5654;0,00757405
2088,5298;0,0076971
2089,4939;0,00779427
2090,4583;0,00784074
2091,4224;0,00783593
2092,3867;0,00780649
2093,3508;0,0077884
2094,3152;0,00779936
2095,2793;0,00782225
2096,2437;0,00781494
2097,2078;0,00774208
2098,1721;0,00760656
2099,1362;0,00745586
2100,1006;0,00736012
2101,0647;0,00736524
2102,0291;0,00747713
2102,9932;0,0076495
2103,9575;0,00781062
2104,9216;0,00789945
2105,8860;0,00789321
2106,8501;0,00781282
2107,8145;0,00770661
2108,7786;0,00762427
2109,7429;0,0075958
2110,7070;0,00762438
2111,6714;0,00769281
2112,6355;0,00777607
2113,5999;0,00785204
2114,5640;0,00790626
2115,5283;0,00793218
2116,4924;0,00793023
2117,4568;0,00790804
2118,4209;0,00788033
2119,3853;0,00786534
2120,3494;0,0078766
2121,3137;0,00791322
2122,2778;0,00795545
2123,2422;0,00797057
2124,2063;0,00792793
2125,1707;0,00781496
2126,1348;0,0076443
2127,0991;0,00744701
2128,0632;0,00725634
2129,0276;0,00709295
2129,9917;0,00696095
2130,9561;0,00685547
2131,9202;0,00677383
2132,8845;0,00671952
2133,8486;0,00669497
2134,8130;0,00668941
2135,7771;0,00667469
2136,7415;0,0066168
2137,7056;0,00649656
2138,6699;0,00632371
2139,6340;0,00613308
2140,5984;0,00596541
2141,5625;0,00584548
2142,5269;0,00577142
2143,4910;0,00572032
2144,4553;0,00566499
2145,4194;0,00559095
2146,3838;0,00550412
2147,3479;0,00542608
2148,3123;0,00537961
2149,2764;0,00537116
2150,2407;0,00537785
2151,2048;0,00534622
2152,1692;0,00520695
2153,1333;0,00490314
2154,0977;0,00442221
2155,0618;0,00381681
2156,0261;0,00320142
2156,9902;0,00271483
2157,9546;0,0024531
2158,9187;0,00241162
2159,8831;0,00249566
2160,8472;0,00260345
2161,8115;0,00270389
2162,7756;0,00284288
2163,7400;0,00309022
2164,7041;0,00347608
2165,6685;0,0039556
2166,6326;0,00441777
2167,5969;0,00473228
2168,5610;0,00480793
2169,5254;0,00463388
2170,4895;0,00428868
2171,4539;0,00391653
2172,4180;0,0036778
2173,3823;0,00368681
2174,3464;0,0039604
2175,3108;0,00440693
2176,2749;0,00487067
2177,2393;0,00521055
2178,2034;0,0053656
2179,1677;0,00536844
2180,1318;0,0053049
2181,0962;0,00525155
2182,0603;0,00523401
2183,0247;0,00523128
2183,9888;0,00521547
2184,9531;0,00518819
2185,9172;0,00518273
2186,8816;0,00523603
2187,8457;0,00535999
2188,8101;0,00553698
2189,7742;0,00573905
2190,7385;0,00594907
2191,7026;0,00616294
2192,6670;0,00637255
2193,6311;0,00654915
2194,5955;0,00664753
2195,5596;0,00663211
2196,5239;0,00650532
2197,4880;0,00631472
2198,4524;0,00613184
2199,4165;0,00601775
2200,3809;0,00599919
2201,3450;0,00606849
2202,3093;0,00620065
2203,2734;0,00636968
2204,2378;0,00655134
2205,2019;0,00671559
2206,1663;0,00682344
2207,1304;0,00683908
2208,0947;0,00675342
2209,0588;0,00660143
2210,0232;0,00645608
2210,9873;0,00639633
2211,9517;0,00646581
2212,9158;0,00664734
2213,8801;0,00686968
2214,8442;0,00704272
2215,8086;0,00709997
2216,7727;0,00702472
2217,7371;0,0068493
2218,7012;0,00663429
2219,6655;0,00644374
2220,6296;0,00632873
2221,5940;0,00632063
2222,5581;0,00642812
2223,5225;0,006634
2224,4866;0,0068943
2225,4509;0,007146
2226,4150;0,00732514
2227,3794;0,0073888
2228,3435;0,00733351
2229,3079;0,00719633
2230,2720;0,00704141
2231,2363;0,00693694
2232,2004;0,00693116
2233,1648;0,00703577
2234,1289;0,00722271
2235,0933;0,00743713
2236,0574;0,00762218
2237,0217;0,00774415
2237,9858;0,00780367
2238,9502;0,00782582
2239,9143;0,00783672
2240,8787;0,00784395
2241,8428;0,00783625
2242,8071;0,0078019
2243,7712;0,00774898
2244,7356;0,00770816
2245,6997;0,00771352
2246,6641;0,00777657
2247,6282;0,00787626
2248,5925;0,00797504
2249,5566;0,00804911
2250,5210;0,0081082
2251,4851;0,00818818
2252,4495;0,00832147
2253,4136;0,00850812
2254,3779;0,00870954
2255,3420;0,00886975
2256,3064;0,00894786
2257,2705;0,00893869
2258,2349;0,00887042
2259,1990;0,00878579
2260,1633;0,00872221
2261,1274;0,0087011
2262,0918;0,00872677
2263,0559;0,00878899
2264,0203;0,0088657
2264,9844;0,00892748
2265,9487;0,00894706
2266,9128;0,0089128
2267,8772;0,00883882
2268,8413;0,00876323
2269,8057;0,00873211
2270,7698;0,0087765
2271,7341;0,0088951
2272,6982;0,00905304
2273,6626;0,00919795
2274,6267;0,00928514
2275,5911;0,00929828
2276,5552;0,0092549
2277,5195;0,00919496
2278,4836;0,00916002
2279,4480;0,0091752
2280,4121;0,00924356
2281,3765;0,00935395
2282,3406;0,00949511
2283,3049;0,00966576
2284,2690;0,00987461
2285,2334;0,0101318
2286,1975;0,0104394
2287,1619;0,0107874
2288,1260;0,0111595
2289,0903;0,0115413
2290,0544;0,0119262
2291,0188;0,0123145
2291,9829;0,0127066
2292,9473;0,0130979
2293,9114;0,0134802
2294,8757;0,0138457
2295,8398;0,0141917
2296,8042;0,0145188
2297,7683;0,0148251
2298,7327;0,0151023
2299,6968;0,015339
2300,6611;0,0155315
2301,6252;0,0156952
2302,5896;0,015867
2303,5537;0,0160944
2304,5181;0,0164155
2305,4822;0,0168371
2306,4465;0,0173221
2307,4106;0,0177933
2308,3750;0,0181555
2309,3391;0,0183288
2310,3035;0,0182801
2311,2676;0,0180396
2312,2319;0,017689
2313,1960;0,0173283
2314,1604;0,0170339
2315,1245;0,0168354
2316,0889;0,0167201
2317,0530;0,0166592
2318,0173;0,0166344
2318,9814;0,0166492
2319,9458;0,0167195
2320,9099;0,016854
2321,8743;0,0170414
2322,8384;0,0172507
2323,8027;0,0174361
2324,7668;0,0175441
2325,7312;0,0175237
2326,6953;0,0173433
2327,6597;0,0170039
2328,6238;0,0165406
2329,5881;0,0160156
2330,5522;0,0155028
2331,5166;0,0150653
2332,4807;0,0147305
2333,4451;0,0144809
2334,4092;0,0142752
2335,3735;0,0140891
2336,3376;0,0139455
2337,3020;0,013912
2338,2661;0,0140633
2339,2305;0,014426
2340,1946;0,014935
2341,1589;0,0154263
2342,1230;0,0156949
2343,0874;0,0156536
2344,0515;0,0155196
2345,0159;0,0157298
2345,9800;0,0165247
2346,9443;0,0177
2347,9084;0,0187905
2348,8728;0,0193919
2349,8369;0,0193534
2350,8013;0,0188096
2351,7654;0,0180887
2352,7297;0,0175277
2353,6938;0,0172813
2354,6582;0,0172813
2355,6223;0,0173737
2356,5867;0,0174442
2357,5508;0,0174243
2358,5151;0,017274
2359,4792;0,0170092
2360,4436;0,0167139
2361,4077;0,0164759
2362,3721;0,0163045
2363,3362;0,016126
2364,3005;0,0158581
2365,2646;0,0154792
2366,2290;0,0150306
2367,1931;0,014567
2368,1575;0,0141184
2369,1216;0,0136921
2370,0859;0,0132967
2371,0500;0,012957
2372,0144;0,0127104
2372,9785;0,0125927
2373,9429;0,0126248
2374,9070;0,0128046
2375,8713;0,0131047
2376,8354;0,0134741
2377,7998;0,0138458
2378,7639;0,0141474
2379,7283;0,0143135
2380,6924;0,0142976
2381,6567;0,0140812
2382,6208;0,0136785
2383,5852;0,013134
2384,5493;0,0125146
2385,5137;0,0118941
2386,4778;0,0113369
2387,4421;0,0108842
2388,4063;0,0105485
2389,3706;0,0103189
2390,3347;0,010172
2391,2991;0,0100844
2392,2632;0,0100391
2393,2275;0,0100263
2394,1917;0,0100391
2395,1560;0,0100689
2396,1201;0,0101045
2397,0845;0,0101348
2398,0486;0,0101543
2399,0129;0,0101622
2399,9771;0,0101619
2400,9414;0,0101588
2401,9055;0,0101549
2402,8699;0,0101493
2403,8340;0,0101398
2404,7983;0,0101272
2405,7625;0,0101178
2406,7268;0,0101215
2407,6909;0,0101462
2408,6553;0,0101921
2409,6194;0,0102476
2410,5837;0,0102947
2411,5479;0,0103175
2412,5122;0,0103116
2413,4763;0,0102857
2414,4407;0,0102566
2415,4048;0,010239
2416,3691;0,0102386
2417,3333;0,0102517
2418,2976;0,0102711
2419,2617;0,0102926
2420,2261;0,0103166
2421,1902;0,0103449
2422,1545;0,0103771
2423,1187;0,010409
2424,0830;0,0104356
2425,0471;0,0104551
2426,0115;0,0104702
2426,9756;0,0104865
2427,9399;0,0105091
2428,9041;0,0105408
2429,8684;0,0105825
2430,8325;0,010634
2431,7969;0,0106931
2432,7610;0,0107544
2433,7253;0,0108092
2434,6895;0,0108469
2435,6538;0,0108605
2436,6179;0,0108493
2437,5823;0,0108208
2438,5464;0,0107879
2439,5107;0,010765
2440,4749;0,0107641
2441,4392;0,0107906
2442,4033;0,0108417
2443,3677;0,0109065
2444,3318;0,0109693
2445,2961;0,0110162
2446,2603;0,0110415
2447,2246;0,0110506
2448,1887;0,0110568
2449,1531;0,0110731
2450,1172;0,0111058
2451,0815;0,0111517
2452,0457;0,0112018
2453,0100;0,011248
2453,9741;0,0112869
2454,9385;0,0113195
2455,9026;0,0113478
2456,8669;0,0113714
2457,8311;0,0113869
2458,7954;0,0113908
2459,7595;0,011382
2460,7239;0,011364
2461,6880;0,011344
2462,6523;0,0113304
2463,6165;0,0113301
2464,5808;0,0113467
2465,5449;0,0113792
2466,5093;0,0114229
2467,4734;0,0114703
2468,4377;0,0115136
2469,4019;0,0115467
2470,3662;0,0115664
2471,3303;0,0115729
2472,2947;0,0115698
2473,2588;0,0115632
2474,2231;0,011561
2475,1873;0,0115709
2476,1516;0,0115977
2477,1157;0,0116402
2478,0801;0,0116903
2479,0442;0,0117349
2480,0085;0,0117615
2480,9727;0,0117649
2481,9370;0,0117508
2482,9011;0,0117345
2483,8655;0,0117339
2484,8296;0,0117605
2485,7939;0,0118132
2486,7581;0,0118791
2487,7224;0,0119396
2488,6865;0,0119796
2489,6509;0,0119938
2490,6150;0,0119875
2491,5793;0,0119709
2492,5435;0,0119532
2493,5078;0,0119387
2494,4719;0,0119267
2495,4363;0,0119161
2496,4004;0,0119083
2497,3647;0,0119081
2498,3289;0,0119208
2499,2932;0,0119483
2500,2573;0,0119869
2501,2217;0,0120279
2502,1858;0,0120613
2503,1501;0,0120796
2504,1143;0,0120815
2505,0786;0,0120728
2506,0427;0,0120648
2507,0071;0,0120699
2507,9712;0,0120965
2508,9355;0,0121447
2509,8997;0,0122057
2510,8640;0,0122646
2511,8281;0,0123073
2512,7925;0,012326
2513,7566;0,0123222
2514,7209;0,0123037
2515,6851;0,0122801
2516,6494;0,0122573
2517,6135;0,0122369
2518,5779;0,0122188
2519,5420;0,012205
2520,5063;0,0122012
2521,4705;0,0122145
2522,4348;0,0122486
2523,3989;0,0123003
2524,3633;0,0123598
2525,3274;0,0124151
2526,2917;0,0124576
2527,2559;0,0124845
2528,2202;0,0124983
2529,1843;0,0125035
2530,1487;0,0125036
2531,1128;0,0125008
2532,0771;0,0124972
2533,0413;0,0124963
2534,0056;0,0125016
2534,9697;0,0125141
2535,9341;0,012531
2536,8982;0,0125462
2537,8625;0,0125546
2538,8267;0,0125545
2539,7910;0,0125489
2540,7551;0,0125425
2541,7195;0,0125382
2542,6836;0,0125353
2543,6479;0,0125307
2544,6121;0,0125225
2545,5764;0,0125124
2546,5405;0,0125065
2547,5049;0,0125119
2548,4690;0,0125334
2549,4333;0,01257
2550,3975;0,0126135
2551,3618;0,012652
2552,3259;0,0126736
2553,2903;0,0126723
2554,2544;0,0126506
2555,2188;0,0126189
2556,1829;0,0125906
2557,1472;0,012577
2558,1113;0,0125832
2559,0757;0,0126078
2560,0398;0,0126448
2561,0042;0,012686
2561,9683;0,0127223
2562,9326;0,012746
2563,8967;0,012753
2564,8611;0,0127458
2565,8252;0,0127338
2566,7896;0,01273
2567,7537;0,0127436
2568,7180;0,0127738
2569,6821;0,0128105
2570,6465;0,0128408
2571,6106;0,0128578
2572,5750;0,0128652
2573,5391;0,012873
2574,5034;0,0128886
2575,4675;0,0129105
2576,4319;0,0129291
2577,3960;0,0129352
2578,3604;0,0129285
2579,3245;0,0129193
2580,2888;0,012922
2581,2529;0,0129446
2582,2173;0,0129825
2583,1814;0,0130211
2584,1458;0,0130448
2585,1099;0,0130478
2586,0742;0,0130379
2587,0383;0,0130322
2588,0027;0,0130468
2588,9668;0,0130874
2589,9312;0,0131455
2590,8953;0,0132034
2591,8596;0,0132435
2592,8237;0,0132576
2593,7881;0,01325
2594,7522;0,0132335
2595,7166;0,0132215
2596,6807;0,013222
2597,6450;0,0132357
2598,6091;0,0132596
2599,5735;0,0132916
2600,5376;0,0133318
2601,5020;0,0133807
2602,4661;0,0134353
2603,4304;0,0134888
2604,3945;0,0135326
2605,3589;0,0135614
2606,3230;0,0135768
2607,2874;0,0135863
2608,2515;0,0135998
2609,2158;0,0136238
2610,1799;0,0136588
2611,1443;0,0136991
2612,1084;0,0137361
2613,0728;0,0137631
2614,0369;0,013779
2615,0012;0,0137889
2615,9653;0,0138013
2616,9297;0,0138235
2617,8938;0,0138575
2618,8582;0,0138988
2619,8223;0,0139396
2620,7866;0,013974
2621,7507;0,0140014
2622,7151;0,0140265
2623,6792;0,0140549
2624,6436;0,0140895
2625,6077;0,0141286
2626,5720;0,0141683
2627,5361;0,0142059
2628,5005;0,0142418
2629,4646;0,0142785
2630,4290;0,0143178
2631,3931;0,0143589
2632,3574;0,0143983
2633,3215;0,0144323
2634,2859;0,0144593
2635,2500;0,0144806
2636,2144;0,0144996
2637,1785;0,0145203
2638,1428;0,0145464
2639,1069;0,0145797
2640,0713;0,0146202
2641,0354;0,0146654
2641,9998;0,0147117
2642,9639;0,0147552
2643,9282;0,0147939
2644,8923;0,0148288
2645,8567;0,0148622
2646,8208;0,014897
2647,7852;0,0149336
2648,7493;0,0149701
2649,7136;0,015003
2650,6777;0,0150294
2651,6421;0,0150485
2652,6062;0,0150629
2653,5706;0,0150777
2654,5347;0,0150981
2655,4990;0,0151276
2656,4631;0,0151664
2657,4275;0,0152112
2658,3916;0,0152573
2659,3560;0,0153006
2660,3201;0,0153397
2661,2844;0,0153763
2662,2485;0,0154128
2663,2129;0,0154506
2664,1770;0,0154882
2665,1414;0,0155226
2666,1055;0,0155518
2667,0698;0,015577
2668,0339;0,0156033
2668,9983;0,0156362
2669,9624;0,0156782
2670,9268;0,0157262
2671,8909;0,0157725
2672,8552;0,0158087
2673,8193;0,0158312
2674,7837;0,0158431
2675,7478;0,0158525
2676,7122;0,0158681
2677,6763;0,0158941
2678,6406;0,0159291
2679,6047;0,0159677
2680,5691;0,0160048
2681,5332;0,0160384
2682,4976;0,0160698
2683,4617;0,0161018
2684,4260;0,0161355
2685,3901;0,01617
2686,3545;0,016203
2687,3186;0,0162335
2688,2830;0,0162622
2689,2471;0,0162914
2690,2114;0,0163231
2691,1755;0,016358
2692,1399;0,0163955
2693,1040;0,0164351
2694,0684;0,0164773
2695,0325;0,0165237
2695,9968;0,0165745
2696,9609;0,0166273
2697,9253;0,0166763
2698,8894;0,0167155
2699,8538;0,0167424
2700,8179;0,0167603
2701,7822;0,0167775
2702,7463;0,0168023
2703,7107;0,0168384
2704,6748;0,0168821
2705,6392;0,0169253
2706,6033;0,0169615
2707,5676;0,0169909
2708,5317;0,0170204
2709,4961;0,0170592
2710,4602;0,0171122
2711,4246;0,0171757
2712,3887;0,0172395
2713,3530;0,0172928
2714,3171;0,0173302
2715,2815;0,0173544
2716,2456;0,0173735
2717,2100;0,0173962
2718,1741;0,0174272
2719,1384;0,0174662
2720,1025;0,0175088
2721,0669;0,01755
2722,0310;0,0175859
2722,9954;0,017615
2723,9595;0,0176382
2724,9238;0,0176583
2725,8879;0,0176789
2726,8523;0,0177034
2727,8164;0,017734
2728,7808;0,0177705
2729,7449;0,0178106
2730,7092;0,0178506
2731,6733;0,0178879
2732,6377;0,0179217
2733,6018;0,0179534
2734,5662;0,0179857
2735,5303;0,0180197
2736,4946;0,0180542
2737,4587;0,018085
2738,4231;0,0181083
2739,3872;0,0181225
2740,3516;0,018131
2741,3157;0,0181405
2742,2800;0,0181576
2743,2441;0,0181851
2744,2085;0,0182198
2745,1726;0,0182543
2746,1370;0,0182811
2747,1011;0,0182974
2748,0654;0,0183064
2749,0295;0,0183159
2749,9939;0,0183344
2750,9580;0,018367
2751,9224;0,0184134
2752,8865;0,0184686
2753,8508;0,0185255
2754,8149;0,0185778
2755,7793;0,0186214
2756,7434;0,0186551
2757,7078;0,0186804
2758,6719;0,0187003
2759,6362;0,0187191
2760,6003;0,018741
2761,5647;0,0187689
2762,5288;0,0188036
2763,4932;0,0188434
2764,4573;0,0188852
2765,4216;0,0189267
2766,3857;0,0189679
2767,3501;0,0190114
2768,3142;0,0190604
2769,2786;0,0191163
2770,2427;0,0191767
2771,2070;0,0192368
2772,1711;0,0192917
2773,1355;0,0193394
2774,0996;0,0193822
2775,0640;0,0194249
2776,0281;0,0194713
2776,9924;0,0195228
2777,9565;0,0195777
2778,9209;0,0196335
2779,8850;0,019689
2780,8494;0,0197454
2781,8135;0,0198045
2782,7778;0,0198669
2783,7419;0,0199309
2784,7063;0,0199929
2785,6704;0,02005
2786,6348;0,0201021
2787,5989;0,0201521
2788,5632;0,0202053
2789,5273;0,0202666
2790,4917;0,0203385
2791,4558;0,0204204
2792,4202;0,0205092
2793,3843;0,0206006
2794,3486;0,0206912
2795,3127;0,0207787
2796,2771;0,0208634
2797,2412;0,0209469
2798,2056;0,0210319
2799,1697;0,0211211
2800,1340;0,0212163
2801,0981;0,0213182
2802,0625;0,0214264
2803,0266;0,0215388
2803,9910;0,0216523
2804,9551;0,0217632
2805,9194;0,0218682
2806,8835;0,0219659
2807,8479;0,0220577
2808,8120;0,0221476
2809,7764;0,0222411
2810,7405;0,0223436
2811,7048;0,0224588
2812,6689;0,0225887
2813,6333;0,0227324
2814,5974;0,0228871
2815,5618;0,0230479
2816,5259;0,0232094
2817,4902;0,0233672
2818,4543;0,0235203
2819,4187;0,0236718
2820,3828;0,0238268
2821,3472;0,0239897
2822,3113;0,0241615
2823,2756;0,0243404
2824,2397;0,0245234
2825,2041;0,0247095
2826,1682;0,024901
2827,1326;0,025102
2828,0967;0,0253162
2829,0610;0,0255457
2830,0251;0,025791
2830,9895;0,0260522
2831,9536;0,0263294
2832,9180;0,0266218
2833,8821;0,0269264
2834,8464;0,0272391
2835,8105;0,027557
2836,7749;0,0278822
2837,7390;0,0282224
2838,7034;0,0285902
2839,6675;0,0289989
2840,6318;0,0294594
2841,5959;0,0299778
2842,5603;0,0305549
2843,5244;0,0311853
2844,4888;0,0318539
2845,4529;0,0325344
2846,4172;0,0331889
2847,3813;0,0337735
2848,3457;0,0342486
2849,3098;0,0345895
2850,2742;0,0347926
2851,2383;0,0348745
2852,2026;0,0348641
2853,1667;0,0347929
2854,1311;0,0346869
2855,0952;0,0345639
2856,0596;0,0344348
2857,0237;0,034308
2857,9880;0,0341918
2858,9521;0,0340959
2859,9165;0,0340304
2860,8806;0,0340033
2861,8450;0,0340197
2862,8091;0,0340809
2863,7734;0,0341848
2864,7375;0,034326
2865,7019;0,0344958
2866,6660;0,0346818
2867,6304;0,0348687
2868,5945;0,0350411
2869,5588;0,0351864
2870,5229;0,0352992
2871,4873;0,0353819
2872,4514;0,0354442
2873,4158;0,035498
2874,3799;0,0355534
2875,3442;0,0356152
2876,3083;0,0356832
2877,2727;0,0357541
2878,2368;0,0358249
2879,2012;0,0358951
2880,1653;0,0359663
2881,1296;0,036042
2882,0938;0,0361255
2883,0581;0,0362189
2884,0222;0,0363225
2884,9866;0,0364343
2885,9507;0,0365511
2886,9150;0,0366697
2887,8792;0,0367886
2888,8435;0,0369095
2889,8076;0,0370356
2890,7720;0,0371703
2891,7361;0,0373136
2892,7004;0,0374618
2893,6646;0,0376086
2894,6289;0,0377486
2895,5930;0,03788
2896,5574;0,0380052
2897,5215;0,0381277
2898,4858;0,0382487
2899,4500;0,0383657
2900,4143;0,0384739
2901,3784;0,0385709
2902,3428;0,0386612
2903,3069;0,0387563
2904,2712;0,0388712
2905,2354;0,0390182
2906,1997;0,0392025
2907,1638;0,0394223
2908,1282;0,0396732
2909,0923;0,0399534
2910,0566;0,0402654
2911,0208;0,0406116
2911,9851;0,0409871
2912,9492;0,0413748
2913,9136;0,041745
2914,8777;0,0420639
2915,8420;0,0423035
2916,8062;0,0424494
2917,7705;0,0425023
2918,7346;0,0424735
2919,6990;0,0423774
2920,6631;0,0422263
2921,6274;0,0420284
2922,5916;0,0417887
2923,5559;0,0415105
2924,5200;0,0411968
2925,4844;0,0408512
2926,4485;0,0404792
2927,4128;0,0400892
2928,3770;0,0396925
2929,3413;0,0393008
2930,3054;0,0389218
2931,2698;0,0385564
2932,2339;0,0381981
2933,1982;0,0378377
2934,1624;0,0374688
2935,1267;0,037092
2936,0908;0,036714
2937,0552;0,0363436
2938,0193;0,0359864
2938,9836;0,0356416
2939,9478;0,0353028
2940,9121;0,0349623
2941,8762;0,0346152
2942,8406;0,034262
2943,8047;0,0339088
2944,7690;0,033565
2945,7332;0,0332401
2946,6975;0,0329412
2947,6616;0,0326708
2948,6260;0,0324265
2949,5901;0,0322014
2950,5544;0,031987
2951,5186;0,031776
2952,4829;0,0315641
2953,4470;0,0313503
2954,4114;0,0311348
2955,3755;0,030917
2956,3398;0,030695
2957,3040;0,0304678
2958,2683;0,030238
2959,2324;0,0300134
2960,1968;0,0298038
2961,1609;0,0296151
2962,1252;0,0294442
2963,0894;0,0292775
2964,0537;0,0290973
2965,0178;0,0288908
2965,9822;0,0286571
2966,9463;0,0284083
2967,9106;0,0281631
2968,8748;0,0279371
2969,8391;0,0277359
2970,8032;0,0275541
2971,7676;0,0273807
2972,7317;0,0272056
2973,6960;0,0270254
2974,6602;0,0268432
2975,6245;0,0266656
2976,5886;0,0264981
2977,5530;0,0263419
2978,5171;0,0261945
2979,4814;0,026052
2980,4456;0,0259131
2981,4099;0,0257807
2982,3740;0,0256615
2983,3384;0,0255629
2984,3025;0,0254885
2985,2668;0,0254351
2986,2310;0,0253939
2987,1953;0,025354
2988,1594;0,0253082
2989,1238;0,0252568
2990,0879;0,0252075
2991,0522;0,02517
2992,0164;0,0251501
2992,9807;0,025145
2993,9448;0,0251445
2994,9092;0,0251369
2995,8733;0,0251169
2996,8376;0,0250906
2997,8018;0,0250739
2998,7661;0,0250846
2999,7302;0,0251332
3000,6946;0,0252162
3001,6587;0,0253172
3002,6230;0,0254154
3003,5872;0,0254952
3004,5515;0,0255543
3005,5156;0,0256024
3006,4800;0,0256542
3007,4441;0,0257203
3008,4084;0,0258014
3009,3726;0,0258891
3010,3369;0,0259712
3011,3010;0,0260376
3012,2654;0,0260845
3013,2295;0,0261139
3014,1938;0,0261315
3015,1580;0,0261437
3016,1223;0,0261573
3017,0864;0,0261789
3018,0508;0,0262158
3019,0149;0,0262738
3019,9792;0,0263551
3020,9434;0,0264562
3021,9077;0,0265682
3022,8718;0,0266803
3023,8362;0,0267854
3024,8003;0,0268859
3025,7646;0,0269929
3026,7288;0,0271211
3027,6931;0,0272783
3028,6572;0,0274581
3029,6216;0,0276392
3030,5857;0,0277941
3031,5500;0,0279029
3032,5142;0,0279637
3033,4785;0,0279929
3034,4426;0,0280158
3035,4070;0,028053
3036,3711;0,0281133
3037,3354;0,0281942
3038,2996;0,0282885
3039,2639;0,0283906
3040,2280;0,0284991
3041,1924;0,0286149
3042,1565;0,0287392
3043,1208;0,0288727
3044,0850;0,0290165
3045,0493;0,0291714
3046,0134;0,0293362
3046,9778;0,0295044
3047,9419;0,0296654
3048,9063;0,0298091
3049,8704;0,0299333
3050,8347;0,0300465
3051,7988;0,0301642
3052,7632;0,0302997
3053,7273;0,0304556
3054,6917;0,0306223
3055,6558;0,0307846
3056,6201;0,0309321
3057,5842;0,0310669
3058,5486;0,0312022
3059,5127;0,0313538
3060,4771;0,0315296
3061,4412;0,0317241
3062,4055;0,0319201
3063,3696;0,0320972
3064,3340;0,0322411
3065,2981;0,0323498
3066,2625;0,0324334
3067,2266;0,0325088
3068,1909;0,0325921
3069,1550;0,0326929
3070,1194;0,0328135
3071,0835;0,0329503
3072,0479;0,0330982
3073,0120;0,0332544
3073,9763;0,0334189
3074,9404;0,0335935
3075,9048;0,0337785
3076,8689;0,0339693
3077,8333;0,0341566
3078,7974;0,0343286
3079,7617;0,0344763
3080,7258;0,0345984
3081,6902;0,0347029
3082,6543;0,034804
3083,6187;0,0349153
3084,5828;0,0350437
3085,5471;0,0351866
3086,5112;0,0353343
3087,4756;0,0354766
3088,4397;0,03561
3089,4041;0,0357397
3090,3682;0,0358771
3091,3325;0,0360322
3092,2966;0,0362072
3093,2610;0,0363963
3094,2251;0,0365896
3095,1895;0,0367799
3096,1536;0,0369661
3097,1179;0,0371507
3098,0820;0,0373336
3099,0464;0,0375082
3100,0105;0,0376634
3100,9749;0,0377919
3101,9390;0,0378975
3102,9033;0,0379965
3103,8674;0,0381103
3104,8318;0,0382531
3105,7959;0,0384252
3106,7603;0,038614
3107,7244;0,038804
3108,6887;0,0389874
3109,6528;0,0391684
3110,6172;0,0393582
3111,5813;0,0395649
3112,5457;0,0397856
3113,5098;0,0400072
3114,4741;0,0402147
3115,4382;0,0404017
3116,4026;0,0405738
3117,3667;0,0407437
3118,3311;0,0409212
3119,2952;0,0411061
3120,2595;0,0412883
3121,2236;0,0414561
3122,1880;0,0416035
3123,1521;0,0417343
3124,1165;0,0418589
3125,0806;0,0419889
3126,0449;0,0421331
3127,0090;0,0422973
3127,9734;0,0424849
3128,9375;0,0426965
3129,9019;0,0429269
3130,8660;0,0431633
3131,8303;0,043387
3132,7944;0,0435807
3133,7588;0,0437367
3134,7229;0,0438613
3135,6873;0,0439721
3136,6514;0,044091
3137,6157;0,0442347
3138,5798;0,0444104
3139,5442;0,0446143
3140,5083;0,0448352
3141,4727;0,0450596
3142,4368;0,0452772
3143,4011;0,0454847
3144,3652;0,0456857
3145,3296;0,0458871
3146,2937;0,0460937
3147,2581;0,0463044
3148,2222;0,0465127
3149,1865;0,0467111
3150,1506;0,0468969
3151,1150;0,0470737
3152,0791;0,0472492
3153,0435;0,0474297
3154,0076;0,0476173
3154,9719;0,0478101
3155,9360;0,0480059
3156,9004;0,048205
3157,8645;0,0484098
3158,8289;0,0486217
3159,7930;0,0488391
3160,7573;0,0490575
3161,7214;0,0492717
3162,6858;0,0494793
3163,6499;0,0496812
3164,6143;0,0498811
3165,5784;0,0500827
3166,5427;0,0502882
3167,5068;0,0504967
3168,4712;0,0507057
3169,4353;0,0507443
3170,3997;0,0509478
3171,3638;0,0511512
3172,3281;0,0513585
3173,2922;0,0515737
3174,2566;0,0517966
3175,2207;0,052022
3176,1851;0,0522406
3177,1492;0,0524441
3178,1135;0,0526301
3179,0776;0,0528038
3180,0420;0,0529739
3181,0061;0,0531472
3181,9705;0,0533244
3182,9346;0,0535016
3183,8989;0,0536744
3184,8630;0,0538426
3185,8274;0,0540102
3186,7915;0,0541832
3187,7559;0,0543652
3188,7200;0,0545557
3189,6843;0,0547526
3190,6484;0,0549542
3191,6128;0,0551608
3192,5769;0,0553732
3193,5413;0,0555893
3194,5054;0,0558033
3195,4697;0,056007
3196,4338;0,0561934
3197,3982;0,056361
3198,3623;0,0565138
3199,3267;0,0566595
3200,2908;0,0568053
3201,2551;0,056955
3202,2192;0,0571098
3203,1836;0,0572696
3204,1477;0,0574354
3205,1121;0,0576095
3206,0762;0,0577946
3207,0405;0,0579911
3208,0046;0,0581962
3208,9690;0,0584041
3209,9331;0,0586075
3210,8975;0,0588
3211,8616;0,0589783
3212,8259;0,0591426
3213,7900;0,0592967
3214,7544;0,059446
3215,7185;0,0595961
3216,6829;0,0597505
3217,6470;0,0599095
3218,6113;0,0600705
3219,5754;0,0602291
3220,5398;0,0603817
3221,5039;0,0605276
3222,4683;0,0606704
3223,4324;0,0608162
3224,3967;0,0609712
3225,3608;0,0611381
3226,3252;0,0613152
3227,2893;0,0614961
3228,2537;0,061673
3229,2178;0,0618405
3230,1821;0,0619976
3231,1462;0,062147
3232,1106;0,0622924
3233,0747;0,0624352
3234,0391;0,0625746
3235,0032;0,0627094
3235,9675;0,0628413
3236,9316;0,062977
3237,8960;0,0631263
3238,8601;0,063298
3239,8245;0,0634948
3240,7886;0,0637108
3241,7529;0,0639332
3242,7170;0,0641465
3243,6814;0,0643375
3244,6455;0,0645003
3245,6099;0,0646376
3246,5740;0,0647601
3247,5383;0,0648816
3248,5024;0,0650149
3249,4668;0,0651678
3250,4309;0,0653405
3251,3953;0,0655268
3252,3594;0,0657162
3253,3237;0,0658993
3254,2878;0,066072
3255,2522;0,0662374
3256,2163;0,0664029
3257,1807;0,066575
3258,1448;0,0667552
3259,1091;0,0669393
3260,0732;0,0671208
3261,0376;0,0672952
3262,0017;0,067462
3262,9661;0,0676233
3263,9302;0,067781
3264,8945;0,0679345
3265,8586;0,0680818
3266,8230;0,0682223
3267,7871;0,0683594
3268,7515;0,0684988
3269,7156;0,0686441
3270,6799;0,068793
3271,6440;0,0689356
3272,6084;0,0690586
3273,5725;0,0691505
3274,5369;0,0692079
3275,5010;0,0692374
3276,4653;0,0692532
3277,4294;0,0692722
3278,3938;0,0693075
3279,3579;0,0693639
3280,3223;0,0694368
3281,2864;0,0695152
3282,2507;0,0695871
3283,2148;0,0696459
3284,1792;0,0696925
3285,1433;0,0697324
3286,1077;0,0697712
3287,0718;0,0698093
3288,0361;0,0698433
3289,0002;0,0698689
3289,9646;0,0698855
3290,9287;0,0698965
3291,8931;0,0699064
3292,8572;0,0699155
3293,8215;0,0699204
3294,7856;0,0699163
3295,7500;0,0699023
3296,7141;0,0698835
3297,6785;0,0698674
3298,6426;0,0698583
3299,6069;0,0698541
3300,5710;0,0698479
3301,5354;0,0698356
3302,4995;0,06982
3303,4639;0,0698111
3304,4280;0,0698195
3305,3923;0,0698483
3306,3564;0,06989
3307,3208;0,0699294
3308,2849;0,0699517
3309,2493;0,0699498
3310,2134;0,0699266
3311,1777;0,0698917
3312,1418;0,069857
3313,1062;0,0698327
3314,0703;0,0698263
3315,0347;0,0698427
3315,9988;0,069884
3316,9631;0,0699486
3317,9272;0,0700319
3318,8916;0,0701279
3319,8557;0,070232
3320,8201;0,0703425
3321,7842;0,0704593
3322,7485;0,0705816
3323,7126;0,070705
3324,6770;0,0708227
3325,6411;0,0709278
3326,6055;0,0710168
3327,5696;0,0710906
3328,5339;0,0711541
3329,4980;0,0712131
3330,4624;0,0712724
3331,4265;0,071334
3332,3909;0,0713963
3333,3550;0,0714528
3334,3193;0,0714928
3335,2834;0,0715034
3336,2478;0,0714751
3337,2119;0,0714065
3338,1763;0,0713052
3339,1404;0,0711842
3340,1047;0,0710558
3341,0688;0,0709257
3342,0332;0,0707938
3342,9973;0,0706562
3343,9617;0,0705101
3344,9258;0,0703556
3345,8901;0,0701952
3346,8542;0,0700318
3347,8186;0,0698677
3348,7827;0,0697051
3349,7471;0,0695472
3350,7112;0,0693972
3351,6755;0,0692567
3352,6396;0,0691229
3353,6040;0,0689889
3354,5681;0,0688462
3355,5325;0,0686891
3356,4966;0,0685176
3357,4609;0,0683384
3358,4250;0,0681614
3359,3894;0,0679963
3360,3535;0,0678491
3361,3179;0,0677199
3362,2820;0,0676033
3363,2463;0,0674891
3364,2104;0,067365
3365,1748;0,0672195
3366,1389;0,0670456
3367,1033;0,066843
3368,0674;0,0666193
3369,0317;0,0663868
3369,9958;0,0661583
3370,9602;0,0659425
3371,9243;0,0657421
3372,8887;0,0655542
3373,8528;0,0653735
3374,8171;0,0651953
3375,7813;0,0650171
3376,7456;0,064839
3377,7097;0,0646627
3378,6741;0,0644909
3379,6382;0,0643266
3380,6025;0,0641721
3381,5667;0,0640269
3382,5310;0,0638855
3383,4951;0,0637389
3384,4595;0,0635792
3385,4236;0,0634063
3386,3879;0,0632311
3387,3521;0,0630703
3388,3164;0,0629367
3389,2805;0,0628297
3390,2449;0,062733
3391,2090;0,0626222
3392,1733;0,0624782
3393,1375;0,0622972
3394,1018;0,0620902
3395,0659;0,0618728
3396,0303;0,0616547
3396,9944;0,0614368
3397,9587;0,0612157
3398,9229;0,0609904
3399,8872;0,0607649
3400,8513;0,060545
3401,8157;0,0603325
3402,7798;0,0601235
3403,7441;0,059911
3404,7083;0,0596912
3405,6726;0,0594658
3406,6367;0,0592409
3407,6011;0,059022
3408,5652;0,0588088
3409,5295;0,0585952
3410,4937;0,0583725
3411,4580;0,0581352
3412,4221;0,0578857
3413,3865;0,0576355
3414,3506;0,0574002
3415,3149;0,0571925
3416,2791;0,0570154
3417,2434;0,0568574
3418,2075;0,0566943
3419,1719;0,0564974
3420,1360;0,0562463
3421,1003;0,0559389
3422,0645;0,0555928
3423,0288;0,0552358
3423,9929;0,0548937
3424,9573;0,0545812
3425,9214;0,0543013
3426,8857;0,0540478
3427,8499;0,05381
3428,8142;0,0535759
3429,7783;0,0533341
3430,7427;0,0530753
3431,7068;0,0527933
3432,6711;0,0524871
3433,6353;0,0521622
3434,5996;0,0518309
3435,5637;0,0515093
3436,5281;0,0512126
3437,4922;0,05095
3438,4565;0,0507225
3439,4207;0,0505244
3440,3850;0,0503478
3441,3491;0,0501845
3442,3135;0,0500262
3443,2776;0,0498602
3444,2419;0,0496661
3445,2061;0,0494179
3446,1704;0,049094
3447,1345;0,0486922
3448,0989;0,0482368
3449,0630;0,0477706
3450,0273;0,047336
3450,9915;0,0469593
3451,9558;0,0466457
3452,9199;0,0463831
3453,8843;0,0461503
3454,8484;0,0459253
3455,8127;0,0456939
3456,7769;0,045452
3457,7412;0,0452029
3458,7053;0,0449514
3459,6697;0,0446989
3460,6338;0,0444414
3461,5981;0,0441725
3462,5623;0,0438873
3463,5266;0,0435849
3464,4907;0,0432673
3465,4551;0,0429377
3466,4192;0,0426002
3467,3835;0,0422614
3468,3477;0,041932
3469,3120;0,0416244
3470,2761;0,0413454
3471,2405;0,0410905
3472,2046;0,0408433
3473,1689;0,0405853
3474,1331;0,0403102
3475,0974;0,0400328
3476,0615;0,0397833
3477,0259;0,0395881
3477,9900;0,0394498
3478,9543;0,0393398
3479,9185;0,0392087
3480,8828;0,0390112
3481,8469;0,038732
3482,8113;0,0383929
3483,7754;0,0380347
3484,7397;0,0376896
3485,7039;0,0373663
3486,6682;0,0370546
3487,6323;0,0367419
3488,5967;0,0364283
3489,5608;0,03613
3490,5251;0,0358684
3491,4893;0,035654
3492,4536;0,0354771
3493,4177;0,0353111
3494,3821;0,0351276
3495,3462;0,0349155
3496,3105;0,0346937
3497,2747;0,0345028
3498,2390;0,0343792
3499,2031;0,0343272
3500,1675;0,0343048
3501,1316;0,0342332
3502,0959;0,0340345
3503,0601;0,0336852
3504,0244;0,0332403
3504,9885;0,0327983
3505,9529;0,0324357
3506,9170;0,0321666
3507,8813;0,0319451
3508,8455;0,0316989
3509,8098;0,0313756
3510,7739;0,030976
3511,7383;0,0305497
3512,7024;0,0301566
3513,6667;0,0298318
3514,6309;0,0295776
3515,5952;0,0293785
3516,5593;0,029223
3517,5237;0,0291149
3518,4878;0,0290685
3519,4521;0,0290913
3520,4163;0,0291672
3521,3806;0,0292529
3522,3447;0,0292905
3523,3091;0,0292323
3524,2732;0,0290593
3525,2375;0,0287804
3526,2017;0,0284152
3527,1660;0,02798
3528,1301;0,0274905
3529,0945;0,0269756
3530,0586;0,0264832
3531,0229;0,0260635
3531,9871;0,0257476
3532,9514;0,0255312
3533,9155;0,0253731
3534,8799;0,0252102
3535,8440;0,0249868
3536,8083;0,0246903
3537,7725;0,0243654
3538,7368;0,0240937
3539,7009;0,0239512
3540,6653;0,0239736
3541,6294;0,0241404
3542,5938;0,0243703
3543,5579;0,0245326
3544,5222;0,0244932
3545,4863;0,0241932
3546,4507;0,0236987
3547,4148;0,0231574
3548,3792;0,0226972
3549,3433;0,0223616
3550,3076;0,0221114
3551,2717;0,0218661
3552,2361;0,0215572
3553,2002;0,0211751
3554,1646;0,0207745
3555,1287;0,0204321
3556,0930;0,0201982
3557,0571;0,020081
3558,0215;0,0200591
3558,9856;0,0201041
3559,9500;0,0201993
3560,9141;0,0203463
3561,8784;0,0205527
3562,8425;0,0208107
3563,8069;0,0210682
3564,7710;0,0211908
3565,7354;0,0209693
3566,6995;0,020273
3567,6638;0,0192523
3568,6279;0,0182585
3569,5923;0,0175354
3570,5564;0,0170944
3571,5208;0,016824
3572,4849;0,0166178
3573,4492;0,0164236
3574,4133;0,0162349
3575,3777;0,0160642
3576,3418;0,0159212
3577,3062;0,0158039
3578,2703;0,0157039
3579,2346;0,015619
3580,1987;0,0155578
3581,1631;0,0155337
3582,1272;0,0155522
3583,0916;0,0156059
3584,0557;0,0156724
3585,0200;0,0156957
3585,9841;0,0155733
3586,9485;0,0152272
3587,9126;0,0147418
3588,8770;0,0143404
3589,8411;0,014176
3590,8054;0,0142267
3591,7695;0,0143714
3592,7339;0,0144864
3593,6980;0,0144899
3594,6624;0,0143623
3595,6265;0,014148
3596,5908;0,0139129
3597,5549;0,0136829
3598,5193;0,0134281
3599,4834;0,0131057
3600,4478;0,0127156
3601,4119;0,0123173
3602,3762;0,0119848
3603,3403;0,0117494
3604,3047;0,0115854
3605,2688;0,0114316
3606,2332;0,0112191
3607,1973;0,0109064
3608,1616;0,0105235
3609,1257;0,0101791
3610,0901;0,0099914
3611,0542;0,0100028
3612,0186;0,0101553
3612,9827;0,0103303
3613,9470;0,010412
3614,9111;0,0103339
3615,8755;0,0100885
3616,8396;0,00970838
3617,8040;0,00924473
3618,7681;0,00877132
3619,7324;0,00840271
3620,6965;0,00825698
3621,6609;0,00835333
3622,6250;0,00857099
3623,5894;0,00872749
3624,5535;0,00868919
3625,5178;0,00842725
3626,4819;0,00799009
3627,4463;0,00742466
3628,4104;0,00678229
3629,3748;0,00623592
3630,3389;0,00598659
3631,3032;0,00601092
3632,2673;0,00609215
3633,2317;0,00603559
3634,1958;0,00578747
3635,1602;0,00542074
3636,1243;0,00505539
3637,0886;0,00477799
3638,0527;0,00460915
3639,0171;0,00452551
3639,9812;0,00450007
3640,9456;0,00452042
3641,9097;0,00457699
3642,8740;0,00464571
3643,8381;0,00469506
3644,8025;0,00471751
3645,7666;0,00474001
3646,7310;0,00474003
3647,6951;0,0044921
3648,6594;0,00370571
3649,6235;0,00258562
3650,5879;0,00174242
3651,5520;0,00141926
3652,5164;0,00138837
3653,4805;0,00134848
3654,4448;0,00115879
3655,4089;0,000853481
3656,3733;0,000561782
3657,3374;0,000402118
3658,3018;0,00039679
3659,2659;0,000469069
3660,2302;0,000524803
3661,1943;0,0005322
3662,1587;0,000527994
3663,1228;0,00055841
3664,0872;0,000618583
3665,0513;0,000658233
3666,0156;0,000639301
3666,9797;0,000585123
3667,9441;0,000553911
3668,9082;0,000562257
3669,8726;0,000572756
3670,8367;0,000551017
3671,8010;0,000476867
3672,7651;0,000337199
3673,7295;0,000144453
3674,6936;-7,31543E-05
3675,6580;-0,000274343
3676,6221;-0,000366951
3677,5864;-0,000276186
3678,5505;-5,6567E-05
3679,5149;0,000166954
3680,4790;0,000324149
3681,4434;0,000426083
3682,4075;0,00050348
3683,3718;0,000545844
3684,3359;0,00050559
3685,3003;0,000360846
3686,2644;0,000172062
3687,2288;5,86421E-05
3688,1929;8,77532E-05
3689,1572;0,000212145
3690,1213;0,0003739
3691,0857;0,000578591
3692,0498;0,000820246
3693,0142;0,00104949
3693,9783;0,00122232
3694,9426;0,00132734
3695,9067;0,00137086
3696,8711;0,00135609
3697,8352;0,00128167
3698,7996;0,00115541
3699,7637;0,00100519
3700,7280;0,00087704
3701,6921;0,00082498
3702,6565;0,000891598
3703,6206;0,00107694
3704,5850;0,00132352
3705,5491;0,00154638
3706,5134;0,00168454
3707,4775;0,00172412
3708,4419;0,00166307
3709,4060;0,00144318
3710,3704;0,000971734
3711,3345;0,000309841
3712,2988;-0,000254656
3713,2629;-0,000470666
3714,2273;-0,000335081
3715,1914;-5,86591E-06
3716,1558;0,000365939
3717,1199;0,00071464
3718,0842;0,00105009
3719,0483;0,00140822
3720,0127;0,00180478
3720,9768;0,0022175
3721,9412;0,00259649
3722,9053;0,00288624
3723,8696;0,00304584
3724,8337;0,00306619
3725,7981;0,00297477
3726,7622;0,00281472
3727,7266;0,00261612
3728,6907;0,00239731
3729,6550;0,0021961
3730,6191;0,00208936
3731,5835;0,0021591
3732,5476;0,00239638
3733,5120;0,00261502
3734,4761;0,00255512
3735,4404;0,00219669
3736,4045;0,00184027
3737,3689;0,0017358
3738,3330;0,00180598
3739,2974;0,00176192
3740,2615;0,00134915
3741,2258;0,000509077
3742,1899;-0,000568431
3743,1543;-0,00150943
3744,1184;-0,00195282
3745,0828;-0,00179019
3746,0469;-0,00124346
3747,0112;-0,000692817
3747,9753;-0,000433659
3748,9397;-0,000568237
3749,9038;-0,00102116
3750,8682;-0,00154462
3751,8323;-0,00177904
3752,7966;-0,00154138
3753,7607;-0,000993284
3754,7251;-0,00044133
3755,6892;-0,000100129
3756,6536;-3,04003E-05
3757,6177;-0,000182876
3758,5820;-0,000447532
3759,5461;-0,000689835
3760,5105;-0,00080914
3761,4746;-0,00079068
3762,4390;-0,000692136
3763,4031;-0,00058905
3764,3674;-0,000536892
3765,3315;-0,000562228
3766,2959;-0,000666434
3767,2600;-0,000831664
3768,2244;-0,00102849
3769,1885;-0,00122089
3770,1528;-0,00136501
3771,1169;-0,00141769
3772,0813;-0,00136315
3773,0454;-0,00123368
3774,0098;-0,00109311
3774,9739;-0,00099619
3775,9382;-0,000960483
3776,9023;-0,000971225
3777,8667;-0,0010022
3778,8308;-0,00101955
3779,7952;-0,000979244
3780,7593;-0,000852777
3781,7236;-0,000661636
3782,6877;-0,000474648
3783,6521;-0,00037197
3784,6162;-0,000403786
3785,5806;-0,000561478
3786,5447;-0,000780033
3787,5090;-0,00097503
3788,4731;-0,00109104
3789,4375;-0,00112476
3790,4016;-0,00110865
3791,3660;-0,00107169
3792,3301;-0,00100795
3793,2944;-0,000878879
3794,2585;-0,000652776
3795,2229;-0,000352572
3796,1870;-6,53574E-05
3797,1514;0,000103049
3798,1155;9,20029E-05
3799,0798;-8,3674E-05
3800,0439;-0,00035299
3801,0083;-0,000629413
3801,9724;-0,00084827
3802,9368;-0,00100983
3803,9009;-0,00118942
3804,8652;-0,00146606
3805,8293;-0,00182363
3806,7937;-0,00212167
3807,7578;-0,00217852
3808,7222;-0,00192534
3809,6863;-0,00148854
3810,6506;-0,00110166
3811,6147;-0,000936672
3812,5791;-0,000998665
3813,5432;-0,00113846
3814,5076;-0,0011654
3815,4717;-0,000984368
3816,4360;-0,000651344
3817,4001;-0,000320112
3818,3645;-0,000148284
3819,3286;-0,000223122
3820,2930;-0,000508135
3821,2571;-0,00082688
3822,2214;-0,000963666
3823,1855;-0,000842109
3824,1499;-0,000571978
3825,1140;-0,000329956
3826,0784;-0,000233747
3827,0425;-0,000297859
3828,0068;-0,000456205
3828,9709;-0,000614368
3829,9353;-0,000701169
3830,8994;-0,000696961
3831,8638;-0,000630879
3832,8279;-0,000553861
3833,7922;-0,00050292
3834,7563;-0,000476391
3835,7207;-0,000439555
3836,6848;-0,000363108
3837,6492;-0,00026125
3838,6133;-0,000180636
3839,5776;-0,000158332
3840,5417;-0,000208203
3841,5061;-0,000328696
3842,4702;-0,000488532
3843,4346;-0,000610243
3844,3987;-0,000597057
3845,3630;-0,000403152
3846,3271;-9,23862E-05
3847,2915;0,000169035
3848,2556;0,000184928
3849,2200;-0,000178231
3850,1841;-0,000922918
3851,1484;-0,00191393
3852,1125;-0,00293897
3853,0769;-0,00371249
3854,0410;-0,00384904
3855,0054;-0,00319715
3855,9695;-0,00209187
3856,9338;-0,00102794
3857,8979;-0,00031232
3858,8623;5,29355E-06
3859,8264;5,48752E-05
3860,7908;2,67888E-05
3861,7549;4,90078E-05
3862,7192;0,000119179
3863,6833;0,000152621
3864,6477;9,14929E-05
3865,6118;-4,99797E-05
3866,5762;-0,000213637
3867,5403;-0,000332819
3868,5046;-0,000362942
3869,4688;-0,00031344
3870,4331;-0,000249558
3871,3972;-0,000241065
3872,3616;-0,000307325
3873,3257;-0,000418357
3874,2900;-0,000533676
3875,2542;-0,000625746
3876,2185;-0,000672617
3877,1826;-0,000645525
3878,1470;-0,000517702
3879,1111;-0,000299536
3880,0754;-6,41384E-05
3881,0396;7,84515E-05
3882,0039;4,33562E-05
3882,9680;-0,000184287
3883,9324;-0,000540944
3884,8965;-0,000905026
3885,8608;-0,00114882
3886,8250;-0,00120758
3887,7893;-0,00110986
3888,7534;-0,000937227
3889,7178;-0,000761195
3890,6819;-0,000614828
3891,6462;-0,000493472
3892,6104;-0,000364478
3893,5747;-0,000206122
3894,5388;-4,78282E-05
3895,5032;5,59611E-05
3896,4673;8,83196E-05
3897,4316;8,84428E-05
3898,3958;0,000108622
3899,3601;0,00016148
3900,3242;0,000210401
3901,2886;0,000200326
3902,2527;8,71305E-05
3903,2170;-0,000138864
3904,1812;-0,000433187
3905,1455;-0,000716236
3906,1096;-0,000930821
3907,0740;-0,00107318
3908,0381;-0,00116853
3909,0024;-0,00123233
3909,9666;-0,00125715
3910,9309;-0,00122614
3911,8950;-0,00113224
3912,8594;-0,000986355
3913,8235;-0,000813551
3914,7878;-0,000647159
3915,7520;-0,000524006
3916,7163;-0,000469433
3917,6804;-0,0004699
3918,6448;-0,000467804
3919,6089;-0,000402804
3920,5732;-0,000262336
3921,5374;-8,99252E-05
3922,5017;4,29276E-05
3923,4658;7,78877E-05
3924,4302;8,83132E-06
3925,3943;-0,000107355
3926,3586;-0,000189094
3927,3228;-0,000186615
3928,2871;-0,000107696
3929,2512;-7,90984E-06
3930,2156;3,51997E-05
3931,1797;-3,86608E-05
3932,1440;-0,000229551
3933,1082;-0,000472205
3934,0725;-0,00068499
3935,0366;-0,000821243
3936,0010;-0,00087682
3936,9651;-0,000866637
3937,9294;-0,000804129
3938,8936;-0,000698402
3939,8579;-0,000563837
3940,8220;-0,000426898
3941,7864;-0,000316699
3942,7505;-0,000243272
3943,7148;-0,000187142
3944,6790;-0,000118902
3945,6433;-2,92123E-05
3946,6074;5,60313E-05
3947,5718;8,46058E-05
3948,5359;7,79461E-06
3949,5002;-0,000182583
3950,4644;-0,000439773
3951,4287;-0,000689073
3952,3928;-0,000872013
3953,3572;-0,000969737
3954,3213;-0,000997107
3955,2856;-0,000982618
3956,2498;-0,000949736
3957,2141;-0,000908774
3958,1782;-0,000861829
3959,1426;-0,000814477
3960,1067;-0,00078294
3961,0710;-0,000788865
3962,0352;-0,000844423
3962,9995;-0,000939918
3963,9636;-0,00104576
3964,9280;-0,00112665
3965,8921;-0,00115963
3966,8564;-0,0011427
3967,8206;-0,00109201
3968,7849;-0,00103043
3969,7490;-0,000975274
3970,7134;-0,0009332
3971,6775;-0,000904504
3972,6418;-0,000891151
3973,6060;-0,00090031
3974,5703;-0,000939599
3975,5344;-0,0010084
3976,4988;-0,00109342
3977,4629;-0,00117358
3978,4272;-0,00123101
3979,3914;-0,00126074
3980,3557;-0,00127261
3981,3198;-0,00128419
3982,2842;-0,00130872
3983,2483;-0,00134584
3984,2126;-0,00138133
3985,1768;-0,00139589
3986,1411;-0,00137667
3987,1052;-0,00132466
3988,0696;-0,00125459
3989,0337;-0,00118711
3989,9980;-0,00114036
3990,9622;-0,00112354
3991,9265;-0,00113656
3992,8906;-0,00117398
3993,8550;-0,00122887
3994,8191;-0,0012939
3995,7834;-0,00136024
3996,7476;-0,00141739
3997,7119;-0,00145564
3998,6760;-0,00147027
3999,6404;-0,00146406
4000,6045;-0,00097476

##### Extended Information
[Comments]
Sample name
Comment
Username
Division
Organization;UNIVERSIDAD INDUSTRIAL DE SANTANDER

[Detailed Information]
Creation date;20/03/2025 12:40 p.m.

Data array type;Linear data array
Horizontal axis;Wavenumber [cm-1]
Vertical axis;Abs
Start;399,193 cm-1
End;4000,6 cm-1
Data interval;0,964233 cm-1
Data points;3736    

[Measurement Information]
Model name;FT/IR-4X1typeA
Serial No.;A035162111

Accessory;ATR PRO 4X
Accessory S/N;A021162126
Incident angle;45 deg

Measurement date;20/03/2025 12:40 p.m.

Light source;Standard
Detector;TGS
Accumulation;40
Resolution;4 cm-1
Zero filling;On
Apodization;Cosine
Gain;Auto (8)
Aperture;Auto (7 mm)
Scan speed;Auto (2 mm/sec)
Filter;Auto (12800 Hz)

