TITLE;
DATA TYPE;INFRARED SPECTRUM
ORIGIN;JASCO
OWNER;
DATE;25/03/20
TIME;12:38:02
SPECTROMETER/DATA SYSTEM;
LOCALE;9226
RESOLUTION;
DELTAX;0,964233
XUNITS;1/CM
YUNITS;ABSORBANCE
FIRSTX;  399,1927
LASTX; 4000,6047
NPOINTS;    3736
FIRSTY;     0,15562
MAXY;     0,21995
MINY;    -0,00478
XYDATA
399,1927;0,15562
400,1569;0,157132
401,1211;0,157119
402,0854;0,156171
403,0496;0,154912
404,0138;0,153878
404,9781;0,153489
405,9423;0,153983
406,9065;0,155347
407,8708;0,157328
408,8350;0,159566
409,7992;0,161729
410,7635;0,16359
411,7277;0,165042
412,6919;0,166086
413,6562;0,1668
414,6204;0,167302
415,5846;0,167726
416,5489;0,168239
417,5131;0,169038
418,4773;0,170251
419,4416;0,171746
420,4058;0,173168
421,3700;0,174251
422,3343;0,174953
423,2985;0,175361
424,2627;0,175584
425,2270;0,175704
426,1912;0,17576
427,1554;0,175756
428,1197;0,175695
429,0839;0,175637
430,0481;0,175709
431,0124;0,17606
431,9766;0,176753
432,9408;0,177677
433,9051;0,178553
434,8693;0,179051
435,8335;0,178971
436,7978;0,178358
437,7620;0,177466
438,7262;0,176612
439,6905;0,176032
440,6547;0,175823
441,6189;0,175957
442,5832;0,176291
443,5474;0,176605
444,5116;0,176675
445,4759;0,176376
446,4401;0,175745
447,4043;0,174959
448,3686;0,174235
449,3328;0,173729
450,2970;0,173459
451,2613;0,173318
452,2255;0,173157
453,1897;0,172896
454,1540;0,172581
455,1182;0,172346
456,0824;0,17233
457,0467;0,172574
458,0109;0,172952
458,9751;0,173224
459,9394;0,173174
460,9036;0,172725
461,8678;0,171926
462,8321;0,170902
463,7963;0,169823
464,7605;0,168874
465,7248;0,168222
466,6890;0,167957
467,6532;0,168067
468,6175;0,168468
469,5817;0,169041
470,5459;0,16966
471,5102;0,170194
472,4744;0,170524
473,4386;0,17059
474,4029;0,170431
475,3671;0,170165
476,3313;0,169926
477,2956;0,169814
478,2598;0,169864
479,2240;0,170051
480,1883;0,170316
481,1525;0,170603
482,1167;0,170884
483,0810;0,171153
484,0452;0,171419
485,0094;0,171689
485,9737;0,171981
486,9379;0,172321
487,9021;0,172744
488,8664;0,173268
489,8306;0,17388
490,7948;0,174523
491,7591;0,175101
492,7233;0,175502
493,6875;0,175633
494,6518;0,175446
495,6160;0,174969
496,5802;0,17432
497,5445;0,173698
498,5087;0,17333
499,4729;0,1734
500,4372;0,173952
501,4014;0,174841
502,3656;0,17578
503,3299;0,176496
504,2941;0,176875
505,2583;0,176993
506,2226;0,177023
507,1868;0,177099
508,1510;0,177241
509,1153;0,177385
510,0795;0,177468
511,0437;0,177519
512,0080;0,177666
512,9722;0,178077
513,9365;0,178873
514,9007;0,180046
515,8649;0,181435
516,8292;0,182744
517,7934;0,183654
518,7576;0,183965
519,7219;0,183706
520,6861;0,183102
521,6503;0,182448
522,6146;0,181982
523,5788;0,181826
524,5430;0,181965
525,5073;0,182259
526,4715;0,182514
527,4357;0,18258
528,4000;0,182423
529,3642;0,182113
530,3284;0,181756
531,2927;0,181435
532,2569;0,181184
533,2211;0,180991
534,1854;0,18082
535,1496;0,180644
536,1138;0,180447
537,0781;0,180236
538,0423;0,180024
539,0065;0,179832
539,9708;0,179678
540,9350;0,179578
541,8992;0,179544
542,8635;0,179572
543,8277;0,179651
544,7919;0,179754
545,7562;0,179855
546,7204;0,179927
547,6846;0,179957
548,6489;0,17995
549,6131;0,179927
550,5773;0,179923
551,5416;0,179977
552,5058;0,180113
553,4700;0,180336
554,4343;0,180618
555,3985;0,180909
556,3627;0,181136
557,3270;0,181218
558,2912;0,181081
559,2554;0,180668
560,2197;0,179972
561,1839;0,179044
562,1481;0,178004
563,1124;0,177004
564,0766;0,176183
565,0408;0,175607
566,0051;0,175259
566,9693;0,17505
567,9335;0,174878
568,8978;0,174678
569,8620;0,174452
570,8262;0,17425
571,7905;0,174126
572,7547;0,174103
573,7189;0,174161
574,6832;0,174253
575,6474;0,174327
576,6116;0,174356
577,5759;0,174336
578,5401;0,174278
579,5043;0,174191
580,4686;0,174078
581,4328;0,173927
582,3970;0,173729
583,3613;0,173481
584,3255;0,173197
585,2897;0,17291
586,2540;0,17267
587,2182;0,172527
588,1824;0,172514
589,1467;0,172622
590,1109;0,172793
591,0751;0,172931
592,0394;0,172937
593,0036;0,172758
593,9678;0,17241
594,9321;0,171962
595,8963;0,171489
596,8605;0,171035
597,8248;0,1706
598,7890;0,170162
599,7532;0,169714
600,7175;0,169273
601,6817;0,168874
602,6459;0,168532
603,6102;0,168229
604,5744;0,167914
605,5386;0,167541
606,5029;0,167092
607,4671;0,16658
608,4313;0,166028
609,3956;0,165454
610,3598;0,164872
611,3240;0,164324
612,2883;0,163884
613,2525;0,163639
614,2167;0,163617
615,1810;0,163729
616,1452;0,163755
617,1094;0,163427
618,0737;0,16257
619,0379;0,161218
620,0021;0,159588
620,9664;0,157959
621,9306;0,15654
622,8948;0,155411
623,8591;0,154535
624,8233;0,15377
625,7875;0,153132
626,7518;0,15258
627,7160;0,152112
628,6802;0,151721
629,6445;0,151391
630,6087;0,151081
631,5729;0,150749
632,5372;0,150368
633,5014;0,149935
634,4656;0,149479
635,4299;0,149046
636,3941;0,148678
637,3583;0,148397
638,3226;0,148196
639,2868;0,148044
640,2510;0,147905
641,2153;0,147755
642,1795;0,147593
643,1437;0,147428
644,1080;0,147271
645,0722;0,147111
646,0364;0,146923
647,0007;0,146681
647,9649;0,146371
648,9291;0,146009
649,8934;0,145636
650,8576;0,145302
651,8218;0,145046
652,7861;0,144883
653,7503;0,144795
654,7145;0,144744
655,6788;0,144678
656,6430;0,144566
657,6072;0,144417
658,5715;0,144278
659,5357;0,144182
660,4999;0,144076
661,4642;0,143794
662,4284;0,143112
663,3926;0,141849
664,3569;0,140006
665,3211;0,137945
666,2853;0,136476
667,2496;0,136476
668,2138;0,137778
669,1780;0,138958
670,1423;0,139177
671,1065;0,138653
672,0707;0,137635
673,0350;0,136221
673,9992;0,134572
674,9634;0,132917
675,9277;0,131431
676,8919;0,130142
677,8561;0,128974
678,8204;0,127855
679,7846;0,126772
680,7488;0,125748
681,7131;0,124802
682,6773;0,123929
683,6415;0,123119
684,6058;0,122377
685,5700;0,12172
686,5342;0,121151
687,4985;0,120642
688,4627;0,120155
689,4269;0,119654
690,3912;0,119142
691,3554;0,118652
692,3196;0,118215
693,2839;0,117829
694,2481;0,117456
695,2123;0,117048
696,1766;0,116574
697,1408;0,116036
698,1050;0,115464
699,0693;0,114891
700,0335;0,114339
700,9977;0,113811
701,9620;0,113291
702,9262;0,112762
703,8904;0,112189
704,8547;0,111569
705,8189;0,110909
706,7831;0,110223
707,7474;0,109537
708,7116;0,108882
709,6758;0,108281
710,6401;0,107739
711,6043;0,107232
712,5685;0,106721
713,5328;0,106176
714,4970;0,105609
715,4612;0,104039
716,4255;0,103818
717,3897;0,103788
718,3539;0,103814
719,3182;0,103663
720,2824;0,103119
721,2466;0,102114
722,2109;0,100775
723,1751;0,0993439
724,1393;0,0980393
725,1036;0,0969696
726,0678;0,0961241
727,0320;0,0954247
727,9963;0,0947926
728,9605;0,094186
729,9247;0,0935989
730,8890;0,0930347
731,8532;0,0924871
732,8174;0,0919433
733,7817;0,0914011
734,7459;0,0908784
735,7101;0,0904054
736,6744;0,0900021
737,6386;0,0896614
738,6028;0,0893479
739,5671;0,089015
740,5313;0,0886274
741,4955;0,0881755
742,4598;0,0876746
743,4240;0,0871532
744,3882;0,0866378
745,3525;0,086144
746,3167;0,0856758
747,2809;0,0852291
748,2452;0,0847959
749,2094;0,0843676
750,1736;0,0839366
751,1379;0,0834995
752,1021;0,0830596
753,0663;0,0826264
754,0306;0,0822112
754,9948;0,0818206
755,9590;0,0814517
756,9233;0,0810946
757,8875;0,0807389
758,8517;0,0803812
759,8160;0,0800251
760,7802;0,079676
761,7444;0,0793332
762,7087;0,0789879
763,6729;0,0786297
764,6371;0,0782568
765,6014;0,0778819
766,5656;0,0775282
767,5298;0,0772163
768,4941;0,076952
769,4583;0,0767221
770,4225;0,0765021
771,3868;0,0762694
772,3510;0,0760144
773,3152;0,0757433
774,2795;0,0754716
775,2437;0,0752133
776,2079;0,0749735
777,1722;0,0747447
778,1364;0,0745106
779,1006;0,0742525
780,0649;0,0739565
781,0291;0,0736189
781,9933;0,0732454
782,9576;0,0728476
783,9218;0,0724355
784,8860;0,072014
785,8503;0,0715837
786,8145;0,071147
787,7787;0,0707142
788,7430;0,0703042
789,7072;0,069938
790,6714;0,0696284
791,6357;0,0693737
792,5999;0,0691591
793,5641;0,0689645
794,5284;0,0687753
795,4926;0,0685864
796,4568;0,0684
797,4211;0,0682189
798,3853;0,0680417
799,3495;0,0678627
800,3138;0,0676764
801,2780;0,0674823
802,2422;0,0672861
803,2065;0,0670967
804,1707;0,0669208
805,1349;0,0667599
806,0992;0,0666098
807,0634;0,0664648
808,0276;0,0663211
808,9919;0,0661787
809,9561;0,0660407
810,9203;0,0659096
811,8846;0,0657856
812,8488;0,0656655
813,8130;0,0655441
814,7773;0,065417
815,7415;0,0652819
816,7057;0,0651381
817,6700;0,0649862
818,6342;0,0648268
819,5984;0,0646616
820,5627;0,0644937
821,5269;0,0643285
822,4911;0,0641712
823,4554;0,0640253
824,4196;0,0638902
825,3839;0,0637617
826,3481;0,0636351
827,3123;0,0635084
828,2766;0,0633827
829,2408;0,0632594
830,2050;0,0631359
831,1693;0,0630037
832,1335;0,0628522
833,0977;0,0626752
834,0620;0,0624763
835,0262;0,0622675
835,9904;0,0620612
836,9547;0,0618607
837,9189;0,0616578
838,8831;0,0614392
839,8474;0,0611983
840,8116;0,0609419
841,7758;0,0606879
842,7401;0,0604543
843,7043;0,0602499
844,6685;0,0600724
845,6328;0,0599162
846,5970;0,0597815
847,5612;0,0596762
848,5255;0,0596083
849,4897;0,059577
850,4539;0,0595684
851,4182;0,0595613
852,3824;0,0595377
853,3466;0,059489
854,3109;0,0594146
855,2751;0,0593161
856,2393;0,0591925
857,2036;0,0590422
858,1678;0,0588677
859,1320;0,0586777
860,0963;0,0584836
861,0605;0,0582941
862,0247;0,0581126
862,9890;0,0579415
863,9532;0,0577876
864,9174;0,0576649
865,8817;0,0575892
866,8459;0,0575692
867,8101;0,0576009
868,7744;0,0576687
869,7386;0,0577533
870,7028;0,0578393
871,6671;0,0579191
872,6313;0,057992
873,5955;0,0580614
874,5598;0,0581337
875,5240;0,0582167
876,4882;0,0583185
877,4525;0,0584443
878,4167;0,0585941
879,3809;0,0587656
880,3452;0,0589592
881,3094;0,0591844
882,2736;0,0594603
883,2379;0,0598088
884,2021;0,0602451
885,1663;0,0607701
886,1306;0,06137
887,0948;0,0620239
888,0590;0,062713
889,0233;0,0634264
889,9875;0,0641597
890,9517;0,0649078
891,9160;0,0656564
892,8802;0,0663781
893,8444;0,0670341
894,8087;0,0675814
895,7729;0,0679825
896,7371;0,0682121
897,7014;0,06826
898,6656;0,0681305
899,6298;0,0678378
900,5941;0,067402
901,5583;0,0668453
902,5225;0,0661911
903,4868;0,0654652
904,4510;0,064699
905,4152;0,0639319
906,3795;0,0632099
907,3437;0,0625776
908,3079;0,0620663
909,2722;0,0616844
910,2364;0,0614152
911,2007;0,0612263
912,1649;0,0610858
913,1292;0,0609762
914,0934;0,0608985
915,0576;0,0608655
916,0219;0,0608881
916,9861;0,0609653
917,9503;0,0610822
918,9146;0,0612171
919,8788;0,0613517
920,8430;0,0614779
921,8073;0,061598
922,7715;0,0617202
923,7357;0,0618513
924,7000;0,061994
925,6642;0,0621461
926,6284;0,0623032
927,5927;0,0624621
928,5569;0,0626215
929,5211;0,0627816
930,4854;0,062942
931,4496;0,0631019
932,4138;0,0632609
933,3781;0,0634221
934,3423;0,0635933
935,3065;0,063787
936,2708;0,064018
937,2350;0,0643005
938,1992;0,0646472
939,1635;0,0650684
940,1277;0,0655715
941,0919;0,0661599
942,0562;0,0668312
943,0204;0,0675772
943,9846;0,0683869
944,9489;0,06925
945,9131;0,0701611
946,8773;0,0711195
947,8416;0,0721274
948,8058;0,0731873
949,7700;0,0743005
950,7343;0,075468
951,6985;0,0766908
952,6627;0,0779692
953,6270;0,0793001
954,5912;0,0806748
955,5554;0,0820805
956,5197;0,0835042
957,4839;0,0849379
958,4481;0,0863806
959,4124;0,0878366
960,3766;0,0893102
961,3408;0,0908016
962,3051;0,0923053
963,2693;0,0938135
964,2335;0,0953198
965,1978;0,0968227
966,1620;0,0983263
967,1262;0,0998399
968,0905;0,101379
969,0547;0,102967
970,0189;0,104636
970,9832;0,106426
971,9474;0,108376
972,9116;0,110512
973,8759;0,112842
974,8401;0,115354
975,8043;0,118029
976,7686;0,120844
977,7328;0,123784
978,6970;0,126833
979,6613;0,129964
980,6255;0,13313
981,5897;0,136261
982,5540;0,139275
983,5182;0,142101
984,4824;0,144695
985,4467;0,147045
986,4109;0,149168
987,3751;0,151093
988,3394;0,152847
989,3036;0,154445
990,2678;0,155891
991,2321;0,157191
992,1963;0,158355
993,1605;0,159409
994,1248;0,160388
995,0890;0,161327
996,0532;0,162252
997,0175;0,163179
997,9817;0,164116
998,9459;0,165067
999,9102;0,16604
1000,8744;0,16705
1001,8386;0,168114
1002,8029;0,169254
1003,7671;0,17049
1004,7313;0,171843
1005,6956;0,173337
1006,6598;0,174994
1007,6240;0,176833
1008,5883;0,178864
1009,5525;0,181085
1010,5167;0,183478
1011,4810;0,18601
1012,4452;0,188632
1013,4094;0,191283
1014,3737;0,193898
1015,3379;0,196418
1016,3021;0,1988
1017,2664;0,201019
1018,2306;0,203074
1019,1948;0,204975
1020,1591;0,206739
1021,1233;0,208388
1022,0875;0,209945
1023,0518;0,211431
1024,0160;0,212864
1024,9802;0,214246
1025,9445;0,215561
1026,9087;0,216782
1027,8729;0,217869
1028,8372;0,218782
1029,8014;0,219472
1030,7656;0,219884
1031,7299;0,219953
1032,6941;0,219614
1033,6583;0,218827
1034,6226;0,217604
1035,5868;0,216016
1036,5510;0,214196
1037,5153;0,212303
1038,4795;0,210489
1039,4437;0,208871
1040,4080;0,207507
1041,3722;0,206402
1042,3364;0,20552
1043,3007;0,204801
1044,2649;0,204176
1045,2291;0,20358
1046,1934;0,202957
1047,1576;0,202262
1048,1218;0,201457
1049,0861;0,200514
1050,0503;0,199405
1051,0145;0,198107
1051,9788;0,196607
1052,9430;0,194906
1053,9072;0,193025
1054,8715;0,190996
1055,8357;0,188844
1056,7999;0,18657
1057,7642;0,184142
1058,7284;0,181511
1059,6926;0,178642
1060,6569;0,175546
1061,6211;0,172295
1062,5853;0,169002
1063,5496;0,16579
1064,5138;0,162755
1065,4780;0,159945
1066,4423;0,157363
1067,4065;0,154989
1068,3707;0,152797
1069,3350;0,150758
1070,2992;0,148843
1071,2634;0,147016
1072,2277;0,145233
1073,1919;0,143453
1074,1561;0,141645
1075,1204;0,139799
1076,0846;0,137921
1077,0488;0,136032
1078,0131;0,134162
1078,9773;0,132346
1079,9415;0,130623
1080,9058;0,129032
1081,8700;0,127607
1082,8342;0,126368
1083,7985;0,125314
1084,7627;0,124429
1085,7269;0,123679
1086,6912;0,123032
1087,6554;0,122459
1088,6196;0,121946
1089,5839;0,121491
1090,5481;0,121103
1091,5123;0,120791
1092,4766;0,120561
1093,4408;0,120413
1094,4050;0,120337
1095,3693;0,120318
1096,3335;0,12034
1097,2977;0,120392
1098,2620;0,120467
1099,2262;0,120565
1100,1904;0,120683
1101,1547;0,120811
1102,1189;0,120924
1103,0831;0,120996
1104,0474;0,120999
1105,0116;0,120922
1105,9758;0,120768
1106,9401;0,120549
1107,9043;0,12027
1108,8685;0,11992
1109,8328;0,119471
1110,7970;0,118885
1111,7612;0,118136
1112,7255;0,117222
1113,6897;0,116174
1114,6539;0,115049
1115,6182;0,113913
1116,5824;0,112825
1117,5466;0,111813
1118,5109;0,110874
1119,4751;0,109971
1120,4393;0,109046
1121,4036;0,108035
1122,3678;0,106878
1123,3320;0,105534
1124,2963;0,103985
1125,2605;0,102227
1126,2247;0,100276
1127,1890;0,0981569
1128,1532;0,095903
1129,1174;0,0935564
1130,0817;0,0911648
1131,0459;0,0887793
1132,0101;0,0864507
1132,9744;0,0842266
1133,9386;0,0821504
1134,9028;0,0802608
1135,8671;0,0785916
1136,8313;0,0771692
1137,7955;0,0760088
1138,7598;0,075112
1139,7240;0,074466
1140,6882;0,0740472
1141,6525;0,0738256
1142,6167;0,0737695
1143,5809;0,0738484
1144,5452;0,0740342
1145,5094;0,0743035
1146,4736;0,0746392
1147,4379;0,0750331
1148,4021;0,0754843
1149,3663;0,0759942
1150,3306;0,0765582
1151,2948;0,0771588
1152,2590;0,077765
1153,2233;0,0783369
1154,1875;0,0788338
1155,1517;0,0792191
1156,1160;0,0794597
1157,0802;0,0795184
1158,0444;0,0793477
1159,0087;0,0788885
1159,9729;0,0780785
1160,9371;0,0768686
1161,9014;0,0752404
1162,8656;0,0732174
1163,8298;0,0708648
1164,7941;0,0682783
1165,7583;0,065567
1166,7225;0,0628369
1167,6868;0,0601782
1168,6510;0,0576604
1169,6152;0,0553301
1170,5795;0,0532134
1171,5437;0,0513192
1172,5079;0,0496441
1173,4722;0,0481765
1174,4364;0,0469003
1175,4006;0,0457975
1176,3649;0,044849
1177,3291;0,0440359
1178,2933;0,0433418
1179,2576;0,0427551
1180,2218;0,0422707
1181,1860;0,0418876
1182,1503;0,0416051
1183,1145;0,0414174
1184,0787;0,0413115
1185,0430;0,0412707
1186,0072;0,041281
1186,9714;0,0413378
1187,9357;0,0414481
1188,8999;0,0416273
1189,8641;0,0418917
1190,8284;0,0422514
1191,7926;0,0427058
1192,7568;0,0432446
1193,7211;0,0438517
1194,6853;0,0445104
1195,6495;0,0452064
1196,6138;0,0459287
1197,5780;0,0466693
1198,5422;0,0474216
1199,5065;0,0478547
1200,4707;0,0486515
1201,4349;0,0494458
1202,3992;0,0502314
1203,3634;0,0510031
1204,3276;0,0517577
1205,2919;0,0524956
1206,2561;0,0532229
1207,2203;0,0539521
1208,1846;0,0546997
1209,1488;0,0554819
1210,1130;0,0563091
1211,0773;0,0571833
1212,0415;0,0580995
1213,0057;0,0590498
1213,9700;0,0600273
1214,9342;0,0610264
1215,8984;0,0620409
1216,8627;0,063058
1217,8269;0,0640581
1218,7911;0,0650221
1219,7554;0,0659353
1220,7196;0,0667901
1221,6838;0,0675847
1222,6481;0,0683181
1223,6123;0,0689869
1224,5765;0,0695862
1225,5408;0,0701136
1226,5050;0,0705736
1227,4692;0,0709776
1228,4335;0,0713396
1229,3977;0,0716705
1230,3619;0,0719737
1231,3262;0,0722465
1232,2904;0,0724837
1233,2546;0,0726818
1234,2189;0,0728421
1235,1831;0,0729697
1236,1473;0,0730718
1237,1116;0,0731554
1238,0758;0,0732257
1239,0400;0,0732843
1240,0043;0,0733285
1240,9685;0,0733504
1241,9327;0,0733398
1242,8970;0,0732862
1243,8612;0,073182
1244,8254;0,0730237
1245,7897;0,0728124
1246,7539;0,0725527
1247,7181;0,0722527
1248,6824;0,0719238
1249,6466;0,0715798
1250,6108;0,0712344
1251,5751;0,0708985
1252,5393;0,0705783
1253,5035;0,0702743
1254,4678;0,0699829
1255,4320;0,0696972
1256,3962;0,0694081
1257,3605;0,0691048
1258,3247;0,0687761
1259,2889;0,0684123
1260,2532;0,0680072
1261,2174;0,0675581
1262,1816;0,0670648
1263,1459;0,0665287
1264,1101;0,0659527
1265,0743;0,065342
1266,0386;0,0647029
1267,0028;0,0640394
1267,9670;0,0633484
1268,9313;0,0626186
1269,8955;0,0618345
1270,8597;0,0609852
1271,8240;0,0600726
1272,7882;0,0591148
1273,7524;0,0581417
1274,7167;0,0571866
1275,6809;0,0562773
1276,6451;0,0554294
1277,6094;0,0546441
1278,5736;0,0539087
1279,5378;0,0532031
1280,5021;0,05251
1281,4663;0,0518245
1282,4305;0,0511582
1283,3948;0,0505338
1284,3590;0,0499739
1285,3232;0,0494901
1286,2875;0,049078
1287,2517;0,0487229
1288,2159;0,0484101
1289,1802;0,0481357
1290,1444;0,0479092
1291,1086;0,047748
1292,0729;0,0476673
1293,0371;0,0476734
1294,0013;0,0477624
1294,9656;0,0479241
1295,9298;0,0481481
1296,8940;0,0484284
1297,8583;0,0487638
1298,8225;0,0491551
1299,7867;0,0496023
1300,7510;0,0501033
1301,7152;0,0506589
1302,6794;0,051268
1303,6437;0,0519277
1304,6079;0,052634
1305,5721;0,0533796
1306,5364;0,0541566
1307,5006;0,0549611
1308,4648;0,0557946
1309,4291;0,05666
1310,3933;0,0575527
1311,3575;0,058453
1312,3218;0,0593269
1313,2860;0,0601354
1314,2502;0,0608455
1315,2145;0,0614317
1316,1787;0,0618691
1317,1429;0,0621265
1318,1072;0,0621745
1319,0714;0,062007
1320,0356;0,0616608
1320,9999;0,0612123
1321,9641;0,0607487
1322,9283;0,0603376
1323,8926;0,0600113
1324,8568;0,0597694
1325,8210;0,0595916
1326,7853;0,0594508
1327,7495;0,0593206
1328,7137;0,0591788
1329,6780;0,0590074
1330,6422;0,0587974
1331,6064;0,0585567
1332,5707;0,0583125
1333,5349;0,0581085
1334,4991;0,0579851
1335,4634;0,0579524
1336,4276;0,057964
1337,3918;0,0579019
1338,3561;0,0576081
1339,3203;0,0569794
1340,2845;0,0560644
1341,2488;0,055046
1342,2130;0,0541201
1343,1772;0,0533987
1344,1415;0,0529021
1345,1057;0,0525967
1346,0699;0,052432
1347,0342;0,052363
1347,9984;0,052364
1348,9626;0,0524315
1349,9269;0,0525749
1350,8911;0,0528012
1351,8553;0,0531036
1352,8196;0,0534607
1353,7838;0,0538461
1354,7480;0,0542436
1355,7123;0,054659
1356,6765;0,05512
1357,6407;0,0556619
1358,6050;0,0563098
1359,5692;0,0570585
1360,5334;0,0578455
1361,4977;0,0585448
1362,4619;0,0590334
1363,4261;0,0592976
1364,3904;0,0594431
1365,3546;0,0595909
1366,3188;0,0597942
1367,2831;0,0600385
1368,2473;0,0602819
1369,2115;0,0604914
1370,1758;0,0606577
1371,1400;0,0607857
1372,1042;0,060868
1373,0685;0,0608633
1374,0327;0,0607096
1374,9969;0,0603751
1375,9612;0,059889
1376,9254;0,0593018
1377,8896;0,0586309
1378,8539;0,0578644
1379,8181;0,0570075
1380,7823;0,056113
1381,7466;0,055264
1382,7108;0,0545227
1383,6750;0,0538952
1384,6393;0,0533357
1385,6035;0,0527727
1386,5677;0,0521513
1387,5320;0,0514914
1388,4962;0,0508968
1389,4604;0,0504661
1390,4247;0,0502165
1391,3889;0,0501168
1392,3531;0,0501525
1393,3174;0,0503307
1394,2816;0,0506254
1395,2458;0,0509392
1396,2101;0,0511447
1397,1743;0,0511745
1398,1385;0,0510705
1399,1028;0,050952
1400,0670;0,0509388
1401,0313;0,0510879
1401,9955;0,0513803
1402,9597;0,0517524
1403,9240;0,0521385
1404,8882;0,0525052
1405,8524;0,0528682
1406,8167;0,0532752
1407,7809;0,0537596
1408,7451;0,0543149
1409,7094;0,0549136
1410,6736;0,0555397
1411,6378;0,056199
1412,6021;0,0569006
1413,5663;0,0576283
1414,5305;0,0583349
1415,4948;0,0589645
1416,4590;0,0594638
1417,4232;0,059765
1418,3875;0,0598192
1419,3517;0,0597138
1420,3159;0,0596479
1421,2802;0,0597016
1422,2444;0,0597491
1423,2086;0,059602
1424,1729;0,0591658
1425,1371;0,0584786
1426,1013;0,0576481
1427,0656;0,0567612
1428,0298;0,0558439
1428,9940;0,0548893
1429,9583;0,0539098
1430,9225;0,0529472
1431,8867;0,0520181
1432,8510;0,051071
1433,8152;0,0500212
1434,7794;0,0488225
1435,7437;0,047529
1436,7079;0,0463377
1437,6721;0,0455305
1438,6364;0,0452505
1439,6006;0,045377
1440,5648;0,0456726
1441,5291;0,045978
1442,4933;0,0462695
1443,4575;0,0466043
1444,4218;0,0470367
1445,3860;0,0475684
1446,3502;0,0481562
1447,3145;0,0487575
1448,2787;0,0493718
1449,2429;0,0500316
1450,2072;0,0507386
1451,1714;0,0514101
1452,1356;0,0519107
1453,0999;0,0521531
1454,0641;0,0521863
1455,0283;0,0521677
1455,9926;0,0521271
1456,9568;0,051807
1457,9210;0,0512039
1458,8853;0,0508291
1459,8495;0,0508851
1460,8137;0,0510726
1461,7780;0,051048
1462,7422;0,0506539
1463,7064;0,0498963
1464,6707;0,0488859
1465,6349;0,0478156
1466,5991;0,0468576
1467,5634;0,0460095
1468,5276;0,0451215
1469,4918;0,044058
1470,4561;0,0427839
1471,4203;0,041305
1472,3845;0,0395806
1473,3488;0,0376383
1474,3130;0,0357454
1475,2772;0,034205
1476,2415;0,0330847
1477,2057;0,0322767
1478,1699;0,0316589
1479,1342;0,0311549
1480,0984;0,0307261
1481,0626;0,0303615
1482,0269;0,0300789
1482,9911;0,0299197
1483,9553;0,0299292
1484,9196;0,0301444
1485,8838;0,0305938
1486,8480;0,0312652
1487,8123;0,0320091
1488,7765;0,0325198
1489,7407;0,0326178
1490,7050;0,0325074
1491,6692;0,0325074
1492,6334;0,0327303
1493,5977;0,0331416
1494,5619;0,0337332
1495,5261;0,0345616
1496,4904;0,0356481
1497,4546;0,0368959
1498,4188;0,0381794
1499,3831;0,0394334
1500,3473;0,0405611
1501,3115;0,0413864
1502,2758;0,041773
1503,2400;0,0417884
1504,2042;0,0418144
1505,1685;0,0424525
1506,1327;0,0438723
1507,0969;0,04506
1508,0612;0,0450555
1509,0254;0,0443561
1509,9896;0,0436319
1510,9539;0,042988
1511,9181;0,0423489
1512,8823;0,041707
1513,8466;0,0411044
1514,8108;0,0405372
1515,7750;0,0399157
1516,7393;0,0391262
1517,7035;0,0381312
1518,6677;0,0370013
1519,6320;0,035871
1520,5962;0,0348743
1521,5604;0,0341065
1522,5247;0,0335997
1523,4889;0,0332991
1524,4531;0,0330839
1525,4174;0,0328488
1526,3816;0,0325737
1527,3458;0,0323125
1528,3101;0,032119
1529,2743;0,0320028
1530,2385;0,0319621
1531,2028;0,0320275
1532,1670;0,0322352
1533,1312;0,032552
1534,0955;0,0328625
1535,0597;0,0330297
1536,0239;0,0329591
1536,9882;0,0326905
1537,9524;0,0325098
1538,9166;0,0328969
1539,8809;0,0340162
1540,8451;0,0351432
1541,8093;0,035527
1542,7736;0,0354057
1543,7378;0,0352198
1544,7020;0,0351004
1545,6663;0,0350722
1546,6305;0,0351652
1547,5947;0,0353779
1548,5590;0,0356503
1549,5232;0,0358997
1550,4874;0,0360782
1551,4517;0,0361965
1552,4159;0,0362839
1553,3801;0,036322
1554,3444;0,0362352
1555,3086;0,0359731
1556,2728;0,0355915
1557,2371;0,0351499
1558,2013;0,0344928
1559,1655;0,0337549
1560,1298;0,0338046
1561,0940;0,0349309
1562,0582;0,0365434
1563,0225;0,0380283
1563,9867;0,0391026
1564,9509;0,0397571
1565,9152;0,0401356
1566,8794;0,0404371
1567,8436;0,0408276
1568,8079;0,0413751
1569,7721;0,0420524
1570,7363;0,0427797
1571,7006;0,0434557
1572,6648;0,0440109
1573,6290;0,0444844
1574,5933;0,045023
1575,5575;0,045742
1576,5217;0,0465986
1577,4860;0,0475027
1578,4502;0,0484367
1579,4144;0,0493737
1580,3787;0,0502556
1581,3429;0,0510657
1582,3071;0,0518436
1583,2714;0,0526425
1584,2356;0,0534868
1585,1998;0,0543702
1586,1641;0,0552703
1587,1283;0,0561591
1588,0925;0,0570043
1589,0568;0,0577701
1590,0210;0,0584232
1590,9852;0,0589368
1591,9495;0,0592867
1592,9137;0,0594451
1593,8779;0,0593859
1594,8422;0,0591073
1595,8064;0,058651
1596,7706;0,058097
1597,7349;0,0575324
1598,6991;0,0570169
1599,6633;0,0565684
1600,6276;0,05617
1601,5918;0,0557923
1602,5560;0,0554197
1603,5203;0,0550609
1604,4845;0,0547343
1605,4487;0,054442
1606,4130;0,0541602
1607,3772;0,0538554
1608,3414;0,0535175
1609,3057;0,0531795
1610,2699;0,0528907
1611,2341;0,0526559
1612,1984;0,0524185
1613,1626;0,0521188
1614,1268;0,0517647
1615,0911;0,0514367
1616,0553;0,0512371
1617,0195;0,0512638
1617,9838;0,0515736
1618,9480;0,0520849
1619,9122;0,052601
1620,8765;0,0529579
1621,8407;0,0531077
1622,8049;0,0530948
1623,7692;0,0530035
1624,7334;0,0529171
1625,6976;0,0528807
1626,6619;0,0528923
1627,6261;0,0529354
1628,5903;0,0530003
1629,5546;0,053062
1630,5188;0,0530557
1631,4830;0,0529115
1632,4473;0,0526412
1633,4115;0,0523867
1634,3757;0,0523145
1635,3400;0,0523869
1636,3042;0,0524172
1637,2684;0,0524259
1638,2327;0,0525464
1639,1969;0,0527464
1640,1611;0,0528907
1641,1254;0,0528823
1642,0896;0,0527122
1643,0538;0,0524667
1644,0181;0,0523108
1644,9823;0,0523797
1645,9465;0,0525925
1646,9108;0,0526758
1647,8750;0,0524561
1648,8392;0,0518992
1649,8035;0,0509767
1650,7677;0,0497282
1651,7319;0,0483215
1652,6962;0,0469076
1653,6604;0,0456939
1654,6246;0,0451967
1655,5889;0,0455345
1656,5531;0,0461667
1657,5173;0,0465517
1658,4816;0,0464724
1659,4458;0,0459763
1660,4100;0,0452235
1661,3743;0,0443654
1662,3385;0,0435217
1663,3027;0,0428092
1664,2670;0,0422892
1665,2312;0,0419117
1666,1954;0,0415684
1667,1597;0,0411705
1668,1239;0,0406525
1669,0881;0,0399547
1670,0524;0,0390812
1671,0166;0,0381355
1671,9808;0,0371948
1672,9451;0,036233
1673,9093;0,0352306
1674,8735;0,0343029
1675,8378;0,0336814
1676,8020;0,0335297
1677,7662;0,0337636
1678,7305;0,0340859
1679,6947;0,0341789
1680,6589;0,0338529
1681,6232;0,0330618
1682,5874;0,0318261
1683,5516;0,0302583
1684,5159;0,0287878
1685,4801;0,0279562
1686,4443;0,0278034
1687,4086;0,0279184
1688,3728;0,0278965
1689,3370;0,0275564
1690,3013;0,0269217
1691,2655;0,0261285
1692,2297;0,025347
1693,1940;0,0247368
1694,1582;0,0244092
1695,1224;0,024361
1696,0867;0,0244115
1697,0509;0,0242466
1698,0151;0,0236367
1698,9794;0,0226959
1699,9436;0,0218852
1700,9078;0,0216523
1701,8721;0,0220676
1702,8363;0,0228388
1703,8005;0,0235776
1704,7648;0,0240219
1705,7290;0,0241221
1706,6932;0,0240233
1707,6575;0,0239544
1708,6217;0,0240752
1709,5859;0,0244036
1710,5502;0,0248655
1711,5144;0,0253801
1712,4786;0,0259038
1713,4429;0,0264205
1714,4071;0,0268856
1715,3713;0,0271419
1716,3356;0,0269424
1717,2998;0,026283
1718,2640;0,0256334
1719,2283;0,0254595
1720,1925;0,0257693
1721,1567;0,0262784
1722,1210;0,0267198
1723,0852;0,026977
1724,0494;0,0270856
1725,0137;0,0271802
1725,9779;0,0274104
1726,9421;0,0278522
1727,9064;0,0284628
1728,8706;0,0291029
1729,8348;0,0296026
1730,7991;0,0298235
1731,7633;0,0296834
1732,7275;0,0291799
1733,6918;0,0284812
1734,6560;0,0279329
1735,6202;0,0277613
1736,5845;0,0278609
1737,5487;0,0279699
1738,5129;0,0279163
1739,4772;0,0276975
1740,4414;0,0274226
1741,4056;0,0272044
1742,3699;0,0270739
1743,3341;0,0269734
1744,2983;0,0268154
1745,2626;0,026539
1746,2268;0,0261125
1747,1910;0,0254848
1748,1553;0,0245466
1749,1195;0,0232007
1750,0837;0,0215416
1751,0480;0,0198953
1752,0122;0,018575
1752,9764;0,0176596
1753,9407;0,0170296
1754,9049;0,0165209
1755,8691;0,0160242
1756,8334;0,0155021
1757,7976;0,0149574
1758,7618;0,0143915
1759,7261;0,0137879
1760,6903;0,0131351
1761,6545;0,0124673
1762,6188;0,0118699
1763,5830;0,0114271
1764,5472;0,0111595
1765,5115;0,0110197
1766,4757;0,0109372
1767,4399;0,0108592
1768,4042;0,0107606
1769,3684;0,0106251
1770,3326;0,0104216
1771,2969;0,0101123
1772,2611;0,00971614
1773,2253;0,00935362
1774,1896;0,00915803
1775,1538;0,00914899
1776,1180;0,00923635
1777,0823;0,00931442
1778,0465;0,00932614
1779,0107;0,00926352
1779,9750;0,00913809
1780,9392;0,00896018
1781,9034;0,00873892
1782,8677;0,00849438
1783,8319;0,00826827
1784,7961;0,00811774
1785,7604;0,0080854
1786,7246;0,00816743
1787,6888;0,00831494
1788,6531;0,00847179
1789,6173;0,0086085
1790,5815;0,0087136
1791,5458;0,00876486
1792,5100;0,00875401
1793,4742;0,00873493
1794,4385;0,00876916
1795,4027;0,00884168
1796,3669;0,00888622
1797,3312;0,00886055
1798,2954;0,00877236
1799,2596;0,00864861
1800,2239;0,0084985
1801,1881;0,008315
1802,1523;0,00810415
1803,1166;0,00789786
1804,0808;0,00774023
1805,0450;0,00766816
1806,0093;0,0076974
1806,9735;0,00781352
1807,9377;0,0079685
1808,9020;0,0080897
1809,8662;0,00810835
1810,8304;0,00799908
1811,7947;0,00779621
1812,7589;0,00756488
1813,7231;0,0073564
1814,6874;0,00719117
1815,6516;0,00706989
1816,6158;0,00698902
1817,5801;0,00694836
1818,5443;0,00695192
1819,5085;0,00700337
1820,4728;0,00709947
1821,4370;0,00722833
1822,4012;0,0073721
1823,3655;0,00751026
1824,3297;0,00762621
1825,2939;0,00771573
1826,2582;0,00778282
1827,2224;0,00782039
1828,1866;0,00779637
1829,1509;0,00766997
1830,1151;0,00744117
1831,0793;0,00718235
1832,0436;0,00699074
1833,0078;0,00691027
1833,9720;0,00691741
1834,9363;0,00696436
1835,9005;0,00701553
1836,8647;0,00705745
1837,8290;0,00709169
1838,7932;0,00712038
1839,7574;0,00713692
1840,7217;0,00713695
1841,6859;0,0071336
1842,6501;0,00714559
1843,6144;0,00716737
1844,5786;0,0071751
1845,5428;0,00716384
1846,5071;0,0071395
1847,4713;0,00708288
1848,4355;0,00696074
1849,3998;0,0067659
1850,3640;0,00653296
1851,3282;0,00631916
1852,2925;0,00617067
1853,2567;0,00610274
1854,2209;0,00610296
1855,1852;0,00614784
1856,1494;0,00621482
1857,1136;0,00628572
1858,0779;0,0063435
1859,0421;0,00637509
1860,0063;0,00638124
1860,9706;0,00638422
1861,9348;0,00642124
1862,8990;0,00652521
1863,8633;0,00670736
1864,8275;0,00695283
1865,7917;0,00722025
1866,7560;0,00743466
1867,7202;0,00749692
1868,6844;0,00734897
1869,6487;0,00704548
1870,6129;0,00671407
1871,5771;0,006442
1872,5414;0,00623598
1873,5056;0,00606767
1874,4698;0,00592291
1875,4341;0,00581136
1876,3983;0,00574975
1877,3625;0,00574092
1878,3268;0,00577004
1879,2910;0,00581501
1880,2552;0,00586227
1881,2195;0,00591319
1882,1837;0,00597681
1883,1479;0,00605616
1884,1122;0,0061396
1885,0764;0,0062042
1886,0406;0,00622772
1887,0049;0,00619953
1887,9691;0,00612513
1888,9333;0,0060262
1889,8976;0,00593705
1890,8618;0,0058921
1891,8260;0,00590633
1892,7903;0,00596395
1893,7545;0,00602434
1894,7188;0,00604009
1895,6830;0,00598005
1896,6472;0,00584865
1897,6115;0,00568625
1898,5757;0,00554542
1899,5399;0,00546051
1900,5042;0,00543225
1901,4684;0,00543462
1902,4326;0,0054381
1903,3969;0,00543452
1904,3611;0,00544527
1905,3253;0,00550491
1906,2896;0,00563102
1907,2538;0,00580067
1908,2180;0,00595091
1909,1823;0,00600984
1910,1465;0,00594222
1911,1107;0,00577229
1912,0750;0,00556199
1913,0392;0,00536919
1914,0034;0,00522438
1914,9677;0,00513453
1915,9319;0,00509708
1916,8961;0,00511059
1917,8604;0,00517809
1918,8246;0,00529925
1919,7888;0,00545304
1920,7531;0,00558871
1921,7173;0,00563996
1922,6815;0,00555699
1923,6458;0,00533738
1924,6100;0,00503406
1925,5742;0,00472915
1926,5385;0,00449256
1927,5027;0,00435767
1928,4669;0,00432296
1929,4312;0,00436308
1930,3954;0,00443856
1931,3596;0,00450474
1932,3239;0,00452087
1933,2881;0,00446279
1934,2523;0,00433499
1935,2166;0,00417437
1936,1808;0,00403852
1937,1450;0,00398024
1938,1093;0,00402214
1939,0735;0,00414524
1940,0377;0,00429323
1941,0020;0,00438866
1941,9662;0,00436269
1942,9304;0,00419284
1943,8947;0,00392047
1944,8589;0,00362475
1945,8231;0,00337511
1946,7874;0,00320241
1947,7516;0,00309873
1948,7158;0,00303204
1949,6801;0,00296385
1950,6443;0,00286513
1951,6085;0,00272612
1952,5728;0,00255625
1953,5370;0,00237482
1954,5012;0,002198
1955,4655;0,00202842
1956,4297;0,00185194
1957,3939;0,00164263
1958,3582;0,0013748
1959,3224;0,00103903
1960,2866;0,000656596
1961,2509;0,000282777
1962,2151;-8,58869E-06
1963,1793;-0,000156304
1964,1436;-0,000146121
1965,1078;-3,29891E-05
1966,0720;6,5245E-05
1967,0363;1,55231E-05
1968,0005;-0,000256182
1968,9647;-0,000715937
1969,9290;-0,00124139
1970,8932;-0,00169436
1971,8574;-0,00199282
1972,8217;-0,00213955
1973,7859;-0,00219642
1974,7501;-0,00222187
1975,7144;-0,0022083
1976,6786;-0,00207521
1977,6428;-0,00173334
1978,6071;-0,00117197
1979,5713;-0,000491761
1980,5355;0,000143713
1981,4998;0,000592165
1982,4640;0,000793829
1983,4282;0,00078384
1984,3925;0,000662134
1985,3567;0,00054156
1986,3209;0,000501578
1987,2852;0,000570479
1988,2494;0,000738561
1989,2136;0,00098206
1990,1779;0,00127416
1991,1421;0,00157749
1992,1063;0,0018345
1993,0706;0,00197668
1994,0348;0,00195439
1994,9990;0,00176781
1995,9633;0,00147759
1996,9275;0,00118676
1997,8917;0,000998272
1998,8560;0,00096514
1999,8202;0,0010603
2000,7844;0,00118846
2001,7487;0,00123594
2002,7129;0,00112769
2003,6771;0,000859951
2004,6414;0,000496561
2005,6056;0,000135804
2006,5698;-0,000132268
2007,5341;-0,000258569
2008,4983;-0,000243099
2009,4625;-0,000122033
2010,4268;4,99039E-05
2011,3910;0,000211655
2012,3552;0,000305459
2013,3195;0,000293073
2014,2837;0,000178416
2015,2479;2,20242E-05
2016,2122;-7,3797E-05
2017,1764;-1,62866E-05
2018,1406;0,000214801
2019,1049;0,000538242
2020,0691;0,000803258
2021,0333;0,000865103
2021,9976;0,000659185
2022,9618;0,000233261
2023,9260;-0,00027799
2024,8903;-0,000720488
2025,8545;-0,000991004
2026,8187;-0,00107111
2027,7830;-0,00101265
2028,7472;-0,000893941
2029,7114;-0,00077745
2030,6757;-0,000688266
2031,6399;-0,000614292
2032,6041;-0,000520357
2033,5684;-0,000367287
2034,5326;-0,000132174
2035,4968;0,000178436
2036,4611;0,000529848
2037,4253;0,00088037
2038,3895;0,00120544
2039,3538;0,00150796
2040,3180;0,00180478
2041,2822;0,00209897
2042,2465;0,00236328
2043,2107;0,0025539
2044,1749;0,00264851
2045,1392;0,00267663
2046,1034;0,00271273
2047,0676;0,00282908
2048,0320;0,00304188
2048,9961;0,00329976
2049,9604;0,00352932
2050,9246;0,00369728
2051,8889;0,00383652
2052,8530;0,00402058
2053,8174;0,00430892
2054,7815;0,00469805
2055,7458;0,00511259
2056,7100;0,00544214
2057,6743;0,00560176
2058,6384;0,00557591
2059,6028;0,00542071
2060,5669;0,00523017
2061,5313;0,00509076
2062,4954;0,00504819
2063,4597;0,00509804
2064,4238;0,0051993
2065,3882;0,00530081
2066,3523;0,00536698
2067,3167;0,00539137
2068,2808;0,00539398
2069,2451;0,00540638
2070,2092;0,00545405
2071,1736;0,00554435
2072,1377;0,00566351
2073,1021;0,0057838
2074,0662;0,00587401
2075,0305;0,00591007
2075,9946;0,00588317
2076,9590;0,00580525
2077,9231;0,00570821
2078,8875;0,00563377
2079,8516;0,00561526
2080,8159;0,00566051
2081,7800;0,00574854
2082,7444;0,00584544
2083,7085;0,00593056
2084,6729;0,00601298
2085,6370;0,00612435
2086,6013;0,00628906
2087,5654;0,00649421
2088,5298;0,0066836
2089,4939;0,00678529
2090,4583;0,00675638
2091,4224;0,00661357
2092,3867;0,00642742
2093,3508;0,00628281
2094,3152;0,00623144
2095,2793;0,00626683
2096,2437;0,00633801
2097,2078;0,00638935
2098,1721;0,00639635
2099,1362;0,00637224
2100,1006;0,00634861
2101,0647;0,00634021
2102,0291;0,00634556
2102,9932;0,00634729
2103,9575;0,00633389
2104,9216;0,00631241
2105,8860;0,00630483
2106,8501;0,0063323
2107,8145;0,00639983
2108,7786;0,00649257
2109,7429;0,0065849
2110,7070;0,00665452
2111,6714;0,0066917
2112,6355;0,00669889
2113,5999;0,00668374
2114,5640;0,00665249
2115,5283;0,00660872
2116,4924;0,00655702
2117,4568;0,00650696
2118,4209;0,00647266
2119,3853;0,00646696
2120,3494;0,00649352
2121,3137;0,0065421
2122,2778;0,00659065
2123,2422;0,0066137
2124,2063;0,00659238
2125,1707;0,00652071
2126,1348;0,00640501
2127,0991;0,00625747
2128,0632;0,00608852
2129,0276;0,00590352
2129,9917;0,00570593
2130,9561;0,00550435
2131,9202;0,0053165
2132,8845;0,00516401
2133,8486;0,00505821
2134,8130;0,00498692
2135,7771;0,00491611
2136,7415;0,00481138
2137,7056;0,00466572
2138,6699;0,00451021
2139,6340;0,00439504
2140,5984;0,00435154
2141,5625;0,00436306
2142,5269;0,00436881
2143,4910;0,0043021
2144,4553;0,00413712
2145,4194;0,00390913
2146,3838;0,00369179
2147,3479;0,00354818
2148,3123;0,00349232
2149,2764;0,00348767
2150,2407;0,00347679
2151,2048;0,00341282
2152,1692;0,00326818
2153,1333;0,00302256
2154,0977;0,00265375
2155,0618;0,00215339
2156,0261;0,0015655
2156,9902;0,00101429
2157,9546;0,000673046
2158,9187;0,000662308
2159,8831;0,00095498
2160,8472;0,00139173
2161,8115;0,00179542
2162,7756;0,002073
2163,7400;0,00223563
2164,7041;0,00235282
2165,6685;0,00248739
2166,6326;0,00265043
2167,5969;0,0027969
2168,5610;0,00285863
2169,5254;0,0027924
2170,4895;0,00261644
2171,4539;0,00241679
2172,4180;0,00231713
2173,3823;0,00242038
2174,3464;0,00274797
2175,3108;0,00321411
2176,2749;0,0036592
2177,2393;0,00392792
2178,2034;0,00394424
2179,1677;0,00373931
2180,1318;0,00342309
2181,0962;0,00312502
2182,0603;0,00294128
2183,0247;0,00291445
2183,9888;0,00304401
2184,9531;0,00330466
2185,9172;0,00365274
2186,8816;0,0040244
2187,8457;0,00434385
2188,8101;0,00455024
2189,7742;0,00462848
2190,7385;0,00461774
2191,7026;0,00458547
2192,6670;0,00458344
2193,6311;0,00461776
2194,5955;0,0046541
2195,5596;0,00465072
2196,5239;0,00459146
2197,4880;0,00449452
2198,4524;0,0043959
2199,4165;0,00432659
2200,3809;0,00430269
2201,3450;0,00433076
2202,3093;0,00441462
2203,2734;0,00455128
2204,2378;0,00471921
2205,2019;0,00487487
2206,1663;0,00496929
2207,1304;0,00497809
2208,0947;0,00492298
2209,0588;0,00486624
2210,0232;0,00487841
2210,9873;0,0049995
2211,9517;0,00521799
2212,9158;0,00547792
2213,8801;0,00570581
2214,8442;0,00583927
2215,8086;0,00584432
2216,7727;0,00572025
2217,7371;0,00549781
2218,7012;0,00523392
2219,6655;0,00500079
2220,6296;0,00486692
2221,5940;0,00487427
2222,5581;0,0050225
2223,5225;0,00527044
2224,4866;0,005555
2225,4509;0,00581674
2226,4150;0,00601737
2227,3794;0,00614124
2228,3435;0,00618986
2229,3079;0,00617367
2230,2720;0,0061121
2231,2363;0,00603695
2232,2004;0,00598895
2233,1648;0,00600278
2234,1289;0,0060876
2235,0933;0,0062181
2236,0574;0,00634585
2237,0217;0,00642607
2237,9858;0,00644188
2238,9502;0,00640957
2239,9143;0,00636248
2240,8787;0,00632745
2241,8428;0,00631213
2242,8071;0,00631076
2243,7712;0,00631971
2244,7356;0,00634642
2245,6997;0,00640327
2246,6641;0,00649292
2247,6282;0,00660028
2248,5925;0,00670036
2249,5566;0,00677646
2250,5210;0,00683328
2251,4851;0,00689355
2252,4495;0,0069807
2253,4136;0,00710119
2254,3779;0,00723989
2255,3420;0,00737055
2256,3064;0,00747155
2257,2705;0,00753529
2258,2349;0,00756726
2259,1990;0,00758008
2260,1633;0,00758902
2261,1274;0,00760996
2262,0918;0,00765597
2263,0559;0,00773009
2264,0203;0,00781869
2264,9844;0,00789283
2265,9487;0,00792134
2266,9128;0,00788923
2267,8772;0,00780913
2268,8413;0,00771682
2269,8057;0,00765336
2270,7698;0,00764511
2271,7341;0,00769359
2272,6982;0,00777901
2273,6626;0,00787256
2274,6267;0,00794895
2275,5911;0,00799375
2276,5552;0,00800489
2277,5195;0,00799133
2278,4836;0,00797058
2279,4480;0,00796524
2280,4121;0,00799807
2281,3765;0,00808659
2282,3406;0,0082392
2283,3049;0,00845441
2284,2690;0,00872263
2285,2334;0,00902933
2286,1975;0,0093586
2287,1619;0,00969683
2288,1260;0,0100361
2289,0903;0,0103751
2290,0544;0,0107173
2291,0188;0,0110652
2291,9829;0,0114165
2292,9473;0,0117642
2293,9114;0,0121009
2294,8757;0,0124241
2295,8398;0,0127376
2296,8042;0,0130446
2297,7683;0,0133401
2298,7327;0,0136073
2299,6968;0,0138259
2300,6611;0,0139876
2301,6252;0,0141104
2302,5896;0,0142389
2303,5537;0,0144287
2304,5181;0,0147197
2305,4822;0,0151115
2306,4465;0,0155517
2307,4106;0,0159471
2308,3750;0,0161944
2309,3391;0,0162189
2310,3035;0,0160062
2311,2676;0,0156103
2312,2319;0,0151332
2313,1960;0,014684
2314,1604;0,0143369
2315,1245;0,0141111
2316,0889;0,01398
2317,0530;0,0139009
2318,0173;0,0138436
2318,9814;0,0138051
2319,9458;0,0138052
2320,9099;0,0138696
2321,8743;0,0140128
2322,8384;0,014223
2323,8027;0,0144532
2324,7668;0,0146253
2325,7312;0,0146553
2326,6953;0,0144904
2327,6597;0,0141351
2328,6238;0,013652
2329,5881;0,0131376
2330,5522;0,0126852
2331,5166;0,0123507
2332,4807;0,0121339
2333,4451;0,0119889
2334,4092;0,0118631
2335,3735;0,011742
2336,3376;0,0116694
2337,3020;0,0117277
2338,2661;0,011986
2339,2305;0,0124436
2340,1946;0,0129962
2341,1589;0,0134425
2342,1230;0,0135587
2343,0874;0,0132884
2344,0515;0,0129536
2345,0159;0,0131207
2345,9800;0,014075
2346,9443;0,0155313
2347,9084;0,0168837
2348,8728;0,0176116
2349,8369;0,0175141
2350,8013;0,0167436
2351,7654;0,0156924
2352,7297;0,0147746
2353,6938;0,0142094
2354,6582;0,0139823
2355,6223;0,0139889
2356,5867;0,014136
2357,5508;0,0143123
2358,5151;0,0143737
2359,4792;0,0142276
2360,4436;0,0139125
2361,4077;0,0135487
2362,3721;0,013211
2363,3362;0,0128758
2364,3005;0,0124816
2365,2646;0,0120129
2366,2290;0,0115173
2367,1931;0,0110562
2368,1575;0,0106566
2369,1216;0,0103079
2370,0859;0,0099903
2371,0500;0,00970378
2372,0144;0,00947806
2372,9785;0,00936361
2373,9429;0,00941218
2374,9070;0,00965454
2375,8713;0,0100828
2376,8354;0,0106448
2377,7998;0,0112529
2378,7639;0,0118045
2379,7283;0,0122053
2380,6924;0,0123886
2381,6567;0,0123264
2382,6208;0,012031
2383,5852;0,0115511
2384,5493;0,0109607
2385,5137;0,0103443
2386,4778;0,00977951
2387,4421;0,00932086
2388,4063;0,00899072
2389,3706;0,00877981
2390,3347;0,00865772
2391,2991;0,00858891
2392,2632;0,008547
2393,2275;0,00852109
2394,1917;0,00851239
2395,1560;0,00852459
2396,1201;0,00855507
2397,0845;0,00859244
2398,0486;0,00862347
2399,0129;0,00863761
2399,9771;0,00863365
2400,9414;0,00861987
2401,9055;0,00860641
2402,8699;0,00860015
2403,8340;0,00860174
2404,7983;0,00860829
2405,7625;0,00861789
2406,7268;0,00863134
2407,6909;0,00865122
2408,6553;0,00867799
2409,6194;0,00870659
2410,5837;0,00872919
2411,5479;0,00873959
2412,5122;0,00873759
2413,4763;0,00872921
2414,4407;0,00872308
2415,4048;0,00872526
2416,3691;0,00873682
2417,3333;0,00875526
2418,2976;0,00877783
2419,2617;0,00880368
2420,2261;0,00883263
2421,1902;0,008862
2422,1545;0,00888692
2423,1187;0,00890237
2424,0830;0,00890724
2425,0471;0,00890602
2426,0115;0,00890652
2426,9756;0,00891531
2427,9399;0,00893493
2428,9041;0,00896505
2429,8684;0,009006
2430,8325;0,00906037
2431,7969;0,00913019
2432,7610;0,00921149
2433,7253;0,00929142
2434,6895;0,00935176
2435,6538;0,00937777
2436,6179;0,00936669
2437,5823;0,00932983
2438,5464;0,00928685
2439,5107;0,00925619
2440,4749;0,00924769
2441,4392;0,00926133
2442,4033;0,00929101
2443,3677;0,00932974
2444,3318;0,00937278
2445,2961;0,00941772
2446,2603;0,00946297
2447,2246;0,00950618
2448,1887;0,00954354
2449,1531;0,00957041
2450,1172;0,00958331
2451,0815;0,00958297
2452,0457;0,00957673
2453,0100;0,00957793
2453,9741;0,00960075
2454,9385;0,00965219
2455,9026;0,00972579
2456,8669;0,00980187
2457,8311;0,00985573
2458,7954;0,00986952
2459,7595;0,00984114
2460,7239;0,00978475
2461,6880;0,00972321
2462,6523;0,00967738
2463,6165;0,00965869
2464,5808;0,00966816
2465,5449;0,00970037
2466,5093;0,0097481
2467,4734;0,0098047
2468,4377;0,00986356
2469,4019;0,00991713
2470,3662;0,00995753
2471,3303;0,00997924
2472,2947;0,00998219
2473,2588;0,009973
2474,2231;0,00996311
2475,1873;0,00996438
2476,1516;0,00998376
2477,1157;0,0100198
2478,0801;0,0100627
2479,0442;0,0100984
2480,0085;0,0101156
2480,9727;0,0101125
2481,9370;0,0100987
2482,9011;0,010092
2483,8655;0,0101094
2484,8296;0,0101584
2485,7939;0,0102323
2486,7581;0,0103132
2487,7224;0,0103808
2488,6865;0,010421
2489,6509;0,0104315
2490,6150;0,0104194
2491,5793;0,0103957
2492,5435;0,010369
2493,5078;0,0103432
2494,4719;0,0103197
2495,4363;0,0103001
2496,4004;0,0102886
2497,3647;0,0102901
2498,3289;0,0103076
2499,2932;0,01034
2500,2573;0,0103813
2501,2217;0,0104227
2502,1858;0,0104549
2503,1501;0,0104705
2504,1143;0,0104668
2505,0786;0,0104474
2506,0427;0,0104234
2507,0071;0,0104099
2507,9712;0,0104203
2508,9355;0,0104591
2509,8997;0,0105177
2510,8640;0,010578
2511,8281;0,010621
2512,7925;0,0106367
2513,7566;0,0106281
2514,7209;0,010608
2515,6851;0,01059
2516,6494;0,010581
2517,6135;0,0105796
2518,5779;0,0105811
2519,5420;0,0105832
2520,5063;0,0105896
2521,4705;0,0106065
2522,4348;0,0106376
2523,3989;0,0106798
2524,3633;0,0107237
2525,3274;0,0107584
2526,2917;0,0107766
2527,2559;0,0107778
2528,2202;0,010768
2529,1843;0,0107564
2530,1487;0,0107519
2531,1128;0,0107595
2532,0771;0,0107794
2533,0413;0,0108068
2534,0056;0,0108351
2534,9697;0,0108585
2535,9341;0,0108749
2536,8982;0,0108859
2537,8625;0,0108945
2538,8267;0,0109023
2539,7910;0,0109085
2540,7551;0,0109111
2541,7195;0,0109096
2542,6836;0,0109066
2543,6479;0,0109063
2544,6121;0,0109118
2545,5764;0,0109232
2546,5405;0,0109389
2547,5049;0,0109583
2548,4690;0,0109834
2549,4333;0,011017
2550,3975;0,0110573
2551,3618;0,0110956
2552,3259;0,0111182
2553,2903;0,0111146
2554,2544;0,0110852
2555,2188;0,0110429
2556,1829;0,0110074
2557,1472;0,0109933
2558,1113;0,0110032
2559,0757;0,0110276
2560,0398;0,0110523
2561,0042;0,0110675
2561,9683;0,0110718
2562,9326;0,0110707
2563,8967;0,011071
2564,8611;0,0110768
2565,8252;0,0110892
2566,7896;0,0111075
2567,7537;0,0111303
2568,7180;0,0111555
2569,6821;0,0111799
2570,6465;0,0112005
2571,6106;0,0112159
2572,5750;0,0112279
2573,5391;0,0112398
2574,5034;0,0112531
2575,4675;0,0112657
2576,4319;0,0112728
2577,3960;0,011271
2578,3604;0,0112617
2579,3245;0,0112522
2580,2888;0,0112516
2581,2529;0,0112665
2582,2173;0,0112968
2583,1814;0,0113356
2584,1458;0,0113726
2585,1099;0,0113989
2586,0742;0,0114105
2587,0383;0,0114106
2588,0027;0,011408
2588,9668;0,0114132
2589,9312;0,0114333
2590,8953;0,0114677
2591,8596;0,0115083
2592,8237;0,011543
2593,7881;0,0115627
2594,7522;0,0115654
2595,7166;0,0115575
2596,6807;0,0115502
2597,6450;0,0115537
2598,6091;0,0115737
2599,5735;0,0116101
2600,5376;0,0116585
2601,5020;0,0117127
2602,4661;0,0117664
2603,4304;0,0118143
2604,3945;0,0118523
2605,3589;0,0118784
2606,3230;0,0118942
2607,2874;0,0119049
2608,2515;0,0119178
2609,2158;0,0119398
2610,1799;0,0119738
2611,1443;0,0120165
2612,1084;0,0120595
2613,0728;0,0120926
2614,0369;0,0121091
2615,0012;0,0121103
2615,9653;0,0121046
2616,9297;0,0121045
2617,8938;0,0121192
2618,8582;0,0121509
2619,8223;0,0121937
2620,7866;0,0122385
2621,7507;0,0122779
2622,7151;0,01231
2623,6792;0,0123372
2624,6436;0,0123636
2625,6077;0,0123921
2626,5720;0,0124231
2627,5361;0,0124564
2628,5005;0,0124914
2629,4646;0,0125278
2630,4290;0,0125646
2631,3931;0,0125994
2632,3574;0,0126299
2633,3215;0,0126555
2634,2859;0,012678
2635,2500;0,0127006
2636,2144;0,0127259
2637,1785;0,0127545
2638,1428;0,0127859
2639,1069;0,0128193
2640,0713;0,0128552
2641,0354;0,0128939
2641,9998;0,0129346
2642,9639;0,0129741
2643,9282;0,0130083
2644,8923;0,0130349
2645,8567;0,013055
2646,8208;0,0130727
2647,7852;0,0130931
2648,7493;0,0131184
2649,7136;0,0131478
2650,6777;0,0131778
2651,6421;0,0132049
2652,6062;0,013228
2653,5706;0,0132488
2654,5347;0,0132703
2655,4990;0,0132953
2656,4631;0,013325
2657,4275;0,0133592
2658,3916;0,0133966
2659,3560;0,0134357
2660,3201;0,0134752
2661,2844;0,0135134
2662,2485;0,0135485
2663,2129;0,0135788
2664,1770;0,013603
2665,1414;0,0136222
2666,1055;0,0136396
2667,0698;0,0136605
2668,0339;0,0136897
2668,9983;0,0137286
2669,9624;0,013774
2670,9268;0,013818
2671,8909;0,0138523
2672,8552;0,0138719
2673,8193;0,0138786
2674,7837;0,0138807
2675,7478;0,0138882
2676,7122;0,0139079
2677,6763;0,0139401
2678,6406;0,0139788
2679,6047;0,014017
2680,5691;0,0140504
2681,5332;0,01408
2682,4976;0,01411
2683,4617;0,0141435
2684,4260;0,0141797
2685,3901;0,0142137
2686,3545;0,0142403
2687,3186;0,0142577
2688,2830;0,0142692
2689,2471;0,0142815
2690,2114;0,0143012
2691,1755;0,0143317
2692,1399;0,0143714
2693,1040;0,0144158
2694,0684;0,01446
2695,0325;0,0145008
2695,9968;0,0145375
2696,9609;0,0145707
2697,9253;0,0146015
2698,8894;0,0146302
2699,8538;0,0146575
2700,8179;0,0146848
2701,7822;0,0147149
2702,7463;0,0147508
2703,7107;0,0147941
2704,6748;0,0148433
2705,6392;0,0148942
2706,6033;0,014942
2707,5676;0,0149838
2708,5317;0,01502
2709,4961;0,0150533
2710,4602;0,0150869
2711,4246;0,0151223
2712,3887;0,0151591
2713,3530;0,0151961
2714,3171;0,0152326
2715,2815;0,015269
2716,2456;0,0153061
2717,2100;0,0153442
2718,1741;0,0153827
2719,1384;0,0154203
2720,1025;0,0154553
2721,0669;0,0154859
2722,0310;0,0155103
2722,9954;0,0155275
2723,9595;0,0155375
2724,9238;0,0155431
2725,8879;0,0155496
2726,8523;0,0155634
2727,8164;0,0155901
2728,7808;0,0156315
2729,7449;0,0156849
2730,7092;0,0157437
2731,6733;0,0158002
2732,6377;0,0158482
2733,6018;0,0158853
2734,5662;0,0159127
2735,5303;0,0159338
2736,4946;0,0159524
2737,4587;0,0159707
2738,4231;0,0159896
2739,3872;0,0160098
2740,3516;0,0160328
2741,3157;0,0160604
2742,2800;0,0160934
2743,2441;0,0161295
2744,2085;0,0161636
2745,1726;0,0161894
2746,1370;0,0162037
2747,1011;0,0162082
2748,0654;0,0162101
2749,0295;0,0162179
2749,9939;0,0162381
2750,9580;0,0162713
2751,9224;0,0163131
2752,8865;0,0163569
2753,8508;0,0163973
2754,8149;0,0164325
2755,7793;0,0164639
2756,7434;0,016494
2757,7078;0,0165249
2758,6719;0,0165571
2759,6362;0,0165901
2760,6003;0,0166239
2761,5647;0,0166594
2762,5288;0,0166977
2763,4932;0,0167394
2764,4573;0,016784
2765,4216;0,0168305
2766,3857;0,016878
2767,3501;0,0169264
2768,3142;0,0169757
2769,2786;0,0170247
2770,2427;0,0170707
2771,2070;0,0171106
2772,1711;0,0171432
2773,1355;0,0171707
2774,0996;0,0171986
2775,0640;0,0172328
2776,0281;0,0172764
2776,9924;0,0173286
2777,9565;0,0173857
2778,9209;0,0174439
2779,8850;0,0175018
2780,8494;0,0175609
2781,8135;0,0176236
2782,7778;0,0176905
2783,7419;0,0177594
2784,7063;0,0178258
2785,6704;0,0178851
2786,6348;0,0179354
2787,5989;0,0179786
2788,5632;0,0180205
2789,5273;0,0180687
2790,4917;0,0181298
2791,4558;0,0182066
2792,4202;0,0182963
2793,3843;0,0183915
2794,3486;0,0184835
2795,3127;0,0185663
2796,2771;0,0186396
2797,2412;0,0187094
2798,2056;0,0187841
2799,1697;0,0188705
2800,1340;0,0189699
2801,0981;0,0190782
2802,0625;0,0191884
2803,0266;0,0192942
2803,9910;0,0193926
2804,9551;0,0194843
2805,9194;0,0195721
2806,8835;0,0196594
2807,8479;0,0197487
2808,8120;0,0198416
2809,7764;0,0199398
2810,7405;0,0200451
2811,7048;0,02016
2812,6689;0,0202871
2813,6333;0,0204278
2814,5974;0,0205807
2815,5618;0,0207406
2816,5259;0,0209004
2817,4902;0,0210538
2818,4543;0,0211989
2819,4187;0,0213396
2820,3828;0,0214836
2821,3472;0,0216386
2822,3113;0,0218087
2823,2756;0,0219934
2824,2397;0,0221899
2825,2041;0,0223967
2826,1682;0,0226146
2827,1326;0,0228457
2828,0967;0,0230904
2829,0610;0,0233468
2830,0251;0,0236111
2830,9895;0,0238809
2831,9536;0,024157
2832,9180;0,0244424
2833,8821;0,0247407
2834,8464;0,025054
2835,8105;0,0253827
2836,7749;0,0257281
2837,7390;0,0260942
2838,7034;0,0264891
2839,6675;0,0269234
2840,6318;0,0274078
2841,5959;0,0279505
2842,5603;0,0285547
2843,5244;0,0292171
2844,4888;0,0299252
2845,4529;0,0306555
2846,4172;0,0313724
2847,3813;0,0320322
2848,3457;0,0325899
2849,3098;0,0330099
2850,2742;0,033275
2851,2383;0,0333901
2852,2026;0,0333789
2853,1667;0,0332747
2854,1311;0,0331095
2855,0952;0,0329067
2856,0596;0,0326808
2857,0237;0,0324419
2857,9880;0,0322017
2858,9521;0,0319768
2859,9165;0,0317863
2860,8806;0,0316462
2861,8450;0,0315647
2862,8091;0,0315417
2863,7734;0,0315709
2864,7375;0,0316438
2865,7019;0,0317515
2866,6660;0,0318834
2867,6304;0,0320253
2868,5945;0,0321605
2869,5588;0,032273
2870,5229;0,0323536
2871,4873;0,0324033
2872,4514;0,0324325
2873,4158;0,0324554
2874,3799;0,0324835
2875,3442;0,0325218
2876,3083;0,0325683
2877,2727;0,0326188
2878,2368;0,0326709
2879,2012;0,0327259
2880,1653;0,0327879
2881,1296;0,0328609
2882,0938;0,0329462
2883,0581;0,0330422
2884,0222;0,0331458
2884,9866;0,0332553
2885,9507;0,0333709
2886,9150;0,0334953
2887,8792;0,0336315
2888,8435;0,0337808
2889,8076;0,0339411
2890,7720;0,0341071
2891,7361;0,0342716
2892,7004;0,0344287
2893,6646;0,0345761
2894,6289;0,0347163
2895,5930;0,0348558
2896,5574;0,0350018
2897,5215;0,0351585
2898,4858;0,0353253
2899,4500;0,0354966
2900,4143;0,0356655
2901,3784;0,0358279
2902,3428;0,0359858
2903,3069;0,0361483
2904,2712;0,0363285
2905,2354;0,0365388
2906,1997;0,0367877
2907,1638;0,0370782
2908,1282;0,0374109
2909,0923;0,0377867
2910,0566;0,0382073
2911,0208;0,0386723
2911,9851;0,0391742
2912,9492;0,0396945
2913,9136;0,0402048
2914,8777;0,0406736
2915,8420;0,0410736
2916,8062;0,0413883
2917,7705;0,0416117
2918,7346;0,0417451
2919,6990;0,0417927
2920,6631;0,041759
2921,6274;0,0416492
2922,5916;0,0414695
2923,5559;0,0412271
2924,5200;0,0409279
2925,4844;0,0405768
2926,4485;0,0401788
2927,4128;0,0397429
2928,3770;0,0392839
2929,3413;0,0388198
2930,3054;0,0383664
2931,2698;0,0379305
2932,2339;0,0375075
2933,1982;0,0370856
2934,1624;0,0366533
2935,1267;0,036207
2936,0908;0,0357526
2937,0552;0,035302
2938,0193;0,0348671
2938,9836;0,0344533
2939,9478;0,0340581
2940,9121;0,0336736
2941,8762;0,0332917
2942,8406;0,0329092
2943,8047;0,03253
2944,7690;0,0321651
2945,7332;0,0318277
2946,6975;0,0315292
2947,6616;0,0312738
2948,6260;0,0310574
2949,5901;0,0308691
2950,5544;0,0306954
2951,5186;0,0305242
2952,4829;0,0303475
2953,4470;0,0301615
2954,4114;0,0299652
2955,3755;0,0297588
2956,3398;0,0295432
2957,3040;0,0293204
2958,2683;0,0290942
2959,2324;0,0288696
2960,1968;0,0286513
2961,1609;0,0284409
2962,1252;0,028236
2963,0894;0,02803
2964,0537;0,0278147
2965,0178;0,0275846
2965,9822;0,0273402
2966,9463;0,0270889
2967,9106;0,0268418
2968,8748;0,0266089
2969,8391;0,0263942
2970,8032;0,026194
2971,7676;0,0260004
2972,7317;0,0258058
2973,6960;0,0256078
2974,6602;0,0254097
2975,6245;0,0252185
2976,5886;0,0250393
2977,5530;0,024873
2978,5171;0,0247157
2979,4814;0,0245626
2980,4456;0,0244116
2981,4099;0,024266
2982,3740;0,0241337
2983,3384;0,024023
2984,3025;0,0239377
2985,2668;0,0238738
2986,2310;0,0238205
2987,1953;0,023765
2988,1594;0,0236994
2989,1238;0,0236249
2990,0879;0,0235517
2991,0522;0,0234929
2992,0164;0,0234574
2992,9807;0,0234448
2993,9448;0,0234459
2994,9092;0,023449
2995,8733;0,0234466
2996,8376;0,0234401
2997,8018;0,0234379
2998,7661;0,0234507
2999,7302;0,023485
3000,6946;0,0235395
3001,6587;0,0236068
3002,6230;0,0236768
3003,5872;0,0237424
3004,5515;0,0238019
3005,5156;0,0238581
3006,4800;0,0239151
3007,4441;0,0239739
3008,4084;0,0240312
3009,3726;0,0240809
3010,3369;0,0241175
3011,3010;0,0241389
3012,2654;0,0241475
3013,2295;0,0241483
3014,1938;0,0241468
3015,1580;0,0241477
3016,1223;0,0241557
3017,0864;0,0241757
3018,0508;0,0242128
3019,0149;0,0242697
3019,9792;0,024345
3020,9434;0,024432
3021,9077;0,0245214
3022,8718;0,0246056
3023,8362;0,0246834
3024,8003;0,0247614
3025,7646;0,0248511
3026,7288;0,0249635
3027,6931;0,0251026
3028,6572;0,0252613
3029,6216;0,025423
3030,5857;0,0255663
3031,5500;0,0256741
3032,5142;0,0257399
3033,4785;0,0257708
3034,4426;0,0257834
3035,4070;0,0257966
3036,3711;0,0258252
3037,3354;0,0258763
3038,2996;0,0259498
3039,2639;0,0260412
3040,2280;0,0261454
3041,1924;0,0262585
3042,1565;0,0263794
3043,1208;0,0265091
3044,0850;0,0266485
3045,0493;0,0267965
3046,0134;0,0269479
3046,9778;0,0270944
3047,9419;0,0272282
3048,9063;0,0273473
3049,8704;0,0274574
3050,8347;0,0275703
3051,7988;0,0276966
3052,7632;0,0278393
3053,7273;0,027991
3054,6917;0,0281376
3055,6558;0,0282671
3056,6201;0,0283778
3057,5842;0,0284808
3058,5486;0,0285953
3059,5127;0,0287386
3060,4771;0,0289169
3061,4412;0,0291213
3062,4055;0,0293297
3063,3696;0,0295147
3064,3340;0,0296536
3065,2981;0,0297382
3066,2625;0,0297783
3067,2266;0,0297983
3068,1909;0,0298269
3069,1550;0,0298853
3070,1194;0,0299809
3071,0835;0,0301077
3072,0479;0,0302529
3073,0120;0,0304057
3073,9763;0,0305617
3074,9404;0,0307221
3075,9048;0,0308878
3076,8689;0,0310544
3077,8333;0,0312113
3078,7974;0,0313462
3079,7617;0,0314521
3080,7258;0,0315325
3081,6902;0,031601
3082,6543;0,031675
3083,6187;0,0317684
3084,5828;0,0318848
3085,5471;0,0320174
3086,5112;0,0321527
3087,4756;0,0322791
3088,4397;0,0323931
3089,4041;0,0325017
3090,3682;0,0326176
3091,3325;0,0327507
3092,2966;0,0329017
3093,2610;0,033062
3094,2251;0,0332198
3095,1895;0,0333687
3096,1536;0,0335115
3097,1179;0,0336565
3098,0820;0,0338084
3099,0464;0,0339619
3100,0105;0,0341029
3100,9749;0,0342184
3101,9390;0,0343066
3102,9033;0,0343809
3103,8674;0,0344625
3104,8318;0,0345688
3105,7959;0,0347039
3106,7603;0,0348593
3107,7244;0,0350222
3108,6887;0,0351861
3109,6528;0,0353547
3110,6172;0,035537
3111,5813;0,0357372
3112,5457;0,0359476
3113,5098;0,0361501
3114,4741;0,0363264
3115,4382;0,0364691
3116,4026;0,036587
3117,3667;0,0367
3118,3311;0,0368274
3119,2952;0,036978
3120,2595;0,037147
3121,2236;0,0373213
3122,1880;0,0374876
3123,1521;0,0376382
3124,1165;0,0377714
3125,0806;0,0378905
3126,0449;0,0380022
3127,0090;0,0381158
3127,9734;0,0382429
3128,9375;0,038393
3129,9019;0,038568
3130,8660;0,0387585
3131,8303;0,0389464
3132,7944;0,039114
3133,7588;0,0392537
3134,7229;0,0393736
3135,6873;0,0394917
3136,6514;0,0396258
3137,6157;0,0397839
3138,5798;0,0399606
3139,5442;0,0401429
3140,5083;0,0403179
3141,4727;0,0404807
3142,4368;0,0406354
3143,4011;0,0407918
3144,3652;0,040959
3145,3296;0,0411408
3146,2937;0,0413338
3147,2581;0,0415297
3148,2222;0,041719
3149,1865;0,041896
3150,1506;0,0420612
3151,1150;0,0422203
3152,0791;0,042381
3153,0435;0,0425495
3154,0076;0,0427272
3154,9719;0,0429119
3155,9360;0,0430992
3156,9004;0,0432845
3157,8645;0,0434645
3158,8289;0,0436377
3159,7930;0,0438047
3160,7573;0,0439691
3161,7214;0,0441363
3162,6858;0,0443116
3163,6499;0,0444973
3164,6143;0,0446905
3165,5784;0,0448849
3166,5427;0,0450734
3167,5068;0,045252
3168,4712;0,0454217
3169,4353;0,0454256
3170,3997;0,0455988
3171,3638;0,0457865
3172,3281;0,045991
3173,2922;0,0462084
3174,2566;0,046429
3175,2207;0,0466397
3176,1851;0,0468295
3177,1492;0,0469945
3178,1135;0,0471402
3179,0776;0,0472797
3180,0420;0,0474257
3181,0061;0,0475846
3181,9705;0,0477535
3182,9346;0,0479238
3183,8989;0,0480876
3184,8630;0,0482428
3185,8274;0,0483924
3186,7915;0,0485415
3187,7559;0,0486927
3188,7200;0,0488454
3189,6843;0,0489985
3190,6484;0,0491538
3191,6128;0,0493157
3192,5769;0,0494886
3193,5413;0,0496728
3194,5054;0,0498631
3195,4697;0,0500506
3196,4338;0,050227
3197,3982;0,050388
3198,3623;0,0505335
3199,3267;0,0506656
3200,2908;0,0507867
3201,2551;0,0508996
3202,2192;0,0510086
3203,1836;0,0511206
3204,1477;0,0512431
3205,1121;0,0513809
3206,0762;0,0515332
3207,0405;0,0516942
3208,0046;0,0518569
3208,9690;0,0520176
3209,9331;0,0521777
3210,8975;0,0523415
3211,8616;0,0525117
3212,8259;0,0526853
3213,7900;0,0528546
3214,7544;0,0530108
3215,7185;0,0531494
3216,6829;0,0532718
3217,6470;0,0533846
3218,6113;0,0534949
3219,5754;0,0536074
3220,5398;0,053723
3221,5039;0,0538414
3222,4683;0,0539636
3223,4324;0,0540925
3224,3967;0,0542314
3225,3608;0,0543809
3226,3252;0,0545374
3227,2893;0,0546933
3228,2537;0,0548405
3229,2178;0,0549744
3230,1821;0,0550962
3231,1462;0,0552118
3232,1106;0,0553287
3233,0747;0,0554518
3234,0391;0,0555811
3235,0032;0,0557121
3235,9675;0,0558399
3236,9316;0,0559639
3237,8960;0,05609
3238,8601;0,0562291
3239,8245;0,0563902
3240,7886;0,0565743
3241,7529;0,05677
3242,7170;0,0569573
3243,6814;0,0571161
3244,6455;0,0572359
3245,6099;0,0573224
3246,5740;0,0573945
3247,5383;0,0574748
3248,5024;0,0575794
3249,4668;0,0577124
3250,4309;0,0578677
3251,3953;0,0580342
3252,3594;0,0582024
3253,3237;0,0583675
3254,2878;0,0585293
3255,2522;0,0586887
3256,2163;0,0588457
3257,1807;0,0589975
3258,1448;0,059141
3259,1091;0,0592752
3260,0732;0,059404
3261,0376;0,059535
3262,0017;0,0596757
3262,9661;0,0598284
3263,9302;0,0599878
3264,8945;0,0601436
3265,8586;0,0602862
3266,8230;0,0604128
3267,7871;0,0605301
3268,7515;0,0606493
3269,7156;0,0607788
3270,6799;0,0609179
3271,6440;0,0610555
3272,6084;0,0611763
3273,5725;0,0612689
3274,5369;0,0613323
3275,5010;0,0613758
3276,4653;0,0614129
3277,4294;0,0614545
3278,3938;0,0615036
3279,3579;0,0615569
3280,3223;0,0616087
3281,2864;0,0616558
3282,2507;0,061699
3283,2148;0,0617418
3284,1792;0,0617867
3285,1433;0,0618326
3286,1077;0,0618751
3287,0718;0,0619086
3288,0361;0,0619297
3289,0002;0,0619382
3289,9646;0,061936
3290,9287;0,0619257
3291,8931;0,0619088
3292,8572;0,0618858
3293,8215;0,0618589
3294,7856;0,0618321
3295,7500;0,0618106
3296,7141;0,0617994
3297,6785;0,0617996
3298,6426;0,0618071
3299,6069;0,0618133
3300,5710;0,0618091
3301,5354;0,0617897
3302,4995;0,0617583
3303,4639;0,0617259
3304,4280;0,0617069
3305,3923;0,0617122
3306,3564;0,0617436
3307,3208;0,0617921
3308,2849;0,0618419
3309,2493;0,0618771
3310,2134;0,0618878
3311,1777;0,0618728
3312,1418;0,0618379
3313,1062;0,0617935
3314,0703;0,0617516
3315,0347;0,061724
3315,9988;0,0617201
3316,9631;0,0617454
3317,9272;0,0617992
3318,8916;0,0618754
3319,8557;0,0619648
3320,8201;0,0620591
3321,7842;0,0621531
3322,7485;0,0622444
3323,7126;0,0623307
3324,6770;0,0624077
3325,6411;0,0624698
3326,6055;0,0625134
3327,5696;0,0625405
3328,5339;0,0625604
3329,4980;0,062586
3330,4624;0,0626279
3331,4265;0,062689
3332,3909;0,0627622
3333,3550;0,0628319
3334,3193;0,0628783
3335,2834;0,0628838
3336,2478;0,0628389
3337,2119;0,0627451
3338,1763;0,0626147
3339,1404;0,0624663
3340,1047;0,0623189
3341,0688;0,0621863
3342,0332;0,0620744
3342,9973;0,0619809
3343,9617;0,0618974
3344,9258;0,0618131
3345,8901;0,0617181
3346,8542;0,0616066
3347,8186;0,0614791
3348,7827;0,0613424
3349,7471;0,0612076
3350,7112;0,0610851
3351,6755;0,060979
3352,6396;0,060884
3353,6040;0,0607867
3354,5681;0,0606726
3355,5325;0,0605342
3356,4966;0,0603755
3357,4609;0,0602112
3358,4250;0,0600586
3359,3894;0,0599302
3360,3535;0,0598284
3361,3179;0,0597457
3362,2820;0,0596684
3363,2463;0,0595813
3364,2104;0,0594711
3365,1748;0,0593281
3366,1389;0,0591488
3367,1033;0,0589377
3368,0674;0,0587073
3369,0317;0,058476
3369,9958;0,0582613
3370,9602;0,0580743
3371,9243;0,0579161
3372,8887;0,0577784
3373,8528;0,0576483
3374,8171;0,0575133
3375,7813;0,057366
3376,7456;0,0572054
3377,7097;0,0570362
3378,6741;0,0568672
3379,6382;0,0567078
3380,6025;0,0565644
3381,5667;0,0564373
3382,5310;0,0563193
3383,4951;0,0561988
3384,4595;0,0560663
3385,4236;0,055921
3386,3879;0,0557721
3387,3521;0,0556334
3388,3164;0,0555147
3389,2805;0,0554143
3390,2449;0,0553193
3391,2090;0,0552124
3392,1733;0,0550813
3393,1375;0,0549247
3394,1018;0,0547499
3395,0659;0,0545651
3396,0303;0,0543738
3396,9944;0,0541745
3397,9587;0,0539662
3398,9229;0,053752
3399,8872;0,0535385
3400,8513;0,0533316
3401,8157;0,0531319
3402,7798;0,0529353
3403,7441;0,0527372
3404,7083;0,0525376
3405,6726;0,0523418
3406,6367;0,0521568
3407,6011;0,0519857
3408,5652;0,0518247
3409,5295;0,0516637
3410,4937;0,0514911
3411,4580;0,0512996
3412,4221;0,0510896
3413,3865;0,0508708
3414,3506;0,050658
3415,3149;0,0504655
3416,2791;0,0503019
3417,2434;0,0501629
3418,2075;0,0500313
3419,1719;0,0498812
3420,1360;0,0496892
3421,1003;0,0494456
3422,0645;0,0491596
3423,0288;0,0488536
3423,9929;0,048552
3424,9573;0,0482712
3425,9214;0,0480164
3426,8857;0,0477826
3427,8499;0,0475599
3428,8142;0,0473378
3429,7783;0,0471087
3430,7427;0,0468685
3431,7068;0,0466154
3432,6711;0,0463496
3433,6353;0,0460736
3434,5996;0,045794
3435,5637;0,0455219
3436,5281;0,0452709
3437,4922;0,0450519
3438,4565;0,0448688
3439,4207;0,0447166
3440,3850;0,0445845
3441,3491;0,0444602
3442,3135;0,0443326
3443,2776;0,044191
3444,2419;0,0440199
3445,2061;0,0437991
3446,1704;0,0435113
3447,1345;0,043156
3448,0989;0,0427584
3449,0630;0,042361
3450,0273;0,0420035
3450,9915;0,0417051
3451,9558;0,0414598
3452,9199;0,0412452
3453,8843;0,0410372
3454,8484;0,0408232
3455,8127;0,0406065
3456,7769;0,0403986
3457,7412;0,0402068
3458,7053;0,0400255
3459,6697;0,0398381
3460,6338;0,0396271
3461,5981;0,0393852
3462,5623;0,0391184
3463,5266;0,0388401
3464,4907;0,0385602
3465,4551;0,0382792
3466,4192;0,0379915
3467,3835;0,0376956
3468,3477;0,0374009
3469,3120;0,0371252
3470,2761;0,0368834
3471,2405;0,0366748
3472,2046;0,036481
3473,1689;0,0362768
3474,1331;0,0360495
3475,0974;0,0358114
3476,0615;0,0355952
3477,0259;0,0354325
3477,9900;0,0353304
3478,9543;0,0352609
3479,9185;0,0351715
3480,8828;0,035013
3481,8469;0,0347684
3482,8113;0,0344617
3483,7754;0,0341389
3484,7397;0,0338364
3485,7039;0,0335631
3486,6682;0,0333041
3487,6323;0,0330387
3488,5967;0,0327608
3489,5608;0,0324854
3490,5251;0,0322386
3491,4893;0,0320388
3492,4536;0,0318834
3493,4177;0,031749
3494,3821;0,031606
3495,3462;0,031439
3496,3105;0,0312625
3497,2747;0,0311146
3498,2390;0,0310316
3499,2031;0,0310184
3500,1675;0,0310332
3501,1316;0,0309963
3502,0959;0,0308284
3503,0601;0,0305051
3504,0244;0,0300825
3504,9885;0,0296623
3505,9529;0,029325
3506,9170;0,0290877
3507,8813;0,0289046
3508,8455;0,0286993
3509,8098;0,0284122
3510,7739;0,0280379
3511,7383;0,0276236
3512,7024;0,0272333
3513,6667;0,0269102
3514,6309;0,026665
3515,5952;0,026487
3516,5593;0,0263636
3517,5237;0,0262936
3518,4878;0,0262849
3519,4521;0,0263413
3520,4163;0,0264476
3521,3806;0,0265637
3522,3447;0,0266344
3523,3091;0,0266113
3524,2732;0,0264711
3525,2375;0,0262179
3526,2017;0,0258704
3527,1660;0,0254498
3528,1301;0,0249796
3529,0945;0,0244937
3530,0586;0,0240377
3531,0229;0,0236534
3531,9871;0,0233621
3532,9514;0,0231549
3533,9155;0,0229954
3534,8799;0,0228321
3535,8440;0,0226222
3536,8083;0,0223579
3537,7725;0,0220776
3538,7368;0,0218491
3539,7009;0,0217369
3540,6653;0,0217748
3541,6294;0,0219497
3542,5938;0,022194
3543,5579;0,0223878
3544,5222;0,0223982
3545,4863;0,0221547
3546,4507;0,0217062
3547,4148;0,0211888
3548,3792;0,0207308
3549,3433;0,0203864
3550,3076;0,0201311
3551,2717;0,0198966
3552,2361;0,019619
3553,2002;0,0192832
3554,1646;0,0189306
3555,1287;0,0186248
3556,0930;0,018409
3557,0571;0,0182931
3558,0215;0,0182646
3558,9856;0,0183075
3559,9500;0,018415
3560,9141;0,0185913
3561,8784;0,0188392
3562,8425;0,0191423
3563,8069;0,0194401
3564,7710;0,019594
3565,7354;0,0193965
3566,6995;0,0187224
3567,6638;0,0177254
3568,6279;0,0167553
3569,5923;0,016053
3570,5564;0,0156297
3571,5208;0,0153756
3572,4849;0,0151859
3573,4492;0,0150087
3574,4133;0,0148355
3575,3777;0,0146758
3576,3418;0,0145365
3577,3062;0,0144151
3578,2703;0,0143075
3579,2346;0,0142197
3580,1987;0,0141702
3581,1631;0,0141793
3582,1272;0,0142539
3583,0916;0,014382
3584,0557;0,0145313
3585,0200;0,0146326
3585,9841;0,0145698
3586,9485;0,0142563
3587,9126;0,0137782
3588,8770;0,0133693
3589,8411;0,0131952
3590,8054;0,0132439
3591,7695;0,0134011
3592,7339;0,013546
3593,6980;0,0135959
3594,6624;0,0135248
3595,6265;0,0133665
3596,5908;0,0131772
3597,5549;0,0129773
3598,5193;0,0127367
3599,4834;0,0124148
3600,4478;0,0120154
3601,4119;0,0116021
3602,3762;0,0112534
3603,3403;0,0110041
3604,3047;0,0108294
3605,2688;0,0106659
3606,2332;0,0104393
3607,1973;0,0101018
3608,1616;0,00968206
3609,1257;0,00929453
3610,0901;0,0090696
3611,0542;0,00906203
3612,0186;0,00921991
3612,9827;0,00942128
3613,9470;0,0095397
3614,9111;0,0094979
3615,8755;0,00928518
3616,8396;0,00894224
3617,8040;0,00853636
3618,7681;0,00815272
3619,7324;0,00789846
3620,6965;0,0078656
3621,6609;0,00804722
3622,6250;0,00831161
3623,5894;0,00847981
3624,5535;0,00842851
3625,5178;0,00814134
3626,4819;0,0076815
3627,4463;0,00711122
3628,4104;0,00648516
3629,3748;0,00595544
3630,3389;0,00569478
3631,3032;0,00567084
3632,2673;0,00567763
3633,2317;0,00553699
3634,1958;0,00520865
3635,1602;0,0047735
3636,1243;0,00435406
3637,0886;0,00403581
3638,0527;0,00383688
3639,0171;0,00373146
3639,9812;0,00368966
3640,9456;0,00369495
3641,9097;0,00373309
3642,8740;0,00377704
3643,8381;0,00379597
3644,8025;0,00378732
3645,7666;0,00378732
3646,7310;0,00378705
3647,6951;0,00357367
3648,6594;0,00284895
3649,6235;0,00177971
3650,5879;0,000943812
3651,5520;0,000587261
3652,5164;0,000505177
3653,4805;0,000417427
3654,4448;0,000195749
3655,4089;-0,000122302
3656,3733;-0,000413089
3657,3374;-0,000569834
3658,3018;-0,000580188
3659,2659;-0,000522807
3660,2302;-0,000486522
3661,1943;-0,000495483
3662,1587;-0,000507219
3663,1228;-0,000473396
3664,0872;-0,000399468
3665,0513;-0,000336818
3666,0156;-0,000323695
3666,9797;-0,000336776
3667,9441;-0,000320097
3668,9082;-0,000264053
3669,8726;-0,000216587
3670,8367;-0,000218739
3671,8010;-0,000287582
3672,7651;-0,000426659
3673,7295;-0,000614378
3674,6936;-0,000818408
3675,6580;-0,0010013
3676,6221;-0,00108092
3677,5864;-0,000989261
3678,5505;-0,00077862
3679,5149;-0,000567489
3680,4790;-0,000421651
3681,4434;-0,000329011
3682,4075;-0,000259157
3683,3718;-0,000221722
3684,3359;-0,000261083
3685,3003;-0,000393719
3686,2644;-0,000552089
3687,2288;-0,000609359
3688,1929;-0,000496525
3689,1572;-0,000274917
3690,1213;-3,08792E-05
3691,0857;0,000220304
3692,0498;0,000473401
3693,0142;0,000692605
3693,9783;0,000847092
3694,9426;0,000932572
3695,9067;0,000957059
3696,8711;0,000924009
3697,8352;0,000835658
3698,7996;0,000709561
3699,7637;0,000586609
3700,7280;0,000518937
3701,6921;0,000547934
3702,6565;0,000685551
3703,6206;0,000901513
3704,5850;0,00112681
3705,5491;0,00128605
3706,5134;0,00133954
3707,4775;0,00129621
3708,4419;0,00117124
3709,4060;0,000911882
3710,3704;0,000414878
3711,3345;-0,000278226
3712,2988;-0,000889303
3713,2629;-0,0011578
3714,2273;-0,00106221
3715,1914;-0,000745839
3716,1558;-0,000353403
3717,1199;4,77813E-05
3718,0842;0,000459651
3719,0483;0,000906379
3720,0127;0,0013922
3720,9768;0,00188808
3721,9412;0,00234366
3722,9053;0,00270554
3723,8696;0,0029313
3724,8337;0,0030039
3725,7981;0,00294052
3726,7622;0,00277916
3727,7266;0,00255318
3728,6907;0,00228897
3729,6550;0,0020312
3730,6191;0,00185919
3731,5835;0,00185423
3732,5476;0,00200949
3733,5120;0,00215079
3734,4761;0,00203763
3735,4404;0,00165807
3736,4045;0,00129653
3737,3689;0,00117785
3738,3330;0,0012111
3739,2974;0,00110809
3740,2615;0,000622398
3741,2258;-0,000293638
3742,1899;-0,00143607
3743,1543;-0,0024144
3744,1184;-0,00285869
3745,0828;-0,00267176
3746,0469;-0,00209672
3747,0112;-0,00152349
3747,9753;-0,0012437
3748,9397;-0,00135608
3749,9038;-0,00179527
3750,8682;-0,00233735
3751,8323;-0,00263944
3752,7966;-0,00250761
3753,7607;-0,00207416
3754,7251;-0,0016178
3755,6892;-0,00133536
3756,6536;-0,00128122
3757,6177;-0,00141286
3758,5820;-0,00164009
3759,5461;-0,00185267
3760,5105;-0,00196443
3761,4746;-0,00195945
3762,4390;-0,0018849
3763,4031;-0,00180524
3764,3674;-0,00176913
3765,3315;-0,00180147
3766,2959;-0,00190579
3767,2600;-0,00206759
3768,2244;-0,00225955
3769,1885;-0,00244613
3770,1528;-0,00258431
3771,1169;-0,00263396
3772,0813;-0,00258362
3773,0454;-0,00246814
3774,0098;-0,00235015
3774,9739;-0,00227947
3775,9382;-0,0022665
3776,9023;-0,00228971
3777,8667;-0,00232057
3778,8308;-0,00233069
3779,7952;-0,0022864
3780,7593;-0,00216561
3781,7236;-0,00198662
3782,6877;-0,00180817
3783,6521;-0,00170116
3784,6162;-0,00171423
3785,5806;-0,0018467
3786,5447;-0,00204614
3787,5090;-0,00223701
3788,4731;-0,00236375
3789,4375;-0,00241506
3790,4016;-0,00241273
3791,3660;-0,00237766
3792,3301;-0,00230105
3793,2944;-0,00214667
3794,2585;-0,00188847
3795,2229;-0,00155544
3796,1870;-0,00123838
3797,1514;-0,00104342
3798,1155;-0,00102983
3799,0798;-0,00118312
3800,0439;-0,00143679
3801,0083;-0,00171148
3801,9724;-0,00194638
3802,9368;-0,00213695
3803,9009;-0,00234696
3804,8652;-0,00264413
3805,8293;-0,00300791
3806,7937;-0,00330381
3807,7578;-0,00336414
3808,7222;-0,00313222
3809,6863;-0,00273548
3810,6506;-0,00239759
3811,6147;-0,002276
3812,5791;-0,00236145
3813,5432;-0,00249375
3814,5076;-0,0024801
3815,4717;-0,00223852
3816,4360;-0,00184984
3817,4001;-0,00148878
3818,3645;-0,00131817
3819,3286;-0,00141572
3820,2930;-0,00172884
3821,2571;-0,00206916
3822,2214;-0,00222018
3823,1855;-0,00211169
3824,1499;-0,001858
3825,1140;-0,00163572
3826,0784;-0,00155953
3827,0425;-0,00163987
3828,0068;-0,00180652
3828,9709;-0,00196199
3829,9353;-0,00203439
3830,8994;-0,00200698
3831,8638;-0,00191526
3832,8279;-0,0018178
3833,7922;-0,00175667
3834,7563;-0,00172933
3835,7207;-0,00169384
3836,6848;-0,00161152
3837,6492;-0,00149306
3838,6133;-0,00139331
3839,5776;-0,00136418
3840,5417;-0,00142854
3841,5061;-0,00158129
3842,4702;-0,00177878
3843,4346;-0,00193008
3844,3987;-0,00193006
3845,3630;-0,00173191
3846,3271;-0,00140358
3847,2915;-0,00111626
3848,2556;-0,00106891
3849,2200;-0,00139463
3850,1841;-0,00209231
3851,1484;-0,00302089
3852,1125;-0,00396722
3853,0769;-0,00466717
3854,0410;-0,00477715
3855,0054;-0,00416576
3855,9695;-0,00314941
3856,9338;-0,00219157
3857,8979;-0,00157499
3858,8623;-0,00133487
3859,8264;-0,00133361
3860,7908;-0,00137824
3861,7549;-0,00134352
3862,7192;-0,00124125
3863,6833;-0,00117082
3864,6477;-0,00120352
3865,6118;-0,00133149
3866,5762;-0,00149598
3867,5403;-0,00162624
3868,5046;-0,00167209
3869,4688;-0,00163637
3870,4331;-0,0015788
3871,3972;-0,00156869
3872,3616;-0,00163134
3873,3257;-0,00174483
3874,2900;-0,00187259
3875,2542;-0,00198403
3876,2185;-0,00204838
3877,1826;-0,00202598
3878,1470;-0,00188181
3879,1111;-0,00162592
3880,0754;-0,00134192
3881,0396;-0,00115715
3882,0039;-0,00117048
3882,9680;-0,00140032
3883,9324;-0,00177794
3884,8965;-0,00217473
3885,8608;-0,00245887
3886,8250;-0,0025638
3887,7893;-0,00251421
3888,7534;-0,00238288
3889,7178;-0,00222866
3890,6819;-0,00207409
3891,6462;-0,00191586
3892,6104;-0,00173834
3893,5747;-0,00154158
3894,5388;-0,00136655
3895,5032;-0,00126584
3896,4673;-0,00124716
3897,4316;-0,00126069
3898,3958;-0,00124571
3899,3601;-0,00118635
3900,3242;-0,00112275
3901,2886;-0,0011183
3902,2527;-0,00122552
3903,2170;-0,00145934
3904,1812;-0,00177651
3905,1455;-0,00209456
3906,1096;-0,00234961
3907,0740;-0,00252881
3908,0381;-0,00264858
3909,0024;-0,00271882
3909,9666;-0,00273233
3910,9309;-0,00267904
3911,8950;-0,00256287
3912,8594;-0,00240493
3913,8235;-0,00223488
3914,7878;-0,00208304
3915,7520;-0,00197775
3916,7163;-0,00193595
3917,6804;-0,00194146
3918,6448;-0,00194063
3919,6089;-0,00187821
3920,5732;-0,00174199
3921,5374;-0,00157047
3922,5017;-0,001429
3923,4658;-0,00137451
3924,4302;-0,00141975
3925,3943;-0,00151955
3926,3586;-0,00160137
3927,3228;-0,00161574
3928,2871;-0,00156184
3929,2512;-0,00148194
3930,2156;-0,00144185
3931,1797;-0,00149849
3932,1440;-0,00166033
3933,1082;-0,00187794
3934,0725;-0,00208307
3935,0366;-0,00223295
3936,0010;-0,00231766
3936,9651;-0,00234081
3937,9294;-0,00230422
3938,8936;-0,00220956
3939,8579;-0,00207092
3940,8220;-0,0019218
3941,7864;-0,00180218
3942,7505;-0,00173037
3943,7148;-0,00168734
3944,6790;-0,00163625
3945,6433;-0,00155745
3946,6074;-0,0014697
3947,5718;-0,00142516
3948,5359;-0,00147975
3949,5002;-0,00165227
3950,4644;-0,00190391
3951,4287;-0,00216115
3952,3928;-0,00236058
3953,3572;-0,002476
3954,3213;-0,00251632
3955,2856;-0,00250755
3956,2498;-0,00247437
3957,2141;-0,00243079
3958,1782;-0,00238306
3959,1426;-0,00233912
3960,1067;-0,00231436
3961,0710;-0,00232649
3962,0352;-0,00238261
3962,9995;-0,00247007
3963,9636;-0,00256088
3964,9280;-0,00262594
3965,8921;-0,00265012
3966,8564;-0,00263671
3967,8206;-0,00260118
3968,7849;-0,00255947
3969,7490;-0,00251902
3970,7134;-0,00247911
3971,6775;-0,00243931
3972,6418;-0,00240798
3973,6060;-0,00240227
3974,5703;-0,00243813
3975,5344;-0,00251742
3976,4988;-0,00262264
3977,4629;-0,00272433
3978,4272;-0,00279597
3979,3914;-0,00282704
3980,3557;-0,00282634
3981,3198;-0,00281476
3982,2842;-0,00281162
3983,2483;-0,00282357
3984,2126;-0,00284242
3985,1768;-0,00285268
3986,1411;-0,00284238
3987,1052;-0,00281021
3988,0696;-0,00276574
3989,0337;-0,00272301
3989,9980;-0,00269429
3990,9622;-0,00268606
3991,9265;-0,00269949
3992,8906;-0,00273295
3993,8550;-0,00278304
3994,8191;-0,00284329
3995,7834;-0,0029031
3996,7476;-0,00294988
3997,7119;-0,00297452
3998,6760;-0,00297627
3999,6404;-0,00296294
4000,6045;-0,00248476

##### Extended Information
[Comments]
Sample name
Comment
Username
Division
Organization;UNIVERSIDAD INDUSTRIAL DE SANTANDER

[Detailed Information]
Creation date;20/03/2025 12:38 p.m.

Data array type;Linear data array
Horizontal axis;Wavenumber [cm-1]
Vertical axis;Abs
Start;399,193 cm-1
End;4000,6 cm-1
Data interval;0,964233 cm-1
Data points;3736    

[Measurement Information]
Model name;FT/IR-4X1typeA
Serial No.;A035162111

Accessory;ATR PRO 4X
Accessory S/N;A021162126
Incident angle;45 deg

Measurement date;20/03/2025 12:36 p.m.

Light source;Standard
Detector;TGS
Accumulation;40
Resolution;4 cm-1
Zero filling;On
Apodization;Cosine
Gain;Auto (8)
Aperture;Auto (7 mm)
Scan speed;Auto (2 mm/sec)
Filter;Auto (12800 Hz)

