TITLE;
DATA TYPE;INFRARED SPECTRUM
ORIGIN;JASCO
OWNER;
DATE;25/03/20
TIME;11:53:06
SPECTROMETER/DATA SYSTEM;
LOCALE;9226
RESOLUTION;
DELTAX;0,964233
XUNITS;1/CM
YUNITS;ABSORBANCE
FIRSTX;  399,1927
LASTX; 4000,6047
NPOINTS;    3736
FIRSTY;     0,26896
MAXY;     0,32066
MINY;    -0,00104
XYDATA
399,1927;0,268959
400,1569;0,268455
401,1211;0,268343
402,0854;0,268202
403,0496;0,267693
404,0138;0,266811
404,9781;0,265895
405,9423;0,265426
406,9065;0,265716
407,8708;0,266686
408,8350;0,267934
409,7992;0,269008
410,7635;0,269669
411,7277;0,269968
412,6919;0,270134
413,6562;0,270382
414,6204;0,270833
415,5846;0,271546
416,5489;0,272594
417,5131;0,274033
418,4773;0,275746
419,4416;0,277325
420,4058;0,278345
421,3700;0,278703
422,3343;0,278555
423,2985;0,278087
424,2627;0,277455
425,2270;0,276807
426,1912;0,276313
427,1554;0,276128
428,1197;0,276328
429,0839;0,276866
430,0481;0,277569
431,0124;0,278204
431,9766;0,278579
432,9408;0,278632
433,9051;0,278444
434,8693;0,278164
435,8335;0,27789
436,7978;0,27761
437,7620;0,277221
438,7262;0,276626
439,6905;0,275808
440,6547;0,274856
441,6189;0,273923
442,5832;0,273159
443,5474;0,272621
444,5116;0,272249
445,4759;0,271906
446,4401;0,271485
447,4043;0,270974
448,3686;0,27046
449,3328;0,270081
450,2970;0,269947
451,2613;0,270067
452,2255;0,270313
453,1897;0,270457
454,1540;0,270263
455,1182;0,269578
456,0824;0,268411
457,0467;0,266976
458,0109;0,265629
458,9751;0,264688
459,9394;0,264262
460,9036;0,26425
461,8678;0,264479
462,8321;0,264801
463,7963;0,265107
464,7605;0,2653
465,7248;0,265288
466,6890;0,265034
467,6532;0,264595
468,6175;0,264135
469,5817;0,263865
470,5459;0,263949
471,5102;0,26439
472,4744;0,264971
473,4386;0,265348
474,4029;0,265251
475,3671;0,264637
476,3313;0,263683
477,2956;0,262685
478,2598;0,261947
479,2240;0,261686
480,1883;0,261968
481,1525;0,26269
482,1167;0,263612
483,0810;0,264443
484,0452;0,264943
485,0094;0,265026
485,9737;0,264788
486,9379;0,264444
487,9021;0,264203
488,8664;0,264175
489,8306;0,264345
490,7948;0,264591
491,7591;0,264762
492,7233;0,264763
493,6875;0,264603
494,6518;0,264381
495,6160;0,26422
496,5802;0,264203
497,5445;0,26435
498,5087;0,264631
499,4729;0,264982
500,4372;0,265324
501,4014;0,265579
502,3656;0,265703
503,3299;0,265706
504,2941;0,265662
505,2583;0,265675
506,2226;0,265833
507,1868;0,266161
508,1510;0,26662
509,1153;0,267131
510,0795;0,267625
511,0437;0,268079
512,0080;0,268514
512,9722;0,268969
513,9365;0,269474
514,9007;0,270027
515,8649;0,270596
516,8292;0,271107
517,7934;0,27146
518,7576;0,271555
519,7219;0,271342
520,6861;0,270851
521,6503;0,270179
522,6146;0,269459
523,5788;0,268815
524,5430;0,268335
525,5073;0,268032
526,4715;0,267831
527,4357;0,267612
528,4000;0,267271
529,3642;0,266776
530,3284;0,266167
531,2927;0,265524
532,2569;0,264918
533,2211;0,264373
534,1854;0,263856
535,1496;0,263307
536,1138;0,26269
537,0781;0,26203
538,0423;0,261411
539,0065;0,260933
539,9708;0,260653
540,9350;0,260563
541,8992;0,260597
542,8635;0,260673
543,8277;0,260727
544,7919;0,260733
545,7562;0,260703
546,7204;0,260674
547,6846;0,260686
548,6489;0,260772
549,6131;0,260946
550,5773;0,261199
551,5416;0,261513
552,5058;0,261872
553,4700;0,262275
554,4343;0,262714
555,3985;0,263147
556,3627;0,263464
557,3270;0,263499
558,2912;0,263082
559,2554;0,262131
560,2197;0,260702
561,1839;0,258995
562,1481;0,257284
563,1124;0,255809
564,0766;0,254695
565,0408;0,253929
566,0051;0,253409
566,9693;0,253018
567,9335;0,252693
568,8978;0,252426
569,8620;0,25223
570,8262;0,252085
571,7905;0,251912
572,7547;0,251609
573,7189;0,251105
574,6832;0,250417
575,6474;0,249654
576,6116;0,248967
577,5759;0,248465
578,5401;0,248154
579,5043;0,247941
580,4686;0,247688
581,4328;0,247288
582,3970;0,246711
583,3613;0,246012
584,3255;0,245294
585,2897;0,244661
586,2540;0,244181
587,2182;0,243871
588,1824;0,243704
589,1467;0,243622
590,1109;0,243556
591,0751;0,243436
592,0394;0,243215
593,0036;0,242884
593,9678;0,242476
594,9321;0,242047
595,8963;0,241648
596,8605;0,241298
597,8248;0,240973
598,7890;0,240622
599,7532;0,240196
600,7175;0,239677
601,6817;0,239085
602,6459;0,23846
603,6102;0,237832
604,5744;0,237201
605,5386;0,236539
606,5029;0,235813
607,4671;0,234998
608,4313;0,23409
609,3956;0,233104
610,3598;0,232068
611,3240;0,231028
612,2883;0,230035
613,2525;0,229134
614,2167;0,228332
615,1810;0,227567
616,1452;0,226721
617,1094;0,225664
618,0737;0,224329
619,0379;0,222759
620,0021;0,221077
620,9664;0,219421
621,9306;0,217881
622,8948;0,216488
623,8591;0,215233
624,8233;0,21409
625,7875;0,213075
626,7518;0,212188
627,7160;0,211415
628,6802;0,210717
629,6445;0,210044
630,6087;0,209355
631,5729;0,208633
632,5372;0,207889
633,5014;0,207148
634,4656;0,206436
635,4299;0,205771
636,3941;0,205162
637,3583;0,20461
638,3226;0,204115
639,2868;0,203666
640,2510;0,20325
641,2153;0,202843
642,1795;0,202426
643,1437;0,201984
644,1080;0,201514
645,0722;0,201029
646,0364;0,200546
647,0007;0,200089
647,9649;0,199671
648,9291;0,199299
649,8934;0,198975
650,8576;0,198697
651,8218;0,198464
652,7861;0,198284
653,7503;0,198162
654,7145;0,198106
655,6788;0,198126
656,6430;0,198226
657,6072;0,198395
658,5715;0,198584
659,5357;0,198697
660,4999;0,198616
661,4642;0,198268
662,4284;0,197676
663,3926;0,196952
664,3569;0,196244
665,3211;0,195717
666,2853;0,195502
667,2496;0,195501
668,2138;0,195163
669,1780;0,193919
670,1423;0,19195
671,1065;0,189787
672,0707;0,187658
673,0350;0,185552
673,9992;0,183437
674,9634;0,181348
675,9277;0,17937
676,8919;0,177576
677,8561;0,17598
678,8204;0,174545
679,7846;0,17322
680,7488;0,171975
681,7131;0,170796
682,6773;0,169682
683,6415;0,168637
684,6058;0,167676
685,5700;0,166814
686,5342;0,166058
687,4985;0,165399
688,4627;0,164815
689,4269;0,164289
690,3912;0,163811
691,3554;0,163378
692,3196;0,162978
693,2839;0,162584
694,2481;0,162167
695,2123;0,161707
696,1766;0,161202
697,1408;0,160656
698,1050;0,160076
699,0693;0,159462
700,0335;0,158818
700,9977;0,158162
701,9620;0,157523
702,9262;0,156924
703,8904;0,15636
704,8547;0,155798
705,8189;0,155189
706,7831;0,154491
707,7474;0,153701
708,7116;0,152855
709,6758;0,152003
710,6401;0,151179
711,6043;0,150383
712,5685;0,149588
713,5328;0,148772
714,4970;0,147944
715,4612;0,146931
716,4255;0,14622
717,3897;0,145565
718,3539;0,144878
719,3182;0,144032
720,2824;0,142936
721,2466;0,141598
722,2109;0,14013
723,1751;0,138682
724,1393;0,137372
725,1036;0,136236
726,0678;0,135251
727,0320;0,134363
727,9963;0,133526
728,9605;0,132715
729,9247;0,131918
730,8890;0,131126
731,8532;0,13033
732,8174;0,129529
733,7817;0,128738
734,7459;0,127986
735,7101;0,1273
736,6744;0,126692
737,6386;0,126144
738,6028;0,125628
739,5671;0,125116
740,5313;0,124597
741,4955;0,124079
742,4598;0,123576
743,4240;0,123098
744,3882;0,12264
745,3525;0,122189
746,3167;0,121731
747,2809;0,121263
748,2452;0,12079
749,2094;0,120323
750,1736;0,119865
751,1379;0,11941
752,1021;0,118948
753,0663;0,118475
754,0306;0,117992
754,9948;0,11751
755,9590;0,11704
756,9233;0,116591
757,8875;0,116164
758,8517;0,115753
759,8160;0,115344
760,7802;0,114923
761,7444;0,114472
762,7087;0,11398
763,6729;0,113445
764,6371;0,112879
765,6014;0,1123
766,5656;0,111725
767,5298;0,111164
768,4941;0,11062
769,4583;0,110089
770,4225;0,109568
771,3868;0,109066
772,3510;0,108593
773,3152;0,10816
774,2795;0,107767
775,2437;0,107403
776,2079;0,107044
777,1722;0,10666
778,1364;0,106225
779,1006;0,105725
780,0649;0,105161
781,0291;0,104549
781,9933;0,103914
782,9576;0,103279
783,9218;0,102654
784,8860;0,102041
785,8503;0,101437
786,8145;0,100847
787,7787;0,100288
788,7430;0,0997775
789,7072;0,0993266
790,6714;0,0989273
791,6357;0,0985582
792,5999;0,0981979
793,5641;0,0978384
794,5284;0,0974875
795,4926;0,0971601
796,4568;0,0968629
797,4211;0,0965871
798,3853;0,0963123
799,3495;0,0960187
800,3138;0,0956982
801,2780;0,0953557
802,2422;0,0950023
803,2065;0,0946471
804,1707;0,0942934
805,1349;0,0939429
806,0992;0,0936015
807,0634;0,0932809
808,0276;0,092994
808,9919;0,0927462
809,9561;0,0925303
810,9203;0,092328
811,8846;0,0921198
812,8488;0,0918947
813,8130;0,0916558
814,7773;0,0914171
815,7415;0,0911958
816,7057;0,091005
817,6700;0,0908505
818,6342;0,0907312
819,5984;0,0906402
820,5627;0,0905657
821,5269;0,0904927
822,4911;0,0904068
823,4554;0,0903016
824,4196;0,0901826
825,3839;0,0900654
826,3481;0,0899661
827,3123;0,0898899
828,2766;0,0898259
829,2408;0,0897524
830,2050;0,089648
831,1693;0,0895025
832,1335;0,0893203
833,0977;0,0891149
834,0620;0,0889004
835,0262;0,0886847
835,9904;0,0884679
836,9547;0,0882454
837,9189;0,0880122
838,8831;0,0877678
839,8474;0,0875186
840,8116;0,0872757
841,7758;0,0870506
842,7401;0,0868482
843,7043;0,0866632
844,6685;0,0864831
845,6328;0,086297
846,5970;0,0861044
847,5612;0,0859178
848,5255;0,0857558
849,4897;0,0856321
850,4539;0,0855484
851,4182;0,0854946
852,3824;0,0854579
853,3466;0,0854296
854,3109;0,0854078
855,2751;0,0853925
856,2393;0,0853809
857,2036;0,085366
858,1678;0,0853405
859,1320;0,0853014
860,0963;0,0852522
861,0605;0,0852004
862,0247;0,0851546
862,9890;0,0851225
863,9532;0,0851128
864,9174;0,0851357
865,8817;0,0852015
866,8459;0,085316
867,8101;0,0854756
868,7744;0,0856657
869,7386;0,0858648
870,7028;0,0860514
871,6671;0,0862117
872,6313;0,0863435
873,5955;0,0864556
874,5598;0,0865623
875,5240;0,0866768
876,4882;0,0868066
877,4525;0,0869541
878,4167;0,0871221
879,3809;0,0873211
880,3452;0,087573
881,3094;0,0879094
882,2736;0,088364
883,2379;0,0889633
884,2021;0,0897191
885,1663;0,0906266
886,1306;0,0916669
887,0948;0,092812
888,0590;0,094032
889,0233;0,0952995
889,9875;0,0965916
890,9517;0,0978872
891,9160;0,0991601
892,8802;0,100372
893,8444;0,101472
894,8087;0,102403
895,7729;0,103113
896,7371;0,103572
897,7014;0,103772
898,6656;0,10373
899,6298;0,103469
900,5941;0,103015
901,5583;0,102391
902,5225;0,101627
903,4868;0,100761
904,4510;0,0998464
905,4152;0,0989445
906,3795;0,0981168
907,3437;0,0974129
908,3079;0,0968632
909,2722;0,0964761
910,2364;0,0962422
911,2007;0,0961412
912,1649;0,0961505
913,1292;0,0962517
914,0934;0,0964343
915,0576;0,0966947
916,0219;0,0970329
916,9861;0,0974475
917,9503;0,0979317
918,9146;0,0984706
919,8788;0,0990426
920,8430;0,0996227
921,8073;0,100189
922,7715;0,100728
923,7357;0,101235
924,7000;0,101712
925,6642;0,102156
926,6284;0,102563
927,5927;0,102921
928,5569;0,10322
929,5211;0,10346
930,4854;0,103653
931,4496;0,103819
932,4138;0,103984
933,3781;0,104167
934,3423;0,10438
935,3065;0,104633
936,2708;0,104936
937,2350;0,105305
938,1992;0,105754
939,1635;0,106298
940,1277;0,106944
941,0919;0,107694
942,0562;0,108546
943,0204;0,109498
943,9846;0,110552
944,9489;0,111714
945,9131;0,112994
946,8773;0,114395
947,8416;0,115918
948,8058;0,117559
949,7700;0,119312
950,7343;0,121181
951,6985;0,123174
952,6627;0,125299
953,6270;0,127555
954,5912;0,129925
955,5554;0,132382
956,5197;0,134896
957,4839;0,137447
958,4481;0,140027
959,4124;0,142637
960,3766;0,145277
961,3408;0,147943
962,3051;0,150632
963,2693;0,153343
964,2335;0,15608
965,1978;0,158853
966,1620;0,161674
967,1262;0,164552
968,0905;0,167503
969,0547;0,170552
970,0189;0,17374
970,9832;0,177117
971,9474;0,180734
972,9116;0,184624
973,8759;0,188801
974,8401;0,193257
975,8043;0,197972
976,7686;0,202919
977,7328;0,208061
978,6970;0,213351
979,6613;0,218717
980,6255;0,224063
981,5897;0,229274
982,5540;0,234238
983,5182;0,23887
984,4824;0,243129
985,4467;0,247017
986,4109;0,250566
987,3751;0,253817
988,3394;0,256798
989,3036;0,259515
990,2678;0,261963
991,2321;0,264127
992,1963;0,266001
993,1605;0,267589
994,1248;0,268909
995,0890;0,269991
996,0532;0,270874
997,0175;0,271601
997,9817;0,272215
998,9459;0,27276
999,9102;0,273281
1000,8744;0,273833
1001,8386;0,274481
1002,8029;0,275299
1003,7671;0,276361
1004,7313;0,277731
1005,6956;0,27945
1006,6598;0,281532
1007,6240;0,283967
1008,5883;0,286726
1009,5525;0,289762
1010,5167;0,293014
1011,4810;0,296404
1012,4452;0,299833
1013,4094;0,303195
1014,3737;0,306382
1015,3379;0,309304
1016,3021;0,311901
1017,2664;0,31414
1018,2306;0,316014
1019,1948;0,317532
1020,1591;0,318712
1021,1233;0,319581
1022,0875;0,32017
1023,0518;0,320519
1024,0160;0,320665
1024,9802;0,32064
1025,9445;0,320464
1026,9087;0,320149
1027,8729;0,319694
1028,8372;0,319089
1029,8014;0,318308
1030,7656;0,31731
1031,7299;0,316041
1032,6941;0,314451
1033,6583;0,312517
1034,6226;0,310266
1035,5868;0,307779
1036,5510;0,305184
1037,5153;0,302631
1038,4795;0,300262
1039,4437;0,298181
1040,4080;0,296433
1041,3722;0,295002
1042,3364;0,293818
1043,3007;0,292781
1044,2649;0,291786
1045,2291;0,290748
1046,1934;0,289608
1047,1576;0,28833
1048,1218;0,286886
1049,0861;0,285246
1050,0503;0,283377
1051,0145;0,281253
1051,9788;0,278868
1052,9430;0,276245
1053,9072;0,273426
1054,8715;0,270449
1055,8357;0,26733
1056,7999;0,264051
1057,7642;0,260572
1058,7284;0,256852
1059,6926;0,252893
1060,6569;0,248747
1061,6211;0,244522
1062,5853;0,240355
1063,5496;0,236375
1064,5138;0,232682
1065,4780;0,229329
1066,4423;0,226327
1067,4065;0,223654
1068,3707;0,221263
1069,3350;0,219089
1070,2992;0,217052
1071,2634;0,215068
1072,2277;0,213052
1073,1919;0,210937
1074,1561;0,208675
1075,1204;0,206247
1076,0846;0,203654
1077,0488;0,200922
1078,0131;0,198092
1078,9773;0,195225
1079,9415;0,192388
1080,9058;0,18965
1081,8700;0,187073
1082,8342;0,184699
1083,7985;0,182551
1084,7627;0,180632
1085,7269;0,178928
1086,6912;0,177412
1087,6554;0,176054
1088,6196;0,174831
1089,5839;0,173729
1090,5481;0,172751
1091,5123;0,171913
1092,4766;0,171228
1093,4408;0,170704
1094,4050;0,170331
1095,3693;0,170083
1096,3335;0,169926
1097,2977;0,169822
1098,2620;0,169742
1099,2262;0,169659
1100,1904;0,169553
1101,1547;0,169405
1102,1189;0,169192
1103,0831;0,168894
1104,0474;0,168496
1105,0116;0,168001
1105,9758;0,167425
1106,9401;0,166794
1107,9043;0,166124
1108,8685;0,16541
1109,8328;0,164611
1110,7970;0,163668
1111,7612;0,162525
1112,7255;0,161159
1113,6897;0,159594
1114,6539;0,157898
1115,6182;0,156165
1116,5824;0,154478
1117,5466;0,152892
1118,5109;0,151417
1119,4751;0,150021
1120,4393;0,148643
1121,4036;0,147205
1122,3678;0,14563
1123,3320;0,143853
1124,2963;0,141839
1125,2605;0,139582
1126,2247;0,137108
1127,1890;0,134468
1128,1532;0,131723
1129,1174;0,128935
1130,0817;0,126158
1131,0459;0,123437
1132,0101;0,12081
1132,9744;0,118315
1133,9386;0,115995
1134,9028;0,113901
1135,8671;0,112088
1136,8313;0,110605
1137,7955;0,109483
1138,7598;0,108729
1139,7240;0,108324
1140,6882;0,108228
1141,6525;0,10839
1142,6167;0,108763
1143,5809;0,109301
1144,5452;0,109967
1145,5094;0,110731
1146,4736;0,111567
1147,4379;0,112454
1148,4021;0,113372
1149,3663;0,114295
1150,3306;0,115189
1151,2948;0,11601
1152,2590;0,116711
1153,2233;0,117243
1154,1875;0,11756
1155,1517;0,117622
1156,1160;0,117385
1157,0802;0,116804
1158,0444;0,115829
1159,0087;0,114414
1159,9729;0,112518
1160,9371;0,110122
1161,9014;0,107228
1162,8656;0,103874
1163,8298;0,100136
1164,7941;0,0961217
1165,7583;0,0919689
1166,7225;0,0878229
1167,6868;0,0838179
1168,6510;0,0800587
1169,6152;0,0766101
1170,5795;0,0734963
1171,5437;0,0707105
1172,5079;0,0682284
1173,4722;0,0660211
1174,4364;0,0640637
1175,4006;0,0623368
1176,3649;0,0608245
1177,3291;0,0595106
1178,2933;0,0583772
1179,2576;0,0574048
1180,2218;0,0565739
1181,1860;0,0558679
1182,1503;0,0552741
1183,1145;0,054785
1184,0787;0,0543981
1185,0430;0,0541154
1186,0072;0,0539425
1186,9714;0,0538866
1187,9357;0,0539543
1188,8999;0,0541501
1189,8641;0,0544756
1190,8284;0,0549298
1191,7926;0,0555091
1192,7568;0,0562074
1193,7211;0,0570151
1194,6853;0,0579177
1195,6495;0,0588958
1196,6138;0,0599252
1197,5780;0,0609801
1198,5422;0,0620367
1199,5065;0,0629527
1200,4707;0,0639839
1201,4349;0,0649893
1202,3992;0,065969
1203,3634;0,0669209
1204,3276;0,067839
1205,2919;0,068716
1206,2561;0,0695502
1207,2203;0,0703516
1208,1846;0,071145
1209,1488;0,071965
1210,1130;0,0728476
1211,0773;0,0738193
1212,0415;0,0748913
1213,0057;0,0760582
1213,9700;0,0773039
1214,9342;0,0786086
1215,8984;0,0799545
1216,8627;0,0813261
1217,8269;0,0827084
1218,7911;0,0840854
1219,7554;0,0854393
1220,7196;0,0867525
1221,6838;0,0880106
1222,6481;0,0892057
1223,6123;0,0903365
1224,5765;0,0914056
1225,5408;0,0924164
1226,5050;0,0933698
1227,4692;0,0942637
1228,4335;0,0950937
1229,3977;0,0958553
1230,3619;0,0965451
1231,3262;0,0971609
1232,2904;0,0977015
1233,2546;0,0981652
1234,2189;0,0985517
1235,1831;0,0988623
1236,1473;0,0991016
1237,1116;0,0992764
1238,0758;0,0993936
1239,0400;0,0994568
1240,0043;0,099465
1240,9685;0,0994132
1241,9327;0,0992959
1242,8970;0,0991098
1243,8612;0,0988556
1244,8254;0,0985367
1245,7897;0,098158
1246,7539;0,0977245
1247,7181;0,0972433
1248,6824;0,0967239
1249,6466;0,0961788
1250,6108;0,0956209
1251,5751;0,0950602
1252,5393;0,0945011
1253,5035;0,0939422
1254,4678;0,0933783
1255,4320;0,0928021
1256,3962;0,0922068
1257,3605;0,0915867
1258,3247;0,0909378
1259,2889;0,0902574
1260,2532;0,0895433
1261,2174;0,0887919
1262,1816;0,0879979
1263,1459;0,0871553
1264,1101;0,0862602
1265,0743;0,0853134
1266,0386;0,0843198
1267,0028;0,0832849
1267,9670;0,0822116
1268,9313;0,0810989
1269,8955;0,0799448
1270,8597;0,0787509
1271,8240;0,0775254
1272,7882;0,0762829
1273,7524;0,0750409
1274,7167;0,0738167
1275,6809;0,0726257
1276,6451;0,07148
1277,6094;0,070387
1278,5736;0,0693475
1279,5378;0,0683547
1280,5021;0,0673982
1281,4663;0,0664694
1282,4305;0,0655671
1283,3948;0,0646989
1284,3590;0,0638801
1285,3232;0,0631295
1286,2875;0,0624658
1287,2517;0,0619048
1288,2159;0,0614559
1289,1802;0,0611203
1290,1444;0,0608911
1291,1086;0,060757
1292,0729;0,0607086
1293,0371;0,0607424
1294,0013;0,0608618
1294,9656;0,0610722
1295,9298;0,0613754
1296,8940;0,0617667
1297,8583;0,0622359
1298,8225;0,0627715
1299,7867;0,063364
1300,7510;0,0640059
1301,7152;0,0646929
1302,6794;0,0654219
1303,6437;0,0661926
1304,6079;0,0670088
1305,5721;0,0678754
1306,5364;0,0687938
1307,5006;0,0697583
1308,4648;0,0707581
1309,4291;0,0717806
1310,3933;0,0728157
1311,3575;0,073853
1312,3218;0,0748754
1313,2860;0,075853
1314,2502;0,0767421
1315,2145;0,077491
1316,1787;0,0780499
1317,1429;0,0783842
1318,1072;0,0784867
1319,0714;0,0783866
1320,0356;0,0781452
1320,9999;0,077836
1321,9641;0,0775222
1322,9283;0,0772431
1323,8926;0,0770154
1324,8568;0,0768408
1325,8210;0,0767125
1326,7853;0,0766181
1327,7495;0,0765395
1328,7137;0,0764541
1329,6780;0,076338
1330,6422;0,0761714
1331,6064;0,0759437
1332,5707;0,0756537
1333,5349;0,0753064
1334,4991;0,0749042
1335,4634;0,0744402
1336,4276;0,0738971
1337,3918;0,0732553
1338,3561;0,0725122
1339,3203;0,0717035
1340,2845;0,0709009
1341,2488;0,0701765
1342,2130;0,0695666
1343,1772;0,0690684
1344,1415;0,068664
1345,1057;0,0683427
1346,0699;0,0681085
1347,0342;0,0679741
1347,9984;0,0679526
1348,9626;0,0680499
1349,9269;0,0682618
1350,8911;0,0685747
1351,8553;0,0689696
1352,8196;0,0694288
1353,7838;0,069941
1354,7480;0,0705031
1355,7123;0,0711168
1356,6765;0,0717823
1357,6407;0,0724958
1358,6050;0,0732518
1359,5692;0,0740449
1360,5334;0,0748612
1361,4977;0,0756669
1362,4619;0,0764155
1363,4261;0,0770794
1364,3904;0,0776652
1365,3546;0,0781933
1366,3188;0,0786733
1367,2831;0,0790979
1368,2473;0,0794492
1369,2115;0,0797075
1370,1758;0,0798557
1371,1400;0,0798762
1372,1042;0,0797459
1373,0685;0,0794381
1374,0327;0,0789415
1374,9969;0,0782811
1375,9612;0,0775065
1376,9254;0,0766468
1377,8896;0,0756861
1378,8539;0,0745892
1379,8181;0,0733514
1380,7823;0,0720256
1381,7466;0,0706994
1382,7108;0,0694377
1383,6750;0,0682435
1384,6393;0,0670683
1385,6035;0,0658615
1386,5677;0,0646313
1387,5320;0,0634714
1388,4962;0,0625061
1389,4604;0,0617925
1390,4247;0,0612928
1391,3889;0,0609302
1392,3531;0,0606508
1393,3174;0,0604394
1394,2816;0,0602994
1395,2458;0,0602277
1396,2101;0,0602101
1397,1743;0,0602372
1398,1385;0,0603172
1399,1028;0,060469
1400,0670;0,0607037
1401,0313;0,0610125
1401,9955;0,0613729
1402,9597;0,0617659
1403,9240;0,0621892
1404,8882;0,0626569
1405,8524;0,0631873
1406,8167;0,0637879
1407,7809;0,064451
1408,7451;0,0651639
1409,7094;0,0659235
1410,6736;0,0667361
1411,6378;0,0676015
1412,6021;0,0684967
1413,5663;0,0693781
1414,5305;0,0702019
1415,4948;0,0709452
1416,4590;0,0716078
1417,4232;0,0721913
1418,3875;0,0726848
1419,3517;0,07309
1420,3159;0,073428
1421,2802;0,0736894
1422,2444;0,0738133
1423,2086;0,0737352
1424,1729;0,0734388
1425,1371;0,0729605
1426,1013;0,0723491
1427,0656;0,0716207
1428,0298;0,0707542
1428,9940;0,0697381
1429,9583;0,0686214
1430,9225;0,0675037
1431,8867;0,066454
1432,8510;0,06545
1433,8152;0,0644005
1434,7794;0,0632254
1435,7437;0,0619494
1436,7079;0,0607547
1437,6721;0,0598848
1438,6364;0,0594356
1439,6006;0,0592994
1440,5648;0,0593042
1441,5291;0,0593435
1442,4933;0,0594026
1443,4575;0,0595192
1444,4218;0,0597311
1445,3860;0,0600449
1446,3502;0,0604386
1447,3145;0,0608845
1448,2787;0,0613676
1449,2429;0,0618818
1450,2072;0,0624052
1451,1714;0,0628842
1452,1356;0,0632469
1453,0999;0,0634383
1454,0641;0,063447
1455,0283;0,063296
1455,9926;0,0629886
1456,9568;0,0625243
1457,9210;0,0620754
1458,8853;0,0618944
1459,8495;0,0619694
1460,8137;0,062073
1461,7780;0,0619808
1462,7422;0,0615481
1463,7064;0,0607133
1464,6707;0,0595348
1465,6349;0,0582139
1466,5991;0,0569656
1467,5634;0,0558401
1468,5276;0,0547188
1469,4918;0,0534277
1470,4561;0,0518141
1471,4203;0,0497815
1472,3845;0,0473675
1473,3488;0,0448464
1474,3130;0,0426106
1475,2772;0,040856
1476,2415;0,0395166
1477,2057;0,0384429
1478,1699;0,0375281
1479,1342;0,0367216
1480,0984;0,0360046
1481,0626;0,0353746
1482,0269;0,0348421
1482,9911;0,0344245
1483,9553;0,0341331
1484,9196;0,0339666
1485,8838;0,0339175
1486,8480;0,0339756
1487,8123;0,0341117
1488,7765;0,0342695
1489,7407;0,0344213
1490,7050;0,0346136
1491,6692;0,0348971
1492,6334;0,0352667
1493,5977;0,035703
1494,5619;0,0362278
1495,5261;0,0369078
1496,4904;0,0377982
1497,4546;0,0388724
1498,4188;0,0400275
1499,3831;0,0411546
1500,3473;0,0421607
1501,3115;0,0429598
1502,2758;0,0434929
1503,2400;0,0437677
1504,2042;0,0438841
1505,1685;0,0439919
1506,1327;0,0440952
1507,0969;0,0439273
1508,0612;0,0433991
1509,0254;0,0427954
1509,9896;0,0422648
1510,9539;0,0417378
1511,9181;0,0411261
1512,8823;0,0403966
1513,8466;0,0395531
1514,8108;0,038609
1515,7750;0,0375817
1516,7393;0,0365005
1517,7035;0,0354018
1518,6677;0,0343098
1519,6320;0,0332303
1520,5962;0,0321775
1521,5604;0,0312047
1522,5247;0,030386
1523,4889;0,0297483
1524,4531;0,0292495
1525,4174;0,0288291
1526,3816;0,0284651
1527,3458;0,0281758
1528,3101;0,0279785
1529,2743;0,0278612
1530,2385;0,0277976
1531,2028;0,0277776
1532,1670;0,0278122
1533,1312;0,0279115
1534,0955;0,0280624
1535,0597;0,0282203
1536,0239;0,0283267
1536,9882;0,0283579
1537,9524;0,0283729
1538,9166;0,0284867
1539,8809;0,028702
1540,8451;0,0287954
1541,8093;0,0286621
1542,7736;0,0284925
1543,7378;0,0284134
1544,7020;0,0284094
1545,6663;0,0284514
1546,6305;0,0285342
1547,5947;0,0286509
1548,5590;0,0287795
1549,5232;0,0288976
1550,4874;0,0290041
1551,4517;0,0291201
1552,4159;0,0292622
1553,3801;0,02941
1554,3444;0,0295083
1555,3086;0,0295083
1556,2728;0,0294048
1557,2371;0,0292115
1558,2013;0,0289165
1559,1655;0,0286722
1560,1298;0,0288448
1561,0940;0,0294923
1562,0582;0,0303432
1563,0225;0,0311459
1563,9867;0,031787
1564,9509;0,0322595
1565,9152;0,0326181
1566,8794;0,0329499
1567,8436;0,0333451
1568,8079;0,033858
1569,7721;0,0344781
1570,7363;0,0351402
1571,7006;0,0357689
1572,6648;0,0363298
1573,6290;0,0368658
1574,5933;0,037487
1575,5575;0,0382871
1576,5217;0,0392428
1577,4860;0,0402477
1578,4502;0,041235
1579,4144;0,0421997
1580,3787;0,0431625
1581,3429;0,0441561
1582,3071;0,0452097
1583,2714;0,0463294
1584,2356;0,047497
1585,1998;0,0486902
1586,1641;0,0498963
1587,1283;0,0511043
1588,0925;0,052289
1589,0568;0,0534069
1590,0210;0,0544084
1590,9852;0,0552521
1591,9495;0,0559075
1592,9137;0,056352
1593,8779;0,0565738
1594,8422;0,0565855
1595,8064;0,0564316
1596,7706;0,0561776
1597,7349;0,0558848
1598,6991;0,055593
1599,6633;0,0553188
1600,6276;0,0550657
1601,5918;0,0548361
1602,5560;0,0546373
1603,5203;0,0544781
1604,4845;0,0543588
1605,4487;0,0542664
1606,4130;0,0541806
1607,3772;0,0540911
1608,3414;0,0540134
1609,3057;0,0539858
1610,2699;0,0540391
1611,2341;0,0541627
1612,1984;0,0543077
1613,1626;0,0544263
1614,1268;0,0545126
1615,0911;0,0546112
1616,0553;0,0547892
1617,0195;0,0550958
1617,9838;0,055529
1618,9480;0,0560209
1619,9122;0,0564771
1620,8765;0,0568384
1621,8407;0,0571032
1622,8049;0,0573065
1623,7692;0,0574856
1624,7334;0,0576595
1625,6976;0,0578268
1626,6619;0,0579806
1627,6261;0,0581261
1628,5903;0,0582802
1629,5546;0,0584464
1630,5188;0,0585947
1631,4830;0,0586745
1632,4473;0,0586519
1633,4115;0,0585349
1634,3757;0,0583559
1635,3400;0,0581411
1636,3042;0,0579501
1637,2684;0,0578921
1638,2327;0,0579968
1639,1969;0,0581773
1640,1611;0,0583286
1641,1254;0,0583903
1642,0896;0,058347
1643,0538;0,0582143
1644,0181;0,0580253
1644,9823;0,0578114
1645,9465;0,057584
1646,9108;0,0573615
1647,8750;0,0571733
1648,8392;0,0569787
1649,8035;0,0566527
1650,7677;0,0560662
1651,7319;0,0551342
1652,6962;0,0538814
1653,6604;0,052668
1654,6246;0,0520409
1655,5889;0,0520346
1656,5531;0,0522479
1657,5173;0,0523393
1658,4816;0,0521646
1659,4458;0,0517137
1660,4100;0,0510366
1661,3743;0,050214
1662,3385;0,0493649
1663,3027;0,0486234
1664,2670;0,0480526
1665,2312;0,047601
1666,1954;0,0471497
1667,1597;0,0465754
1668,1239;0,0457945
1669,0881;0,0448139
1670,0524;0,0437676
1671,0166;0,0428244
1671,9808;0,0420256
1672,9451;0,0412748
1673,9093;0,0404692
1674,8735;0,0396163
1675,8378;0,0388472
1676,8020;0,0383058
1677,7662;0,0380088
1678,7305;0,0378303
1679,6947;0,0375966
1680,6589;0,0371656
1681,6232;0,0364413
1682,5874;0,0353727
1683,5516;0,0340484
1684,5159;0,0328153
1685,4801;0,0320291
1686,4443;0,0316886
1687,4086;0,0315463
1688,3728;0,0313824
1689,3370;0,031105
1690,3013;0,0307257
1691,2655;0,0303035
1692,2297;0,0299023
1693,1940;0,0295714
1694,1582;0,0293364
1695,1224;0,0291825
1696,0867;0,0290397
1697,0509;0,0288032
1698,0151;0,0284135
1698,9794;0,0279464
1699,9436;0,0276027
1700,9078;0,0275602
1701,8721;0,0278353
1702,8363;0,0283009
1703,8005;0,028802
1704,7648;0,0292414
1705,7290;0,0296053
1706,6932;0,0299459
1707,6575;0,0303374
1708,6217;0,0308285
1709,5859;0,0314213
1710,5502;0,0320859
1711,5144;0,0327844
1712,4786;0,0334848
1713,4429;0,0341666
1714,4071;0,0348204
1715,3713;0,0354317
1716,3356;0,0359666
1717,2998;0,036422
1718,2640;0,0368871
1719,2283;0,0374564
1720,1925;0,0381235
1721,1567;0,0388154
1722,1210;0,0394667
1723,0852;0,0400488
1724,0494;0,0405683
1725,0137;0,041055
1725,9779;0,0415458
1726,9421;0,0420606
1727,9064;0,0425834
1728,8706;0,0430607
1729,8348;0,043417
1730,7991;0,0435747
1731,7633;0,0434716
1732,7275;0,0430992
1733,6918;0,0425732
1734,6560;0,04211
1735,6202;0,04183
1736,5845;0,0416493
1737,5487;0,0413921
1738,5129;0,0409304
1739,4772;0,0402441
1740,4414;0,0394139
1741,4056;0,0385621
1742,3699;0,0377675
1743,3341;0,0370245
1744,2983;0,0362756
1745,2626;0,0354644
1746,2268;0,0345485
1747,1910;0,0334752
1748,1553;0,0321712
1749,1195;0,0306077
1750,0837;0,0289035
1751,0480;0,0273019
1752,0122;0,0259851
1752,9764;0,0249533
1753,9407;0,0240817
1754,9049;0,0232371
1755,8691;0,0223532
1756,8334;0,0214416
1757,7976;0,0205492
1758,7618;0,0197006
1759,7261;0,0188757
1760,6903;0,0180425
1761,6545;0,0172084
1762,6188;0,0164309
1763,5830;0,015769
1764,5472;0,0152315
1765,5115;0,0147764
1766,4757;0,0143518
1767,4399;0,0139304
1768,4042;0,0135159
1769,3684;0,0131215
1770,3326;0,0127418
1771,2969;0,0123507
1772,2611;0,011944
1773,2253;0,0115737
1774,1896;0,0113055
1775,1538;0,0111483
1776,1180;0,0110513
1777,0823;0,0109529
1778,0465;0,0108178
1779,0107;0,0106439
1779,9750;0,010449
1780,9392;0,0102526
1781,9034;0,0100658
1782,8677;0,0098951
1783,8319;0,0097519
1784,7961;0,00965428
1785,7604;0,00961408
1786,7246;0,00962207
1787,6888;0,00964929
1788,6531;0,00966519
1789,6173;0,00965437
1790,5815;0,00961587
1791,5458;0,00955232
1792,5100;0,00947336
1793,4742;0,0094042
1794,4385;0,0093621
1795,4027;0,00933142
1796,3669;0,00928062
1797,3312;0,00919407
1798,2954;0,00908241
1799,2596;0,00896928
1800,2239;0,00887141
1801,1881;0,00879088
1802,1523;0,00872237
1803,1166;0,00866287
1804,0808;0,0086147
1805,0450;0,00858311
1806,0093;0,0085715
1806,9735;0,00857672
1807,9377;0,00858614
1808,9020;0,00857941
1809,8662;0,00853691
1810,8304;0,00845204
1811,7947;0,00833625
1812,7589;0,00821033
1813,7231;0,00809166
1814,6874;0,00799072
1815,6516;0,00791522
1816,6158;0,00787229
1817,5801;0,00786516
1818,5443;0,00788896
1819,5085;0,00793079
1820,4728;0,00797455
1821,4370;0,00800722
1822,4012;0,00802244
1823,3655;0,00801991
1824,3297;0,00800344
1825,2939;0,00797922
1826,2582;0,0079525
1827,2224;0,00792292
1828,1866;0,00788277
1829,1509;0,0078225
1830,1151;0,0077436
1831,0793;0,00766585
1832,0436;0,00761317
1833,0078;0,00759281
1833,9720;0,00759516
1834,9363;0,00760903
1835,9005;0,00763042
1836,8647;0,00765941
1837,8290;0,00769263
1838,7932;0,0077194
1839,7574;0,00772483
1840,7217;0,00769963
1841,6859;0,00764821
1842,6501;0,00758508
1843,6144;0,00752321
1844,5786;0,00747122
1845,5428;0,00743797
1846,5071;0,00742497
1847,4713;0,0074174
1848,4355;0,00739457
1849,3998;0,00734695
1850,3640;0,00728141
1851,3282;0,00721398
1852,2925;0,00715915
1853,2567;0,00712453
1854,2209;0,0071121
1855,1852;0,00712111
1856,1494;0,00714822
1857,1136;0,007186
1858,0779;0,0072225
1859,0421;0,00724552
1860,0063;0,00724939
1860,9706;0,00723837
1861,9348;0,00722313
1862,8990;0,00721328
1863,8633;0,00721328
1864,8275;0,00722518
1865,7917;0,0072522
1866,7560;0,00729463
1867,7202;0,00734041
1868,6844;0,00736814
1869,6487;0,00736593
1870,6129;0,00733789
1871,5771;0,00728934
1872,5414;0,00721877
1873,5056;0,00712601
1874,4698;0,00702091
1875,4341;0,00692141
1876,3983;0,00684516
1877,3625;0,00680133
1878,3268;0,00678981
1879,2910;0,00680529
1880,2552;0,00684215
1881,2195;0,00689502
1882,1837;0,00695547
1883,1479;0,0070098
1884,1122;0,00704195
1885,0764;0,00704066
1886,0406;0,00700586
1887,0049;0,00694962
1887,9691;0,00689047
1888,9333;0,00684497
1889,8976;0,00682232
1890,8618;0,00682432
1891,8260;0,00684772
1892,7903;0,00688545
1893,7545;0,00692606
1894,7188;0,00695346
1895,6830;0,00695098
1896,6472;0,00691101
1897,6115;0,00684281
1898,5757;0,00676883
1899,5399;0,00671081
1900,5042;0,0066759
1901,4684;0,00665268
1902,4326;0,00662069
1903,3969;0,00656834
1904,3611;0,00650625
1905,3253;0,00646449
1906,2896;0,00647442
1907,2538;0,00654638
1908,2180;0,00665693
1909,1823;0,00675644
1910,1465;0,00679619
1911,1107;0,00675703
1912,0750;0,00665745
1913,0392;0,00653953
1914,0034;0,00644955
1914,9677;0,00642367
1915,9319;0,00647654
1916,8961;0,00659209
1917,8604;0,00672666
1918,8246;0,00682987
1919,7888;0,00686913
1920,7531;0,0068392
1921,7173;0,00675538
1922,6815;0,00664042
1923,6458;0,00651303
1924,6100;0,00638313
1925,5742;0,0062561
1926,5385;0,00614224
1927,5027;0,00606298
1928,4669;0,00604626
1929,4312;0,00610969
1930,3954;0,0062419
1931,3596;0,00639892
1932,3239;0,00652269
1933,2881;0,00657135
1934,2523;0,00653974
1935,2166;0,00645656
1936,1808;0,00636219
1937,1450;0,00628486
1938,1093;0,00623216
1939,0735;0,00620023
1940,0377;0,00618687
1941,0020;0,00619389
1941,9662;0,00621776
1942,9304;0,00624285
1943,8947;0,00625064
1944,8589;0,00623851
1945,8231;0,00622758
1946,7874;0,00624923
1947,7516;0,00631915
1948,7158;0,00641723
1949,6801;0,00649086
1950,6443;0,00648422
1951,6085;0,00637428
1952,5728;0,00618487
1953,5370;0,00596811
1954,5012;0,00576967
1955,4655;0,00560615
1956,4297;0,0054703
1957,3939;0,00535424
1958,3582;0,0052665
1959,3224;0,00522739
1960,2866;0,00524976
1961,2509;0,00532703
1962,2151;0,00544087
1963,1793;0,0055764
1964,1436;0,00572211
1965,1078;0,00584925
1966,0720;0,00589359
1967,0363;0,00577309
1968,0005;0,00544617
1968,9647;0,00496542
1969,9290;0,00447171
1970,8932;0,00412613
1971,8574;0,0040291
1972,8217;0,00417813
1973,7859;0,00448527
1974,7501;0,00483979
1975,7144;0,00517524
1976,6786;0,00549054
1977,6428;0,0058124
1978,6071;0,00613937
1979,5713;0,00642365
1980,5355;0,00660178
1981,4998;0,00663765
1982,4640;0,00654247
1983,4282;0,00636595
1984,3925;0,00617258
1985,3567;0,0060185
1986,3209;0,00593879
1987,2852;0,00594681
1988,2494;0,00604084
1989,2136;0,00621032
1990,1779;0,00643787
1991,1421;0,00669819
1992,1063;0,00695731
1993,0706;0,00717415
1994,0348;0,00730552
1994,9990;0,00731539
1995,9633;0,00718962
1996,9275;0,00695128
1997,8917;0,00666518
1998,8560;0,00641887
1999,8202;0,00628146
2000,7844;0,00626405
2001,7487;0,00631367
2002,7129;0,00635149
2003,6771;0,00633272
2004,6414;0,00628794
2005,6056;0,00631243
2006,5698;0,00650162
2007,5341;0,00687238
2008,4983;0,00733249
2009,4625;0,00772645
2010,4268;0,00792173
2011,3910;0,00787139
2012,3552;0,00761922
2013,3195;0,00726241
2014,2837;0,00690728
2015,2479;0,00664213
2016,2122;0,00652798
2017,1764;0,00659466
2018,1406;0,00683423
2019,1049;0,00719703
2020,0691;0,00760105
2021,0333;0,00795555
2021,9976;0,00818828
2022,9618;0,00826269
2023,9260;0,00817939
2024,8903;0,00796583
2025,8545;0,00766467
2026,8187;0,0073282
2027,7830;0,00701724
2028,7472;0,00679653
2029,7114;0,00672224
2030,6757;0,00682563
2031,6399;0,00710118
2032,6041;0,00750395
2033,5684;0,00795671
2034,5326;0,00836601
2035,4968;0,00864774
2036,4611;0,00875744
2037,4253;0,0087136
2038,3895;0,00859566
2039,3538;0,00850892
2040,3180;0,00852654
2041,2822;0,00864034
2042,2465;0,00875984
2043,2107;0,00877204
2044,1749;0,00862686
2045,1392;0,00838643
2046,1034;0,00819736
2047,0676;0,00819569
2048,0320;0,00840775
2048,9961;0,00872761
2049,9604;0,00899413
2050,9246;0,00910149
2051,8889;0,00905746
2052,8530;0,00896192
2053,8174;0,00893511
2054,7815;0,00904228
2055,7458;0,00925702
2056,7100;0,0094816
2057,6743;0,00960882
2058,6384;0,0095834
2059,6028;0,00942701
2060,5669;0,00921951
2061,5313;0,00905484
2062,4954;0,0089966
2063,4597;0,00905262
2064,4238;0,00917692
2065,3882;0,00929624
2066,3523;0,0093478
2067,3167;0,00930904
2068,2808;0,00920423
2069,2451;0,00908659
2070,2092;0,00900766
2071,1736;0,00899168
2072,1377;0,00902748
2073,1021;0,00908091
2074,0662;0,00911687
2075,0305;0,00911692
2075,9946;0,00908406
2076,9590;0,00903652
2077,9231;0,00899776
2078,8875;0,0089882
2079,8516;0,00901944
2080,8159;0,00909055
2081,7800;0,00918752
2082,7444;0,00928843
2083,7085;0,00937323
2084,6729;0,00943268
2085,6370;0,00946986
2086,6013;0,00949239
2087,5654;0,00950235
2088,5298;0,00949278
2089,4939;0,00945534
2090,4583;0,009393
2091,4224;0,00932643
2092,3867;0,00928675
2093,3508;0,00929763
2094,3152;0,00935859
2095,2793;0,00944154
2096,2437;0,00950459
2097,2078;0,00951475
2098,1721;0,00946548
2099,1362;0,00937937
2100,1006;0,00929775
2101,0647;0,00925991
2102,0291;0,00929123
2102,9932;0,00938861
2103,9575;0,00952044
2104,9216;0,00963787
2105,8860;0,00969581
2106,8501;0,00967475
2107,8145;0,00959146
2108,7786;0,00949104
2109,7429;0,00942341
2110,7070;0,00941776
2111,6714;0,00946971
2112,6355;0,009548
2113,5999;0,00961455
2114,5640;0,00964496
2115,5283;0,00963807
2116,4924;0,0096122
2117,4568;0,00959346
2118,4209;0,00960383
2119,3853;0,00965336
2120,3494;0,00973664
2121,3137;0,00983233
2122,2778;0,00990627
2123,2422;0,00991984
2124,2063;0,00984437
2125,1707;0,00967721
2126,1348;0,00945101
2127,0991;0,00922817
2128,0632;0,0090794
2129,0276;0,00905545
2129,9917;0,00916668
2130,9561;0,00938127
2131,9202;0,00964176
2132,8845;0,00988967
2133,8486;0,0100841
2134,8130;0,0102059
2135,7771;0,0102501
2136,7415;0,0102178
2137,7056;0,0101184
2138,6699;0,00997797
2139,6340;0,0098424
2140,5984;0,00976481
2141,5625;0,00978238
2142,5269;0,00989739
2143,4910;0,0100772
2144,4553;0,0102741
2145,4194;0,010451
2146,3838;0,0105956
2147,3479;0,0107142
2148,3123;0,0108147
2149,2764;0,0108911
2150,2407;0,0109227
2151,2048;0,0108831
2152,1692;0,0107558
2153,1333;0,0105468
2154,0977;0,0102934
2155,0618;0,0100686
2156,0261;0,00997047
2156,9902;0,0100889
2157,9546;0,0104477
2158,9187;0,0109623
2159,8831;0,0114706
2160,8472;0,0118267
2161,8115;0,0119757
2162,7756;0,0119537
2163,7400;0,0118369
2164,7041;0,0116918
2165,6685;0,0115516
2166,6326;0,011415
2167,5969;0,0112585
2168,5610;0,0110492
2169,5254;0,0107581
2170,4895;0,0103787
2171,4539;0,00994859
2172,4180;0,00956074
2173,3823;0,00934113
2174,3464;0,00939039
2175,3108;0,00971674
2176,2749;0,0102094
2177,2393;0,0106807
2178,2034;0,0109562
2179,1677;0,0109544
2180,1318;0,0107124
2181,0962;0,0103472
2182,0603;0,00998506
2183,0247;0,00970517
2183,9888;0,0095299
2184,9531;0,00945082
2185,9172;0,00945643
2186,8816;0,00953662
2187,8457;0,00967041
2188,8101;0,00982071
2189,7742;0,00994946
2190,7385;0,010042
2191,7026;0,0101164
2192,6670;0,0102046
2193,6311;0,0103177
2194,5955;0,0104233
2195,5596;0,0104561
2196,5239;0,0103569
2197,4880;0,0101142
2198,4524;0,0097782
2199,4165;0,00944026
2200,3809;0,00918982
2201,3450;0,00907689
2202,3093;0,00909838
2203,2734;0,00920949
2204,2378;0,00934784
2205,2019;0,00945615
2206,1663;0,00949679
2207,1304;0,00945872
2208,0947;0,00935894
2209,0588;0,00923752
2210,0232;0,00914412
2210,9873;0,00911723
2211,9517;0,0091646
2212,9158;0,00925653
2213,8801;0,00933861
2214,8442;0,00935876
2215,8086;0,00929371
2216,7727;0,00915957
2217,7371;0,00900119
2218,7012;0,00886869
2219,6655;0,00879596
2220,6296;0,00879255
2221,5940;0,0088489
2222,5581;0,00894672
2223,5225;0,00906514
2224,4866;0,00918074
2225,4509;0,00926623
2226,4150;0,00929406
2227,3794;0,00924573
2228,3435;0,00912373
2229,3079;0,00895496
2230,2720;0,00878369
2231,2363;0,00865516
2232,2004;0,00859739
2233,1648;0,00860994
2234,1289;0,00866562
2235,0933;0,00872535
2236,0574;0,00875862
2237,0217;0,00875857
2237,9858;0,00874179
2238,9502;0,00873253
2239,9143;0,00874178
2240,8787;0,00875644
2241,8428;0,00874814
2242,8071;0,00869592
2243,7712;0,00860541
2244,7356;0,00850812
2245,6997;0,00843984
2246,6641;0,0084148
2247,6282;0,00841691
2248,5925;0,00841663
2249,5566;0,00840073
2250,5210;0,00839033
2251,4851;0,00843077
2252,4495;0,00855845
2253,4136;0,00876828
2254,3779;0,00900641
2255,3420;0,00919547
2256,3064;0,00927566
2257,2705;0,00923459
2258,2349;0,00910856
2259,1990;0,00895914
2260,1633;0,00884268
2261,1274;0,00878979
2262,0918;0,00880066
2263,0559;0,00885258
2264,0203;0,00891204
2264,9844;0,00894669
2265,9487;0,0089355
2266,9128;0,00887594
2267,8772;0,0087856
2268,8413;0,00869568
2269,8057;0,00863746
2270,7698;0,00862764
2271,7341;0,00866041
2272,6982;0,00871101
2273,6626;0,00874853
2274,6267;0,00875085
2275,5911;0,00871342
2276,5552;0,0086486
2277,5195;0,00857769
2278,4836;0,00852143
2279,4480;0,00849381
2280,4121;0,0085004
2281,3765;0,00853977
2282,3406;0,00860562
2283,3049;0,00868867
2284,2690;0,00877876
2285,2334;0,00886733
2286,1975;0,0089501
2287,1619;0,00902848
2288,1260;0,00910847
2289,0903;0,00919703
2290,0544;0,00929766
2291,0188;0,00940735
2291,9829;0,00951703
2292,9473;0,00961522
2293,9114;0,00969326
2294,8757;0,00974933
2295,8398;0,00978934
2296,8042;0,00982386
2297,7683;0,00986299
2298,7327;0,00991151
2299,6968;0,00996696
2300,6611;0,0100217
2301,6252;0,0100677
2302,5896;0,0101017
2303,5537;0,0101277
2304,5181;0,010155
2305,4822;0,0101921
2306,4465;0,0102397
2307,4106;0,0102866
2308,3750;0,0103112
2309,3391;0,0102908
2310,3035;0,0102129
2311,2676;0,0100836
2312,2319;0,00992594
2313,1960;0,00976843
2314,1604;0,0096299
2315,1245;0,00951227
2316,0889;0,00940672
2317,0530;0,00930931
2318,0173;0,00923419
2318,9814;0,00921296
2319,9458;0,00927638
2320,9099;0,00942817
2321,8743;0,00963149
2322,8384;0,00982125
2323,8027;0,0099331
2324,7668;0,00992821
2325,7312;0,00980411
2326,6953;0,00959416
2327,6597;0,00935761
2328,6238;0,00915995
2329,5881;0,00904851
2330,5522;0,00903519
2331,5166;0,00909636
2332,4807;0,00918741
2333,4451;0,00926225
2334,4092;0,00929075
2335,3735;0,0092698
2336,3376;0,00922385
2337,3020;0,00919237
2338,2661;0,00920899
2339,2305;0,00928165
2340,1946;0,00938146
2341,1589;0,00944431
2342,1230;0,00939506
2343,0874;0,00921605
2344,0515;0,00903095
2345,0159;0,00906
2345,9800;0,00941273
2346,9443;0,00996634
2347,9084;0,0104677
2348,8728;0,0107081
2349,8369;0,0106276
2350,8013;0,0103271
2351,7654;0,0100061
2352,7297;0,00984258
2353,6938;0,00987934
2354,6582;0,0100237
2355,6223;0,0101617
2356,5867;0,010239
2357,5508;0,010239
2358,5151;0,0101454
2359,4792;0,00995766
2360,4436;0,009719
2361,4077;0,00949394
2362,3721;0,00931216
2363,3362;0,00914483
2364,3005;0,00893674
2365,2646;0,00865573
2366,2290;0,00831283
2367,1931;0,00794502
2368,1575;0,00758804
2369,1216;0,00726406
2370,0859;0,00698533
2371,0500;0,00676243
2372,0144;0,00660849
2372,9785;0,00653845
2373,9429;0,00656532
2374,9070;0,00669553
2375,8713;0,00692484
2376,8354;0,00723595
2377,7998;0,0075986
2378,7639;0,00797252
2379,7283;0,00831304
2380,6924;0,00857911
2381,6567;0,00874231
2382,6208;0,00879406
2383,5852;0,00874817
2384,5493;0,00863681
2385,5137;0,0085007
2386,4778;0,00837689
2387,4421;0,00828855
2388,4063;0,00824102
2389,3706;0,00822513
2390,3347;0,00822544
2391,2991;0,00822916
2392,2632;0,00823164
2393,2275;0,00823649
2394,1917;0,00825142
2395,1560;0,0082822
2396,1201;0,00832811
2397,0845;0,0083808
2398,0486;0,00842818
2399,0129;0,0084583
2399,9771;0,00846529
2400,9414;0,00845244
2401,9055;0,00842962
2402,8699;0,00840929
2403,8340;0,00840136
2404,7983;0,0084108
2405,7625;0,00843808
2406,7268;0,00848063
2407,6909;0,00853449
2408,6553;0,00859427
2409,6194;0,00865237
2410,5837;0,0087005
2411,5479;0,00873196
2412,5122;0,00874438
2413,4763;0,00874062
2414,4407;0,00872744
2415,4048;0,00871291
2416,3691;0,00870433
2417,3333;0,00870732
2418,2976;0,00872527
2419,2617;0,00875834
2420,2261;0,00880217
2421,1902;0,00884775
2422,1545;0,00888498
2423,1187;0,00890747
2424,0830;0,00891654
2425,0471;0,00892106
2426,0115;0,0089327
2426,9756;0,00895963
2427,9399;0,0090025
2428,9041;0,00905514
2429,8684;0,0091088
2430,8325;0,00915659
2431,7969;0,00919561
2432,7610;0,00922616
2433,7253;0,0092497
2434,6895;0,00926743
2435,6538;0,00928005
2436,6179;0,00928852
2437,5823;0,00929478
2438,5464;0,00930216
2439,5107;0,00931544
2440,4749;0,00934005
2441,4392;0,00938027
2442,4033;0,00943665
2443,3677;0,00950414
2444,3318;0,00957284
2445,2961;0,0096317
2446,2603;0,00967362
2447,2246;0,00969876
2448,1887;0,00971372
2449,1531;0,00972716
2450,1172;0,00974471
2451,0815;0,00976678
2452,0457;0,00979034
2453,0100;0,00981298
2453,9741;0,00983611
2454,9385;0,00986463
2455,9026;0,00990344
2456,8669;0,00995306
2457,8311;0,0100072
2458,7954;0,0100541
2459,7595;0,0100812
2460,7239;0,0100807
2461,6880;0,0100543
2462,6523;0,0100136
2463,6165;0,00997557
2464,5808;0,00995636
2465,5449;0,00996432
2466,5093;0,0099976
2467,4734;0,0100466
2468,4377;0,0100994
2469,4019;0,0101472
2470,3662;0,0101858
2471,3303;0,0102141
2472,2947;0,0102321
2473,2588;0,0102405
2474,2231;0,010243
2475,1873;0,0102476
2476,1516;0,0102637
2477,1157;0,0102962
2478,0801;0,0103406
2479,0442;0,0103827
2480,0085;0,0104066
2480,9727;0,0104052
2481,9370;0,0103864
2482,9011;0,0103699
2483,8655;0,0103759
2484,8296;0,0104137
2485,7939;0,010476
2486,7581;0,0105444
2487,7224;0,0106003
2488,6865;0,0106345
2489,6509;0,0106497
2490,6150;0,010655
2491,5793;0,0106586
2492,5435;0,010662
2493,5078;0,0106608
2494,4719;0,0106492
2495,4363;0,0106255
2496,4004;0,0105953
2497,3647;0,0105696
2498,3289;0,0105612
2499,2932;0,0105794
2500,2573;0,0106257
2501,2217;0,0106928
2502,1858;0,0107659
2503,1501;0,0108273
2504,1143;0,0108631
2505,0786;0,0108684
2506,0427;0,0108496
2507,0071;0,0108225
2507,9712;0,0108055
2508,9355;0,0108124
2509,8997;0,0108466
2510,8640;0,0109011
2511,8281;0,0109628
2512,7925;0,0110185
2513,7566;0,0110601
2514,7209;0,0110849
2515,6851;0,011094
2516,6494;0,011089
2517,6135;0,0110716
2518,5779;0,0110457
2519,5420;0,0110199
2520,5063;0,0110068
2521,4705;0,0110177
2522,4348;0,0110567
2523,3989;0,0111158
2524,3633;0,0111771
2525,3274;0,0112209
2526,2917;0,011235
2527,2559;0,0112196
2528,2202;0,0111859
2529,1843;0,0111501
2530,1487;0,0111257
2531,1128;0,0111199
2532,0771;0,0111341
2533,0413;0,0111659
2534,0056;0,0112112
2534,9697;0,011264
2535,9341;0,0113163
2536,8982;0,011359
2537,8625;0,0113847
2538,8267;0,0113903
2539,7910;0,0113781
2540,7551;0,0113549
2541,7195;0,0113287
2542,6836;0,0113069
2543,6479;0,0112945
2544,6121;0,0112946
2545,5764;0,0113085
2546,5405;0,0113361
2547,5049;0,0113758
2548,4690;0,0114236
2549,4333;0,0114735
2550,3975;0,0115175
2551,3618;0,0115471
2552,3259;0,0115556
2553,2903;0,0115412
2554,2544;0,0115088
2555,2188;0,011469
2556,1829;0,0114348
2557,1472;0,011417
2558,1113;0,0114204
2559,0757;0,0114432
2560,0398;0,0114794
2561,0042;0,0115217
2561,9683;0,0115637
2562,9326;0,0116002
2563,8967;0,0116273
2564,8611;0,011643
2565,8252;0,0116485
2566,7896;0,0116485
2567,7537;0,01165
2568,7180;0,0116586
2569,6821;0,0116762
2570,6465;0,0116994
2571,6106;0,0117224
2572,5750;0,0117392
2573,5391;0,0117463
2574,5034;0,0117439
2575,4675;0,011735
2576,4319;0,0117249
2577,3960;0,0117207
2578,3604;0,0117293
2579,3245;0,0117547
2580,2888;0,0117954
2581,2529;0,0118433
2582,2173;0,0118867
2583,1814;0,0119155
2584,1458;0,0119273
2585,1099;0,0119284
2586,0742;0,0119306
2587,0383;0,0119447
2588,0027;0,0119741
2588,9668;0,0120132
2589,9312;0,0120508
2590,8953;0,0120759
2591,8596;0,0120837
2592,8237;0,012077
2593,7881;0,0120646
2594,7522;0,0120565
2595,7166;0,0120601
2596,6807;0,0120781
2597,6450;0,01211
2598,6091;0,0121538
2599,5735;0,0122071
2600,5376;0,0122671
2601,5020;0,0123287
2602,4661;0,0123848
2603,4304;0,0124285
2604,3945;0,0124562
2605,3589;0,0124706
2606,3230;0,0124802
2607,2874;0,0124957
2608,2515;0,0125251
2609,2158;0,0125699
2610,1799;0,0126251
2611,1443;0,012681
2612,1084;0,0127279
2613,0728;0,0127592
2614,0369;0,0127744
2615,0012;0,0127788
2615,9653;0,0127821
2616,9297;0,0127938
2617,8938;0,0128195
2618,8582;0,0128587
2619,8223;0,0129057
2620,7866;0,0129536
2621,7507;0,0129986
2622,7151;0,0130408
2623,6792;0,0130825
2624,6436;0,0131253
2625,6077;0,0131684
2626,5720;0,0132102
2627,5361;0,0132503
2628,5005;0,0132908
2629,4646;0,0133335
2630,4290;0,0133778
2631,3931;0,0134193
2632,3574;0,013453
2633,3215;0,0134768
2634,2859;0,0134945
2635,2500;0,0135136
2636,2144;0,013541
2637,1785;0,0135791
2638,1428;0,0136253
2639,1069;0,0136745
2640,0713;0,0137235
2641,0354;0,0137714
2641,9998;0,0138193
2642,9639;0,0138678
2643,9282;0,0139161
2644,8923;0,0139631
2645,8567;0,0140086
2646,8208;0,0140533
2647,7852;0,0140976
2648,7493;0,0141398
2649,7136;0,0141764
2650,6777;0,0142046
2651,6421;0,0142251
2652,6062;0,0142429
2653,5706;0,0142657
2654,5347;0,0142991
2655,4990;0,014343
2656,4631;0,0143911
2657,4275;0,014434
2658,3916;0,0144648
2659,3560;0,0144828
2660,3201;0,0144936
2661,2844;0,0145054
2662,2485;0,0145239
2663,2129;0,0145497
2664,1770;0,0145789
2665,1414;0,0146067
2666,1055;0,0146322
2667,0698;0,0146591
2668,0339;0,0146933
2668,9983;0,0147385
2669,9624;0,0147932
2670,9268;0,0148501
2671,8909;0,0149005
2672,8552;0,0149382
2673,8193;0,0149635
2674,7837;0,014982
2675,7478;0,015002
2676,7122;0,0150303
2677,6763;0,0150692
2678,6406;0,0151167
2679,6047;0,0151683
2680,5691;0,0152193
2681,5332;0,0152668
2682,4976;0,0153106
2683,4617;0,0153521
2684,4260;0,015393
2685,3901;0,0154349
2686,3545;0,0154783
2687,3186;0,0155228
2688,2830;0,015568
2689,2471;0,0156132
2690,2114;0,0156583
2691,1755;0,0157026
2692,1399;0,0157449
2693,1040;0,0157839
2694,0684;0,0158188
2695,0325;0,0158506
2695,9968;0,0158825
2696,9609;0,0159187
2697,9253;0,0159624
2698,8894;0,0160144
2699,8538;0,0160726
2700,8179;0,0161335
2701,7822;0,0161941
2702,7463;0,0162527
2703,7107;0,016309
2704,6748;0,016363
2705,6392;0,0164142
2706,6033;0,0164622
2707,5676;0,0165083
2708,5317;0,0165549
2709,4961;0,0166042
2710,4602;0,0166562
2711,4246;0,016708
2712,3887;0,016756
2713,3530;0,0167987
2714,3171;0,0168388
2715,2815;0,0168809
2716,2456;0,0169291
2717,2100;0,0169831
2718,1741;0,0170382
2719,1384;0,0170884
2720,1025;0,0171298
2721,0669;0,0171623
2722,0310;0,0171886
2722,9954;0,0172122
2723,9595;0,0172357
2724,9238;0,017261
2725,8879;0,017291
2726,8523;0,0173297
2727,8164;0,0173809
2728,7808;0,0174457
2729,7449;0,0175205
2730,7092;0,0175977
2731,6733;0,0176679
2732,6377;0,0177243
2733,6018;0,0177645
2734,5662;0,0177915
2735,5303;0,0178114
2736,4946;0,0178302
2737,4587;0,0178513
2738,4231;0,0178751
2739,3872;0,0179
2740,3516;0,0179252
2741,3157;0,0179521
2742,2800;0,0179839
2743,2441;0,0180224
2744,2085;0,0180661
2745,1726;0,018109
2746,1370;0,0181439
2747,1011;0,0181664
2748,0654;0,0181779
2749,0295;0,0181859
2749,9939;0,0182003
2750,9580;0,018228
2751,9224;0,0182704
2752,8865;0,0183233
2753,8508;0,0183806
2754,8149;0,0184371
2755,7793;0,0184905
2756,7434;0,01854
2757,7078;0,0185853
2758,6719;0,0186258
2759,6362;0,018662
2760,6003;0,0186962
2761,5647;0,0187325
2762,5288;0,0187751
2763,4932;0,0188253
2764,4573;0,0188817
2765,4216;0,0189409
2766,3857;0,0190008
2767,3501;0,0190609
2768,3142;0,0191222
2769,2786;0,0191847
2770,2427;0,0192463
2771,2070;0,0193039
2772,1711;0,0193562
2773,1355;0,0194056
2774,0996;0,0194564
2775,0640;0,0195122
2776,0281;0,0195729
2776,9924;0,0196352
2777,9565;0,0196963
2778,9209;0,0197571
2779,8850;0,0198236
2780,8494;0,0199031
2781,8135;0,019999
2782,7778;0,0201067
2783,7419;0,0202144
2784,7063;0,0203084
2785,6704;0,0203802
2786,6348;0,0204306
2787,5989;0,0204695
2788,5632;0,0205113
2789,5273;0,0205692
2790,4917;0,0206499
2791,4558;0,0207526
2792,4202;0,0208704
2793,3843;0,020994
2794,3486;0,0211149
2795,3127;0,0212281
2796,2771;0,0213329
2797,2412;0,0214322
2798,2056;0,0215312
2799,1697;0,0216351
2800,1340;0,0217482
2801,0981;0,0218725
2802,0625;0,0220076
2803,0266;0,022151
2803,9910;0,0222983
2804,9551;0,0224437
2805,9194;0,0225808
2806,8835;0,0227056
2807,8479;0,0228181
2808,8120;0,0229248
2809,7764;0,0230369
2810,7405;0,0231671
2811,7048;0,0233243
2812,6689;0,0235099
2813,6333;0,0237165
2814,5974;0,0239311
2815,5618;0,0241403
2816,5259;0,0243355
2817,4902;0,0245162
2818,4543;0,0246889
2819,4187;0,0248642
2820,3828;0,025052
2821,3472;0,0252582
2822,3113;0,025483
2823,2756;0,0257229
2824,2397;0,025974
2825,2041;0,0262339
2826,1682;0,0265035
2827,1326;0,0267853
2828,0967;0,0270816
2829,0610;0,027394
2830,0251;0,0277233
2830,9895;0,0280705
2831,9536;0,0284371
2832,9180;0,0288236
2833,8821;0,0292276
2834,8464;0,0296447
2835,8105;0,0300711
2836,7749;0,030508
2837,7390;0,0309646
2838,7034;0,0314575
2839,6675;0,0320076
2840,6318;0,0326356
2841,5959;0,0333593
2842,5603;0,0341906
2843,5244;0,0351326
2844,4888;0,0361734
2845,4529;0,0372778
2846,4172;0,0383827
2847,3813;0,0394004
2848,3457;0,0402341
2849,3098;0,0408024
2850,2742;0,0410638
2851,2383;0,0410296
2852,2026;0,040761
2853,1667;0,0403499
2854,1311;0,0398927
2855,0952;0,0394673
2856,0596;0,0391208
2857,0237;0,0388712
2857,9880;0,0387155
2858,9521;0,038642
2859,9165;0,038638
2860,8806;0,0386932
2861,8450;0,0387997
2862,8091;0,0389515
2863,7734;0,039144
2864,7375;0,0393735
2865,7019;0,0396354
2866,6660;0,0399214
2867,6304;0,0402178
2868,5945;0,0405065
2869,5588;0,0407705
2870,5229;0,0410001
2871,4873;0,0411973
2872,4514;0,0413748
2873,4158;0,0415499
2874,3799;0,0417359
2875,3442;0,0419368
2876,3083;0,0421467
2877,2727;0,0423551
2878,2368;0,0425526
2879,2012;0,0427355
2880,1653;0,0429056
2881,1296;0,0430679
2882,0938;0,0432265
2883,0581;0,0433836
2884,0222;0,0435391
2884,9866;0,043692
2885,9507;0,0438412
2886,9150;0,043987
2887,8792;0,0441307
2888,8435;0,0442743
2889,8076;0,0444201
2890,7720;0,0445688
2891,7361;0,0447191
2892,7004;0,0448675
2893,6646;0,0450104
2894,6289;0,0451458
2895,5930;0,0452753
2896,5574;0,045403
2897,5215;0,0455335
2898,4858;0,0456681
2899,4500;0,0458051
2900,4143;0,0459414
2901,3784;0,0460765
2902,3428;0,0462159
2903,3069;0,0463709
2904,2712;0,0465552
2905,2354;0,0467812
2906,1997;0,0470568
2907,1638;0,0473879
2908,1282;0,0477815
2909,0923;0,04825
2910,0566;0,0488081
2911,0208;0,0494656
2911,9851;0,0502147
2912,9492;0,0510224
2913,9136;0,0518298
2914,8777;0,0525631
2915,8420;0,0531498
2916,8062;0,053536
2917,7705;0,0536956
2918,7346;0,0536311
2919,6990;0,0533673
2920,6631;0,0529422
2921,6274;0,0523993
2922,5916;0,0517805
2923,5559;0,0511219
2924,5200;0,0504495
2925,4844;0,0497794
2926,4485;0,0491205
2927,4128;0,0484798
2928,3770;0,0478669
2929,3413;0,0472933
2930,3054;0,0467674
2931,2698;0,0462888
2932,2339;0,0458461
2933,1982;0,0454212
2934,1624;0,0449981
2935,1267;0,044569
2936,0908;0,0441358
2937,0552;0,0437045
2938,0193;0,0432781
2938,9836;0,042853
2939,9478;0,04242
2940,9121;0,0419711
2941,8762;0,0415045
2942,8406;0,0410269
2943,8047;0,04055
2944,7690;0,0400852
2945,7332;0,0396392
2946,6975;0,0392124
2947,6616;0,0388011
2948,6260;0,0384009
2949,5901;0,0380087
2950,5544;0,0376242
2951,5186;0,0372483
2952,4829;0,0368828
2953,4470;0,0365301
2954,4114;0,0361923
2955,3755;0,0358712
2956,3398;0,0355673
2957,3040;0,0352784
2958,2683;0,0350006
2959,2324;0,0347295
2960,1968;0,0344626
2961,1609;0,0342
2962,1252;0,0339437
2963,0894;0,0336952
2964,0537;0,0334535
2965,0178;0,0332152
2965,9822;0,032976
2966,9463;0,0327331
2967,9106;0,0324855
2968,8748;0,0322341
2969,8391;0,0319798
2970,8032;0,0317241
2971,7676;0,0314697
2972,7317;0,031221
2973,6960;0,0309838
2974,6602;0,0307631
2975,6245;0,0305604
2976,5886;0,0303723
2977,5530;0,0301924
2978,5171;0,0300136
2979,4814;0,0298319
2980,4456;0,0296482
2981,4099;0,0294682
2982,3740;0,0293
2983,3384;0,0291509
2984,3025;0,029024
2985,2668;0,0289168
2986,2310;0,0288216
2987,1953;0,0287295
2988,1594;0,0286349
2989,1238;0,0285393
2990,0879;0,0284511
2991,0522;0,0283805
2992,0164;0,0283346
2992,9807;0,0283122
2993,9448;0,0283057
2994,9092;0,028305
2995,8733;0,028304
2996,8376;0,0283027
2997,8018;0,0283053
2998,7661;0,0283159
2999,7302;0,0283355
3000,6946;0,0283617
3001,6587;0,0283927
3002,6230;0,0284296
3003,5872;0,0284769
3004,5515;0,028539
3005,5156;0,0286162
3006,4800;0,0287025
3007,4441;0,0287884
3008,4084;0,028865
3009,3726;0,0289288
3010,3369;0,0289829
3011,3010;0,029034
3012,2654;0,0290892
3013,2295;0,0291521
3014,1938;0,0292225
3015,1580;0,0292982
3016,1223;0,0293778
3017,0864;0,0294622
3018,0508;0,0295536
3019,0149;0,0296546
3019,9792;0,0297654
3020,9434;0,0298838
3021,9077;0,0300056
3022,8718;0,0301272
3023,8362;0,0302474
3024,8003;0,0303693
3025,7646;0,0304986
3026,7288;0,0306412
3027,6931;0,0307987
3028,6572;0,0309663
3029,6216;0,0311334
3030,5857;0,031288
3031,5500;0,0314222
3032,5142;0,0315371
3033,4785;0,0316423
3034,4426;0,0317517
3035,4070;0,0318774
3036,3711;0,0320244
3037,3354;0,0321902
3038,2996;0,0323667
3039,2639;0,0325454
3040,2280;0,0327208
3041,1924;0,0328926
3042,1565;0,0330651
3043,1208;0,0332444
3044,0850;0,0334348
3045,0493;0,0336365
3046,0134;0,0338451
3046,9778;0,034053
3047,9419;0,0342531
3048,9063;0,0344418
3049,8704;0,0346212
3050,8347;0,0347975
3051,7988;0,0349783
3052,7632;0,0351692
3053,7273;0,0353713
3054,6917;0,0355822
3055,6558;0,0357975
3056,6201;0,0360142
3057,5842;0,036232
3058,5486;0,0364544
3059,5127;0,0366859
3060,4771;0,0369289
3061,4412;0,0371807
3062,4055;0,0374323
3063,3696;0,0376705
3064,3340;0,0378833
3065,2981;0,0380661
3066,2625;0,0382254
3067,2266;0,0383773
3068,1909;0,0385414
3069,1550;0,0387323
3070,1194;0,0389542
3071,0835;0,0392005
3072,0479;0,039458
3073,0120;0,0397141
3073,9763;0,0399613
3074,9404;0,0401991
3075,9048;0,0404307
3076,8689;0,040659
3077,8333;0,0408838
3078,7974;0,041102
3079,7617;0,0413111
3080,7258;0,0415126
3081,6902;0,0417133
3082,6543;0,0419227
3083,6187;0,0421479
3084,5828;0,0423894
3085,5471;0,0426397
3086,5112;0,042887
3087,4756;0,0431205
3088,4397;0,0433371
3089,4041;0,0435424
3090,3682;0,0437485
3091,3325;0,0439668
3092,2966;0,0442023
3093,2610;0,0444523
3094,2251;0,0447089
3095,1895;0,0449647
3096,1536;0,045217
3097,1179;0,0454679
3098,0820;0,0457198
3099,0464;0,0459716
3100,0105;0,0462182
3100,9749;0,0464543
3101,9390;0,0466798
3102,9033;0,0469019
3103,8674;0,0471323
3104,8318;0,0473797
3105,7959;0,0476454
3106,7603;0,0479227
3107,7244;0,0482018
3108,6887;0,0484763
3109,6528;0,0487467
3110,6172;0,0490187
3111,5813;0,0492983
3112,5457;0,0495873
3113,5098;0,0498823
3114,4741;0,0501768
3115,4382;0,050465
3116,4026;0,0507447
3117,3667;0,0510165
3118,3311;0,0512823
3119,2952;0,0515438
3120,2595;0,0518011
3121,2236;0,0520542
3122,1880;0,0523035
3123,1521;0,0525506
3124,1165;0,0527984
3125,0806;0,0530507
3126,0449;0,0533116
3127,0090;0,0535845
3127,9734;0,0538706
3128,9375;0,0541688
3129,9019;0,0544746
3130,8660;0,054782
3131,8303;0,055085
3132,7944;0,0553792
3133,7588;0,0556634
3134,7229;0,0559397
3135,6873;0,0562124
3136,6514;0,056487
3137,6157;0,0567683
3138,5798;0,0570587
3139,5442;0,0573573
3140,5083;0,0576598
3141,4727;0,0579602
3142,4368;0,058255
3143,4011;0,0585451
3144,3652;0,0588361
3145,3296;0,0591348
3146,2937;0,0594448
3147,2581;0,0597631
3148,2222;0,0600822
3149,1865;0,0603943
3150,1506;0,0606965
3151,1150;0,0609912
3152,0791;0,0612843
3153,0435;0,06158
3154,0076;0,0618783
3154,9719;0,0621765
3155,9360;0,0624716
3156,9004;0,0627631
3157,8645;0,0630526
3158,8289;0,063343
3159,7930;0,0636362
3160,7573;0,0639339
3161,7214;0,0642378
3162,6858;0,0645494
3163,6499;0,0648687
3164,6143;0,0651925
3165,5784;0,0655154
3166,5427;0,0658318
3167,5068;0,0661397
3168,4712;0,0664416
3169,4353;0,0667193
3170,3997;0,0670269
3171,3638;0,0673435
3172,3281;0,0676677
3173,2922;0,0679947
3174,2566;0,0683179
3175,2207;0,0686314
3176,1851;0,0689313
3177,1492;0,0692184
3178,1135;0,0694975
3179,0776;0,0697761
3180,0420;0,0700604
3181,0061;0,0703531
3181,9705;0,0706519
3182,9346;0,0709523
3183,8989;0,0712497
3184,8630;0,0715421
3185,8274;0,0718295
3186,7915;0,072113
3187,7559;0,0723936
3188,7200;0,0726734
3189,6843;0,0729554
3190,6484;0,0732432
3191,6128;0,0735386
3192,5769;0,0738399
3193,5413;0,0741418
3194,5054;0,0744386
3195,4697;0,0747267
3196,4338;0,0750063
3197,3982;0,0752795
3198,3623;0,075547
3199,3267;0,0758063
3200,2908;0,0760536
3201,2551;0,0762872
3202,2192;0,0765109
3203,1836;0,0767333
3204,1477;0,0769646
3205,1121;0,0772116
3206,0762;0,0774759
3207,0405;0,0777537
3208,0046;0,0780385
3208,9690;0,0783238
3209,9331;0,078604
3210,8975;0,0788753
3211,8616;0,0791357
3212,8259;0,079385
3213,7900;0,079625
3214,7544;0,0798587
3215,7185;0,0800889
3216,6829;0,0803174
3217,6470;0,0805448
3218,6113;0,0807713
3219,5754;0,0809975
3220,5398;0,0812241
3221,5039;0,0814515
3222,4683;0,0816799
3223,4324;0,0819092
3224,3967;0,0821409
3225,3608;0,0823769
3226,3252;0,0826182
3227,2893;0,0828631
3228,2537;0,0831068
3229,2178;0,0833439
3230,1821;0,0835713
3231,1462;0,0837898
3232,1106;0,0840024
3233,0747;0,084211
3234,0391;0,0844148
3235,0032;0,0846118
3235,9675;0,0848034
3236,9316;0,0849966
3237,8960;0,085203
3238,8601;0,0854322
3239,8245;0,0856849
3240,7886;0,0859508
3241,7529;0,0862119
3242,7170;0,0864507
3243,6814;0,0866581
3244,6455;0,0868369
3245,6099;0,0869989
3246,5740;0,0871596
3247,5383;0,0873309
3248,5024;0,0875186
3249,4668;0,0877223
3250,4309;0,0879369
3251,3953;0,088155
3252,3594;0,088369
3253,3237;0,0885737
3254,2878;0,0887686
3255,2522;0,0889593
3256,2163;0,0891551
3257,1807;0,0893646
3258,1448;0,0895901
3259,1091;0,0898257
3260,0732;0,0900594
3261,0376;0,0902789
3262,0017;0,0904777
3262,9661;0,0906576
3263,9302;0,0908265
3264,8945;0,0909935
3265,8586;0,0911639
3266,8230;0,0913383
3267,7871;0,0915147
3268,7515;0,0916907
3269,7156;0,0918647
3270,6799;0,0920345
3271,6440;0,092195
3272,6084;0,0923387
3273,5725;0,0924579
3274,5369;0,092549
3275,5010;0,0926155
3276,4653;0,0926673
3277,4294;0,0927169
3278,3938;0,0927747
3279,3579;0,0928456
3280,3223;0,0929283
3281,2864;0,093018
3282,2507;0,0931089
3283,2148;0,093197
3284,1792;0,0932803
3285,1433;0,0933588
3286,1077;0,0934321
3287,0718;0,0934995
3288,0361;0,0935602
3289,0002;0,0936148
3289,9646;0,0936648
3290,9287;0,0937113
3291,8931;0,0937533
3292,8572;0,0937877
3293,8215;0,0938117
3294,7856;0,0938263
3295,7500;0,0938384
3296,7141;0,0938587
3297,6785;0,0938958
3298,6426;0,0939509
3299,6069;0,0940166
3300,5710;0,0940807
3301,5354;0,0941337
3302,4995;0,0941729
3303,4639;0,0942024
3304,4280;0,0942283
3305,3923;0,0942537
3306,3564;0,094277
3307,3208;0,0942947
3308,2849;0,0943051
3309,2493;0,0943105
3310,2134;0,0943163
3311,1777;0,0943277
3312,1418;0,0943485
3313,1062;0,0943811
3314,0703;0,0944281
3315,0347;0,0944925
3315,9988;0,0945768
3316,9631;0,0946803
3317,9272;0,0947993
3318,8916;0,0949276
3319,8557;0,0950588
3320,8201;0,095188
3321,7842;0,0953122
3322,7485;0,0954299
3323,7126;0,0955402
3324,6770;0,0956428
3325,6411;0,0957373
3326,6055;0,0958235
3327,5696;0,095901
3328,5339;0,09597
3329,4980;0,0960323
3330,4624;0,0960911
3331,4265;0,0961497
3332,3909;0,0962091
3333,3550;0,0962665
3334,3193;0,0963152
3335,2834;0,0963473
3336,2478;0,096356
3337,2119;0,0963376
3338,1763;0,0962904
3339,1404;0,0962143
3340,1047;0,0961108
3341,0688;0,0959853
3342,0332;0,0958471
3342,9973;0,0957078
3343,9617;0,0955764
3344,9258;0,0954548
3345,8901;0,0953374
3346,8542;0,0952147
3347,8186;0,0950805
3348,7827;0,0949349
3349,7471;0,0947841
3350,7112;0,0946351
3351,6755;0,094491
3352,6396;0,0943488
3353,6040;0,0942022
3354,5681;0,094046
3355,5325;0,0938802
3356,4966;0,0937102
3357,4609;0,0935444
3358,4250;0,0933905
3359,3894;0,0932521
3360,3535;0,0931281
3361,3179;0,0930136
3362,2820;0,0929025
3363,2463;0,0927892
3364,2104;0,0926696
3365,1748;0,0925397
3366,1389;0,0923949
3367,1033;0,0922303
3368,0674;0,092043
3369,0317;0,0918351
3369,9958;0,0916143
3370,9602;0,0913924
3371,9243;0,0911803
3372,8887;0,0909839
3373,8528;0,0908024
3374,8171;0,0906313
3375,7813;0,0904654
3376,7456;0,090302
3377,7097;0,0901401
3378,6741;0,0899783
3379,6382;0,0898125
3380,6025;0,0896373
3381,5667;0,089449
3382,5310;0,0892499
3383,4951;0,0890489
3384,4595;0,0888592
3385,4236;0,0886924
3386,3879;0,0885527
3387,3521;0,0884334
3388,3164;0,0883189
3389,2805;0,0881894
3390,2449;0,0880293
3391,2090;0,087834
3392,1733;0,0876122
3393,1375;0,0873824
3394,1018;0,0871634
3395,0659;0,0869653
3396,0303;0,0867842
3396,9944;0,0866062
3397,9587;0,0864149
3398,9229;0,0861994
3399,8872;0,0859584
3400,8513;0,085699
3401,8157;0,0854311
3402,7798;0,0851635
3403,7441;0,0849011
3404,7083;0,0846466
3405,6726;0,0844016
3406,6367;0,0841684
3407,6011;0,0839475
3408,5652;0,0837358
3409,5295;0,0835249
3410,4937;0,0833028
3411,4580;0,0830591
3412,4221;0,0827902
3413,3865;0,0825014
3414,3506;0,0822035
3415,3149;0,0819068
3416,2791;0,0816151
3417,2434;0,0813251
3418,2075;0,0810302
3419,1719;0,0807256
3420,1360;0,0804123
3421,1003;0,0800962
3422,0645;0,0797841
3423,0288;0,0794801
3423,9929;0,0791842
3424,9573;0,0788939
3425,9214;0,0786052
3426,8857;0,0783136
3427,8499;0,0780146
3428,8142;0,0777059
3429,7783;0,0773884
3430,7427;0,0770672
3431,7068;0,0767479
3432,6711;0,0764328
3433,6353;0,076118
3434,5996;0,0757964
3435,5637;0,0754623
3436,5281;0,0751179
3437,4922;0,0747737
3438,4565;0,0744445
3439,4207;0,0741421
3440,3850;0,0738685
3441,3491;0,073613
3442,3135;0,0733554
3443,2776;0,0730722
3444,2419;0,0727453
3445,2061;0,0723691
3446,1704;0,0719538
3447,1345;0,0715235
3448,0989;0,0711074
3449,0630;0,0707266
3450,0273;0,0703867
3450,9915;0,0700776
3451,9558;0,0697802
3452,9199;0,0694754
3453,8843;0,0691509
3454,8484;0,0688048
3455,8127;0,068444
3456,7769;0,06808
3457,7412;0,0677228
3458,7053;0,0673774
3459,6697;0,0670428
3460,6338;0,066714
3461,5981;0,0663845
3462,5623;0,0660483
3463,5266;0,0657011
3464,4907;0,0653406
3465,4551;0,0649667
3466,4192;0,0645827
3467,3835;0,0641956
3468,3477;0,0638146
3469,3120;0,0634475
3470,2761;0,0630968
3471,2405;0,0627591
3472,2046;0,0624271
3473,1689;0,0620951
3474,1331;0,0617628
3475,0974;0,0614356
3476,0615;0,0611202
3477,0259;0,0608177
3477,9900;0,0605208
3478,9543;0,0602157
3479,9185;0,0598891
3480,8828;0,0595358
3481,8469;0,0591621
3482,8113;0,0587815
3483,7754;0,0584056
3484,7397;0,0580373
3485,7039;0,057672
3486,6682;0,0573035
3487,6323;0,056931
3488,5967;0,0565615
3489,5608;0,0562055
3490,5251;0,0558702
3491,4893;0,0555548
3492,4536;0,0552508
3493,4177;0,0549475
3494,3821;0,0546382
3495,3462;0,0543245
3496,3105;0,0540156
3497,2747;0,0537215
3498,2390;0,0534448
3499,2031;0,0531755
3500,1675;0,052893
3501,1316;0,0525746
3502,0959;0,0522082
3503,0601;0,0518029
3504,0244;0,0513862
3504,9885;0,0509866
3505,9529;0,0506162
3506,9170;0,0502675
3507,8813;0,0499215
3508,8455;0,0495613
3509,8098;0,0491825
3510,7739;0,0487944
3511,7383;0,0484124
3512,7024;0,0480466
3513,6667;0,0476985
3514,6309;0,0473655
3515,5952;0,0470475
3516,5593;0,0467499
3517,5237;0,04648
3518,4878;0,0462399
3519,4521;0,0460221
3520,4163;0,0458101
3521,3806;0,0455847
3522,3447;0,0453314
3523,3091;0,045044
3524,2732;0,0447229
3525,2375;0,0443682
3526,2017;0,0439772
3527,1660;0,0435487
3528,1301;0,0430917
3529,0945;0,0426293
3530,0586;0,0421916
3531,0229;0,0418001
3531,9871;0,0414573
3532,9514;0,0411475
3533,9155;0,0408453
3534,8799;0,040528
3535,8440;0,040187
3536,8083;0,0398329
3537,7725;0,0394912
3538,7368;0,0391884
3539,7009;0,0389382
3540,6653;0,0387343
3541,6294;0,0385502
3542,5938;0,0383453
3543,5579;0,0380779
3544,5222;0,0377254
3545,4863;0,037303
3546,4507;0,0368582
3547,4148;0,03644
3548,3792;0,0360672
3549,3433;0,0357249
3550,3076;0,0353828
3551,2717;0,0350182
3552,2361;0,0346311
3553,2002;0,0342429
3554,1646;0,033879
3555,1287;0,0335501
3556,0930;0,0332483
3557,0571;0,0329598
3558,0215;0,0326817
3558,9856;0,0324298
3559,9500;0,0322307
3560,9141;0,0321022
3561,8784;0,0320341
3562,8425;0,0319822
3563,8069;0,0318712
3564,7710;0,0316066
3565,7354;0,0311129
3566,6995;0,0304076
3567,6638;0,0296346
3568,6279;0,0289666
3569,5923;0,0284773
3570,5564;0,028131
3571,5208;0,0278513
3572,4849;0,0275776
3573,4492;0,0272839
3574,4133;0,0269739
3575,3777;0,0266653
3576,3418;0,0263729
3577,3062;0,0261015
3578,2703;0,0258496
3579,2346;0,0256198
3580,1987;0,0254208
3581,1631;0,0252599
3582,1272;0,0251318
3583,0916;0,0250126
3584,0557;0,0248614
3585,0200;0,0246281
3585,9841;0,0242726
3586,9485;0,0238082
3587,9126;0,0233262
3588,8770;0,022938
3589,8411;0,0226853
3590,8054;0,0225283
3591,7695;0,0223967
3592,7339;0,0222345
3593,6980;0,0220181
3594,6624;0,0217568
3595,6265;0,0214778
3596,5908;0,0212
3597,5549;0,0209172
3598,5193;0,0206079
3599,4834;0,0202618
3600,4478;0,0198974
3601,4119;0,0195541
3602,3762;0,0192611
3603,3403;0,0190141
3604,3047;0,0187778
3605,2688;0,0185071
3606,2332;0,0181703
3607,1973;0,0177698
3608,1616;0,0173502
3609,1257;0,0169767
3610,0901;0,0166942
3611,0542;0,0165031
3612,0186;0,0163669
3612,9827;0,0162378
3613,9470;0,0160774
3614,9111;0,0158659
3615,8755;0,0155997
3616,8396;0,0152876
3617,8040;0,0149505
3618,7681;0,0146269
3619,7324;0,0143695
3620,6965;0,0142186
3621,6609;0,0141673
3622,6250;0,014159
3623,5894;0,0141184
3624,5535;0,013985
3625,5178;0,0137261
3626,4819;0,0133337
3627,4463;0,0128221
3628,4104;0,0122518
3629,3748;0,0117407
3630,3389;0,0113752
3631,3032;0,0111254
3632,2673;0,0108935
3633,2317;0,0106039
3634,1958;0,0102432
3635,1602;0,00984891
3636,1243;0,00947399
3637,0886;0,00915315
3638,0527;0,00889125
3639,0171;0,00867696
3639,9812;0,00850274
3640,9456;0,00837206
3641,9097;0,00829074
3642,8740;0,00825502
3643,8381;0,00825015
3644,8025;0,00825818
3645,7666;0,00825701
3646,7310;0,00818897
3647,6951;0,00792561
3648,6594;0,00736278
3649,6235;0,00663425
3650,5879;0,00602157
3651,5520;0,0056369
3652,5164;0,005397
3653,4805;0,00518134
3654,4448;0,00492462
3655,4089;0,00463032
3656,3733;0,00434761
3657,3374;0,00412842
3658,3018;0,00398608
3659,2659;0,00389056
3660,2302;0,00380247
3661,1943;0,00370739
3662,1587;0,00362112
3663,1228;0,0035676
3664,0872;0,00355261
3665,0513;0,00355982
3666,0156;0,00356791
3666,9797;0,00356787
3667,9441;0,00355918
3668,9082;0,00353455
3669,8726;0,00348449
3670,8367;0,00341185
3671,8010;0,00332117
3672,7651;0,00320659
3673,7295;0,0030586
3674,6936;0,00287189
3675,6580;0,00266023
3676,6221;0,00247194
3677,5864;0,00235222
3678,5505;0,00229474
3679,5149;0,00226281
3680,4790;0,00223551
3681,4434;0,00221866
3682,4075;0,00222385
3683,3718;0,00224642
3684,3359;0,00226552
3685,3003;0,00226534
3686,2644;0,00225539
3687,2288;0,00226568
3688,1929;0,00231265
3689,1572;0,0023769
3690,1213;0,00243221
3691,0857;0,00247295
3692,0498;0,00249779
3693,0142;0,00250022
3693,9783;0,00248002
3694,9426;0,00244786
3695,9067;0,00241711
3696,8711;0,00239424
3697,8352;0,00237754
3698,7996;0,00236299
3699,7637;0,00235013
3700,7280;0,00234339
3701,6921;0,00235066
3702,6565;0,00237972
3703,6206;0,00243091
3704,5850;0,00249175
3705,5491;0,00254246
3706,5134;0,00256706
3707,4775;0,00255584
3708,4419;0,00249111
3709,4060;0,00232977
3710,3704;0,00202868
3711,3345;0,0016268
3712,2988;0,00126194
3713,2629;0,00105367
3714,2273;0,00101821
3715,1914;0,00110308
3716,1558;0,00125171
3717,1199;0,0014331
3718,0842;0,00163828
3719,0483;0,00186286
3720,0127;0,0020931
3720,9768;0,00230502
3721,9412;0,00247398
3722,9053;0,0025848
3723,8696;0,00263618
3724,8337;0,00264017
3725,7981;0,00261674
3726,7622;0,00258313
3727,7266;0,00254563
3728,6907;0,00250284
3729,6550;0,00245678
3730,6191;0,00241834
3731,5835;0,00239652
3732,5476;0,00237356
3733,5120;0,00229252
3734,4761;0,00210469
3735,4404;0,00185576
3736,4045;0,00167148
3737,3689;0,00162268
3738,3330;0,00165695
3739,2974;0,00165696
3740,2615;0,00152564
3741,2258;0,00123804
3742,1899;0,000860261
3743,1543;0,000531537
3744,1184;0,000392229
3745,0828;0,000483035
3746,0469;0,000711369
3747,0112;0,000925652
3747,9753;0,00100938
3748,9397;0,000918936
3749,9038;0,000683489
3750,8682;0,00040894
3751,8323;0,00024409
3752,7966;0,000262802
3753,7607;0,000407978
3754,7251;0,000569554
3755,6892;0,000667938
3756,6536;0,000674249
3757,6177;0,000596671
3758,5820;0,000468003
3759,5461;0,000337148
3760,5105;0,00024815
3761,4746;0,000217197
3762,4390;0,000232404
3763,4031;0,00027042
3764,3674;0,00030912
3765,3315;0,000330968
3766,2959;0,000322974
3767,2600;0,000277677
3768,2244;0,000195552
3769,1885;8,87162E-05
3770,1528;-1,65689E-05
3771,1169;-8,73919E-05
3772,0813;-0,000102537
3773,0454;-6,64214E-05
3774,0098;-4,2012E-06
3774,9739;5,52479E-05
3775,9382;9,29073E-05
3776,9023;0,000102562
3777,8667;8,88605E-05
3778,8308;6,84024E-05
3779,7952;6,6247E-05
3780,7593;9,9E-05
3781,7236;0,000159032
3782,6877;0,000217602
3783,6521;0,000241948
3784,6162;0,000213338
3785,5806;0,000138152
3786,5447;4,51171E-05
3787,5090;-3,09718E-05
3788,4731;-6,83153E-05
3789,4375;-6,59366E-05
3790,4016;-3,61581E-05
3791,3660;1,08313E-05
3792,3301;7,85207E-05
3793,2944;0,00018241
3794,2585;0,000334206
3795,2229;0,000522972
3796,1870;0,000710962
3797,1514;0,000850418
3798,1155;0,000907118
3799,0798;0,000872114
3800,0439;0,000759107
3801,0083;0,000598662
3801,9724;0,00042954
3802,9368;0,00027488
3803,9009;0,000125022
3804,8652;-4,2129E-05
3805,8293;-0,000222079
3806,7937;-0,000367279
3807,7578;-0,000412946
3808,7222;-0,000331626
3809,6863;-0,000163903
3810,6506;1,13497E-05
3811,6147;0,000134878
3812,5791;0,000201751
3813,5432;0,000254229
3814,5076;0,000341529
3815,4717;0,000477082
3816,4360;0,00062889
3817,4001;0,000741998
3818,3645;0,000765012
3819,3286;0,000670126
3820,2930;0,000474805
3821,2571;0,000253715
3822,2214;0,000101271
3823,1855;5,95009E-05
3824,1499;9,65349E-05
3825,1140;0,000150583
3826,0784;0,000177936
3827,0425;0,000170825
3828,0068;0,000150465
3828,9709;0,000148706
3829,9353;0,000188839
3830,8994;0,000273497
3831,8638;0,000383584
3832,8279;0,000487721
3833,7922;0,000557757
3834,7563;0,000582232
3835,7207;0,000568854
3836,6848;0,000533483
3837,6492;0,000485348
3838,6133;0,000424023
3839,5776;0,00034628
3840,5417;0,000250434
3841,5061;0,000140153
3842,4702;3,42884E-05
3843,4346;-2,89997E-05
3844,3987;-7,89447E-06
3845,3630;0,00011289
3846,3271;0,000301141
3847,2915;0,000483856
3848,2556;0,000576439
3849,2200;0,000515489
3850,1841;0,000281039
3851,1484;-9,79574E-05
3852,1125;-0,000546468
3853,0769;-0,00092262
3854,0410;-0,00103609
3855,0054;-0,000822833
3855,9695;-0,000426769
3856,9338;-4,69045E-05
3857,8979;0,00019715
3858,8623;0,000286717
3859,8264;0,000273851
3860,7908;0,000238077
3861,7549;0,000239874
3862,7192;0,000288223
3863,6833;0,000347879
3864,6477;0,000378278
3865,6118;0,000361351
3866,5762;0,00030242
3867,5403;0,000221106
3868,5046;0,000141153
3869,4688;7,92193E-05
3870,4331;3,88415E-05
3871,3972;1,50156E-05
3872,3616;1,80371E-06
3873,3257;-6,14639E-06
3874,2900;-1,48812E-05
3875,2542;-2,85058E-05
3876,2185;-4,28378E-05
3877,1826;-4,258E-05
3878,1470;-8,36839E-06
3879,1111;6,54681E-05
3880,0754;0,00015615
3881,0396;0,000219331
3882,0039;0,000215695
3882,9680;0,000134536
3883,9324;-1,48817E-07
3884,8965;-0,000140778
3885,8608;-0,000241055
3886,8250;-0,000282703
3887,7893;-0,000281815
3888,7534;-0,000267546
3889,7178;-0,000254855
3890,6819;-0,00023542
3891,6462;-0,000188717
3892,6104;-0,000101215
3893,5747;1,68243E-05
3894,5388;0,000131238
3895,5032;0,00020682
3896,4673;0,00023245
3897,4316;0,00022492
3898,3958;0,000210032
3899,3601;0,000199667
3900,3242;0,000184388
3901,2886;0,000144358
3902,2527;6,47851E-05
3903,2170;-5,15272E-05
3904,1812;-0,000179676
3905,1455;-0,00028603
3906,1096;-0,00035164
3907,0740;-0,000380462
3908,0381;-0,000386637
3909,0024;-0,000379207
3909,9666;-0,000358442
3910,9309;-0,000322425
3911,8950;-0,000274528
3912,8594;-0,000224801
3913,8235;-0,000185384
3914,7878;-0,000165036
3915,7520;-0,000166121
3916,7163;-0,000182553
3917,6804;-0,000198181
3918,6448;-0,000192096
3919,6089;-0,000152269
3920,5732;-8,56098E-05
3921,5374;-1,38552E-05
3922,5017;3,83395E-05
3923,4658;5,51307E-05
3924,4302;3,78775E-05
3925,3943;4,81904E-06
3926,3586;-2,1667E-05
3927,3228;-3,00405E-05
3928,2871;-2,36398E-05
3929,2512;-1,50112E-05
3930,2156;-1,86305E-05
3931,1797;-4,35503E-05
3932,1440;-8,65263E-05
3933,1082;-0,000133128
3934,0725;-0,000169134
3935,0366;-0,000189893
3936,0010;-0,00019854
3936,9651;-0,000198533
3937,9294;-0,000189574
3938,8936;-0,000169477
3939,8579;-0,000139042
3940,8220;-0,00010477
3941,7864;-7,56099E-05
3942,7505;-5,56229E-05
3943,7148;-4,02142E-05
3944,6790;-2,17387E-05
3945,6433;2,03657E-06
3946,6074;2,40148E-05
3947,5718;3,02986E-05
3948,5359;7,74555E-06
3949,5002;-4,65782E-05
3950,4644;-0,000121236
3951,4287;-0,000196707
3952,3928;-0,000256357
3953,3572;-0,000292567
3954,3213;-0,000306215
3955,2856;-0,000303309
3956,2498;-0,000291569
3957,2141;-0,000277838
3958,1782;-0,000266836
3959,1426;-0,000261224
3960,1067;-0,00026207
3961,0710;-0,000268714
3962,0352;-0,000278209
3962,9995;-0,000285698
3963,9636;-0,000286771
3964,9280;-0,000280122
3965,8921;-0,000269256
3966,8564;-0,000260845
3967,8206;-0,00026077
3968,7849;-0,000269924
3969,7490;-0,000282803
3970,7134;-0,000290629
3971,6775;-0,000287511
3972,6418;-0,000275431
3973,6060;-0,000264214
3974,5703;-0,000265884
3975,5344;-0,000286919
3976,4988;-0,000323732
3977,4629;-0,000364605
3978,4272;-0,000396532
3979,3914;-0,000412452
3980,3557;-0,000414537
3981,3198;-0,00041191
3982,2842;-0,000414222
3983,2483;-0,000425236
3984,2126;-0,000440559
3985,1768;-0,000450834
3986,1411;-0,000447899
3987,1052;-0,000429955
3988,0696;-0,000402987
3989,0337;-0,000377617
3989,9980;-0,000364235
3990,9622;-0,000368371
3991,9265;-0,000388998
3992,8906;-0,000419827
3993,8550;-0,000452142
3994,8191;-0,000477648
3995,7834;-0,000490649
3996,7476;-0,000489453
3997,7119;-0,000476748
3998,6760;-0,000458627
3999,6404;-0,000442282
4000,6045;-0,000254129

##### Extended Information
[Comments]
Sample name
Comment
Username
Division
Organization;UNIVERSIDAD INDUSTRIAL DE SANTANDER

[Detailed Information]
Creation date;20/03/2025 11:53 a.m.

Data array type;Linear data array
Horizontal axis;Wavenumber [cm-1]
Vertical axis;Abs
Start;399,193 cm-1
End;4000,6 cm-1
Data interval;0,964233 cm-1
Data points;3736    

[Measurement Information]
Model name;FT/IR-4X1typeA
Serial No.;A035162111

Accessory;ATR PRO 4X
Accessory S/N;A021162126
Incident angle;45 deg

Measurement date;20/03/2025 11:51 a.m.

Light source;Standard
Detector;TGS
Accumulation;40
Resolution;4 cm-1
Zero filling;On
Apodization;Cosine
Gain;Auto (8)
Aperture;Auto (7 mm)
Scan speed;Auto (2 mm/sec)
Filter;Auto (12800 Hz)

