TITLE;
DATA TYPE;INFRARED SPECTRUM
ORIGIN;JASCO
OWNER;
DATE;25/03/20
TIME;12:23:07
SPECTROMETER/DATA SYSTEM;
LOCALE;9226
RESOLUTION;
DELTAX;0,964233
XUNITS;1/CM
YUNITS;ABSORBANCE
FIRSTX;  399,1927
LASTX; 4000,6047
NPOINTS;    3736
FIRSTY;     0,21151
MAXY;     0,26538
MINY;    -0,00289
XYDATA
399,1927;0,211511
400,1569;0,21078
401,1211;0,209062
402,0854;0,207003
403,0496;0,205113
404,0138;0,203792
404,9781;0,203379
405,9423;0,204085
406,9065;0,205877
407,8708;0,208444
408,8350;0,211293
409,7992;0,213921
410,7635;0,215958
411,7277;0,217257
412,6919;0,217912
413,6562;0,21818
414,6204;0,218373
415,5846;0,218809
416,5489;0,219822
417,5131;0,221687
418,4773;0,224326
419,4416;0,227053
420,4058;0,228998
421,3700;0,229821
422,3343;0,229721
423,2985;0,229054
424,2627;0,228157
425,2270;0,22732
426,1912;0,226758
427,1554;0,226549
428,1197;0,226633
429,0839;0,226872
430,0481;0,227152
431,0124;0,227436
431,9766;0,227732
432,9408;0,228016
433,9051;0,228161
434,8693;0,227965
435,8335;0,227285
436,7978;0,226179
437,7620;0,22493
438,7262;0,2239
439,6905;0,22334
440,6547;0,223281
441,6189;0,22352
442,5832;0,223731
443,5474;0,223634
444,5116;0,223146
445,4759;0,222394
446,4401;0,221591
447,4043;0,220901
448,3686;0,220389
449,3328;0,220041
450,2970;0,219805
451,2613;0,219632
452,2255;0,219496
453,1897;0,219396
454,1540;0,219356
455,1182;0,21941
456,0824;0,219576
457,0467;0,219814
458,0109;0,219996
458,9751;0,219946
459,9394;0,219536
460,9036;0,218758
461,8678;0,217718
462,8321;0,21659
463,7963;0,215574
464,7605;0,214852
465,7248;0,214524
466,6890;0,21457
467,6532;0,214871
468,6175;0,215271
469,5817;0,215648
470,5459;0,215931
471,5102;0,216087
472,4744;0,216105
473,4386;0,215987
474,4029;0,215753
475,3671;0,215455
476,3313;0,215174
477,2956;0,215011
478,2598;0,215062
479,2240;0,215385
480,1883;0,215967
481,1525;0,216718
482,1167;0,217488
483,0810;0,218115
484,0452;0,218492
485,0094;0,21862
485,9737;0,218613
486,9379;0,218639
487,9021;0,218836
488,8664;0,219265
489,8306;0,219897
490,7948;0,220636
491,7591;0,221351
492,7233;0,221918
493,6875;0,222258
494,6518;0,222347
495,6160;0,22222
496,5802;0,22196
497,5445;0,221678
498,5087;0,221485
499,4729;0,221456
500,4372;0,221604
501,4014;0,221879
502,3656;0,222206
503,3299;0,222541
504,2941;0,222897
505,2583;0,223311
506,2226;0,22379
507,1868;0,224277
508,1510;0,224677
509,1153;0,224925
510,0795;0,225045
511,0437;0,225153
512,0080;0,225394
512,9722;0,225871
513,9365;0,226598
514,9007;0,227497
515,8649;0,228434
516,8292;0,229252
517,7934;0,229821
518,7576;0,230077
519,7219;0,230037
520,6861;0,229785
521,6503;0,229428
522,6146;0,229064
523,5788;0,228766
524,5430;0,228567
525,5073;0,228458
526,4715;0,228386
527,4357;0,228275
528,4000;0,228059
529,3642;0,227702
530,3284;0,227204
531,2927;0,226609
532,2569;0,225996
533,2211;0,225473
534,1854;0,22513
535,1496;0,225011
536,1138;0,225076
537,0781;0,225221
538,0423;0,225321
539,0065;0,225286
539,9708;0,225112
540,9350;0,224877
541,8992;0,224702
542,8635;0,224694
543,8277;0,224887
544,7919;0,225228
545,7562;0,225605
546,7204;0,225901
547,6846;0,226054
548,6489;0,226082
549,6131;0,226054
550,5773;0,226048
551,5416;0,226112
552,5058;0,226257
553,4700;0,226475
554,4343;0,226747
555,3985;0,227043
556,3627;0,227301
557,3270;0,227414
558,2912;0,227249
559,2554;0,226697
560,2197;0,225728
561,1839;0,224425
562,1481;0,222972
563,1124;0,221593
564,0766;0,220465
565,0408;0,219665
566,0051;0,219149
566,9693;0,218791
567,9335;0,218456
568,8978;0,218064
569,8620;0,217628
570,8262;0,217227
571,7905;0,216946
572,7547;0,216825
573,7189;0,216837
574,6832;0,216909
575,6474;0,216959
576,6116;0,216936
577,5759;0,216828
578,5401;0,216645
579,5043;0,216397
580,4686;0,216079
581,4328;0,215681
582,3970;0,215212
583,3613;0,214705
584,3255;0,214216
585,2897;0,213804
586,2540;0,213514
587,2182;0,213365
588,1824;0,213349
589,1467;0,213421
590,1109;0,21351
591,0751;0,213526
592,0394;0,213401
593,0036;0,213116
593,9678;0,21271
594,9321;0,212253
595,8963;0,211798
596,8605;0,211355
597,8248;0,210894
598,7890;0,210382
599,7532;0,209817
600,7175;0,209239
601,6817;0,208698
602,6459;0,208218
603,6102;0,207771
604,5744;0,20729
605,5386;0,206706
606,5029;0,205983
607,4671;0,205131
608,4313;0,204193
609,3956;0,203228
610,3598;0,202301
611,3240;0,201484
612,2883;0,200853
613,2525;0,200454
614,2167;0,200267
615,1810;0,200169
616,1452;0,199951
617,1094;0,19939
618,0737;0,198362
619,0379;0,196909
620,0021;0,195212
620,9664;0,193493
621,9306;0,191922
622,8948;0,190582
623,8591;0,189482
624,8233;0,188542
625,7875;0,187777
626,7518;0,187128
627,7160;0,186537
628,6802;0,185955
629,6445;0,185352
630,6087;0,184727
631,5729;0,184102
632,5372;0,183514
633,5014;0,182987
634,4656;0,182526
635,4299;0,182113
636,3941;0,181725
637,3583;0,181344
638,3226;0,18096
639,2868;0,180572
640,2510;0,180177
641,2153;0,17977
642,1795;0,179349
643,1437;0,178918
644,1080;0,178485
645,0722;0,178057
646,0364;0,177631
647,0007;0,177195
647,9649;0,176742
648,9291;0,176286
649,8934;0,175859
650,8576;0,175504
651,8218;0,175253
652,7861;0,175111
653,7503;0,175061
654,7145;0,175077
655,6788;0,175127
656,6430;0,175193
657,6072;0,175272
658,5715;0,17536
659,5357;0,175431
660,4999;0,17541
661,4642;0,175179
662,4284;0,174613
663,3926;0,173613
664,3569;0,17218
665,3211;0,170523
666,2853;0,169119
667,2496;0,168471
668,2138;0,168471
669,1780;0,168385
670,1423;0,167885
671,1065;0,167088
672,0707;0,165983
673,0350;0,164499
673,9992;0,162694
674,9634;0,160757
675,9277;0,158883
676,8919;0,157174
677,8561;0,155626
678,8204;0,1542
679,7846;0,152881
680,7488;0,151686
681,7131;0,15063
682,6773;0,149689
683,6415;0,14883
684,6058;0,148037
685,5700;0,147325
686,5342;0,146717
687,4985;0,146202
688,4627;0,145746
689,4269;0,145292
690,3912;0,144818
691,3554;0,144345
692,3196;0,143914
693,2839;0,143545
694,2481;0,143221
695,2123;0,142897
696,1766;0,142523
697,1408;0,142071
698,1050;0,141536
699,0693;0,140934
700,0335;0,14029
700,9977;0,139629
701,9620;0,138979
702,9262;0,138362
703,8904;0,137775
704,8547;0,137206
705,8189;0,136625
706,7831;0,136002
707,7474;0,135328
708,7116;0,134622
709,6758;0,133921
710,6401;0,133248
711,6043;0,132596
712,5685;0,131925
713,5328;0,131201
714,4970;0,130423
715,4612;0,128863
716,4255;0,128275
717,3897;0,127801
718,3539;0,127347
719,3182;0,126742
720,2824;0,125844
721,2466;0,12463
722,2109;0,123221
723,1751;0,121807
724,1393;0,120547
725,1036;0,119502
726,0678;0,11864
727,0320;0,11788
727,9963;0,117148
728,9605;0,116405
729,9247;0,11565
730,8890;0,114894
731,8532;0,114151
732,8174;0,113428
733,7817;0,112733
734,7459;0,112078
735,7101;0,111476
736,6744;0,110938
737,6386;0,110458
738,6028;0,110015
739,5671;0,109577
740,5313;0,109112
741,4955;0,1086
742,4598;0,108044
743,4240;0,107467
744,3882;0,106903
745,3525;0,106377
746,3167;0,105897
747,2809;0,105446
748,2452;0,104998
749,2094;0,104529
750,1736;0,104027
751,1379;0,103494
752,1021;0,102938
753,0663;0,102371
754,0306;0,1018
754,9948;0,10123
755,9590;0,100669
756,9233;0,100125
757,8875;0,099608
758,8517;0,099126
759,8160;0,098679
760,7802;0,0982576
761,7444;0,0978442
762,7087;0,0974212
763,6729;0,0969807
764,6371;0,0965308
765,6014;0,0960925
766,5656;0,0956877
767,5298;0,0953255
768,4941;0,0949957
769,4583;0,0946771
770,4225;0,0943526
771,3868;0,0940223
772,3510;0,0937033
773,3152;0,0934163
774,2795;0,0931692
775,2437;0,0929485
776,2079;0,0927239
777,1722;0,0924615
778,1364;0,0921376
779,1006;0,091745
780,0649;0,0912909
781,0291;0,0907921
781,9933;0,0902681
782,9576;0,0897356
783,9218;0,0892043
784,8860;0,0886757
785,8503;0,0881476
786,8145;0,0876212
787,7787;0,0871079
788,7430;0,0866284
789,7072;0,0862033
790,6714;0,0858404
791,6357;0,0855286
792,5999;0,0852428
793,5641;0,0849578
794,5284;0,0846602
795,4926;0,0843525
796,4568;0,0840471
797,4211;0,0837567
798,3853;0,0834887
799,3495;0,0832452
800,3138;0,0830254
801,2780;0,0828256
802,2422;0,0826384
803,2065;0,0824527
804,1707;0,0822584
805,1349;0,0820535
806,0992;0,0818479
807,0634;0,0816592
808,0276;0,0815026
808,9919;0,0813802
809,9561;0,0812776
810,9203;0,0811707
811,8846;0,0810369
812,8488;0,0808657
813,8130;0,0806621
814,7773;0,0804434
815,7415;0,0802326
816,7057;0,0800512
817,6700;0,0799139
818,6342;0,0798253
819,5984;0,0797789
820,5627;0,0797597
821,5269;0,0797497
822,4911;0,0797344
823,4554;0,0797068
824,4196;0,0796658
825,3839;0,0796117
826,3481;0,0795427
827,3123;0,0794553
828,2766;0,079348
829,2408;0,0792244
830,2050;0,0790919
831,1693;0,0789556
832,1335;0,078813
833,0977;0,0786544
834,0620;0,0784672
835,0262;0,0782432
835,9904;0,0779808
836,9547;0,0776829
837,9189;0,0773546
838,8831;0,0770036
839,8474;0,0766445
840,8116;0,0762994
841,7758;0,0759921
842,7401;0,0757367
843,7043;0,0755287
844,6685;0,0753477
845,6328;0,0751705
846,5970;0,0749873
847,5612;0,074808
848,5255;0,0746539
849,4897;0,0745424
850,4539;0,0744747
851,4182;0,0744363
852,3824;0,0744068
853,3466;0,0743701
854,3109;0,0743176
855,2751;0,0742446
856,2393;0,0741466
857,2036;0,0740217
858,1678;0,0738769
859,1320;0,0737312
860,0963;0,0736095
861,0605;0,0735317
862,0247;0,0735023
862,9890;0,0735114
863,9532;0,0735433
864,9174;0,0735886
865,8817;0,0736479
866,8459;0,0737283
867,8101;0,0738344
868,7744;0,0739627
869,7386;0,0741026
870,7028;0,0742403
871,6671;0,0743638
872,6313;0,0744648
873,5955;0,0745405
874,5598;0,0745946
875,5240;0,074639
876,4882;0,0746924
877,4525;0,0747751
878,4167;0,0749041
879,3809;0,0750902
880,3452;0,0753407
881,3094;0,0756643
882,2736;0,0760725
883,2379;0,0765758
884,2021;0,0771765
885,1663;0,077866
886,1306;0,0786279
887,0948;0,0794464
888,0590;0,080312
889,0233;0,0812211
889,9875;0,0821677
890,9517;0,0831341
891,9160;0,0840876
892,8802;0,0849841
893,8444;0,0857785
894,8087;0,0864348
895,7729;0,0869319
896,7371;0,0872634
897,7014;0,0874331
898,6656;0,0874487
899,6298;0,0873163
900,5941;0,0870392
901,5583;0,086621
902,5225;0,0860733
903,4868;0,0854233
904,4510;0,0847189
905,4152;0,084024
906,3795;0,0834066
907,3437;0,0829209
908,3079;0,0825936
909,2722;0,0824189
910,2364;0,0823661
911,2007;0,0823968
912,1649;0,082483
913,1292;0,0826184
914,0934;0,0828173
915,0576;0,0831026
916,0219;0,0834891
916,9861;0,0839702
917,9503;0,0845148
918,9146;0,0850764
919,8788;0,0856088
920,8430;0,086082
921,8073;0,0864897
922,7715;0,086846
923,7357;0,0871728
924,7000;0,0874842
925,6642;0,0877773
926,6284;0,0880341
927,5927;0,0882325
928,5569;0,0883604
929,5211;0,088425
930,4854;0,0884514
931,4496;0,0884725
932,4138;0,0885174
933,3781;0,0886034
934,3423;0,0887367
935,3065;0,0889184
936,2708;0,0891516
937,2350;0,0894444
938,1992;0,0898092
939,1635;0,0902587
940,1277;0,0908008
941,0919;0,0914361
942,0562;0,0921571
943,0204;0,0929518
943,9846;0,0938084
944,9489;0,0947198
945,9131;0,0956856
946,8773;0,0967094
947,8416;0,0977956
948,8058;0,0989471
949,7700;0,100167
950,7343;0,101464
951,6985;0,102847
952,6627;0,104326
953,6270;0,105902
954,5912;0,10756
955,5554;0,109278
956,5197;0,111039
957,4839;0,112836
958,4481;0,114678
959,4124;0,116578
960,3766;0,118543
961,3408;0,120568
962,3051;0,122635
963,2693;0,124724
964,2335;0,126825
965,1978;0,128939
966,1620;0,131078
967,1262;0,133266
968,0905;0,135536
969,0547;0,137929
970,0189;0,140492
970,9832;0,143265
971,9474;0,146273
972,9116;0,149527
973,8759;0,153023
974,8401;0,156755
975,8043;0,160713
976,7686;0,164881
977,7328;0,16923
978,6970;0,173705
979,6613;0,178224
980,6255;0,182685
981,5897;0,186976
982,5540;0,190993
983,5182;0,194656
984,4824;0,197919
985,4467;0,200777
986,4109;0,203259
987,3751;0,20541
988,3394;0,20728
989,3036;0,20891
990,2678;0,210324
991,2321;0,211538
992,1963;0,212567
993,1605;0,213431
994,1248;0,214156
995,0890;0,214772
996,0532;0,215306
997,0175;0,215781
997,9817;0,21621
998,9459;0,216603
999,9102;0,216974
1000,8744;0,217345
1001,8386;0,217757
1002,8029;0,218263
1003,7671;0,218924
1004,7313;0,219798
1005,6956;0,220925
1006,6598;0,222327
1007,6240;0,224006
1008,5883;0,225949
1009,5525;0,228132
1010,5167;0,230518
1011,4810;0,233055
1012,4452;0,235684
1013,4094;0,238333
1014,3737;0,240939
1015,3379;0,243445
1016,3021;0,245813
1017,2664;0,248019
1018,2306;0,250059
1019,1948;0,25194
1020,1591;0,253678
1021,1233;0,255294
1022,0875;0,25681
1023,0518;0,258243
1024,0160;0,259597
1024,9802;0,260868
1025,9445;0,26204
1026,9087;0,26309
1027,8729;0,263992
1028,8372;0,26471
1029,8014;0,265194
1030,7656;0,26538
1031,7299;0,265192
1032,6941;0,264563
1033,6583;0,263456
1034,6226;0,261895
1035,5868;0,259971
1036,5510;0,25784
1037,5153;0,255685
1038,4795;0,253684
1039,4437;0,251969
1040,4080;0,250602
1041,3722;0,249572
1042,3364;0,248807
1043,3007;0,248209
1044,2649;0,247675
1045,2291;0,247123
1046,1934;0,246497
1047,1576;0,245761
1048,1218;0,244889
1049,0861;0,243849
1050,0503;0,242605
1051,0145;0,241118
1051,9788;0,239369
1052,9430;0,237358
1053,9072;0,23511
1054,8715;0,232662
1055,8357;0,230034
1056,7999;0,227222
1057,7642;0,224193
1058,7284;0,220905
1059,6926;0,21734
1060,6569;0,213537
1061,6211;0,20959
1062,5853;0,205631
1063,5496;0,201795
1064,5138;0,198178
1065,4780;0,194821
1066,4423;0,19172
1067,4065;0,188846
1068,3707;0,186163
1069,3350;0,183642
1070,2992;0,181251
1071,2634;0,178951
1072,2277;0,176689
1073,1919;0,174411
1074,1561;0,17207
1075,1204;0,169643
1076,0846;0,167138
1077,0488;0,164587
1078,0131;0,162038
1078,9773;0,159546
1079,9415;0,157166
1080,9058;0,154943
1081,8700;0,152916
1082,8342;0,151109
1083,7985;0,149535
1084,7627;0,148192
1085,7269;0,147065
1086,6912;0,146133
1087,6554;0,145374
1088,6196;0,144768
1089,5839;0,144301
1090,5481;0,143964
1091,5123;0,143751
1092,4766;0,143652
1093,4408;0,143657
1094,4050;0,143757
1095,3693;0,143937
1096,3335;0,144184
1097,2977;0,144479
1098,2620;0,144795
1099,2262;0,145102
1100,1904;0,145369
1101,1547;0,145565
1102,1189;0,145664
1103,0831;0,145649
1104,0474;0,145518
1105,0116;0,145276
1105,9758;0,144942
1106,9401;0,144533
1107,9043;0,144057
1108,8685;0,143503
1109,8328;0,142835
1110,7970;0,142009
1111,7612;0,140984
1112,7255;0,139748
1113,6897;0,138328
1114,6539;0,136789
1115,6182;0,135218
1116,5824;0,133703
1117,5466;0,132303
1118,5109;0,131036
1119,4751;0,129871
1120,4393;0,128741
1121,4036;0,12756
1122,3678;0,126246
1123,3320;0,124737
1124,2963;0,123005
1125,2605;0,121048
1126,2247;0,118888
1127,1890;0,116563
1128,1532;0,114117
1129,1174;0,111602
1130,0817;0,109067
1131,0459;0,10656
1132,0101;0,104121
1132,9744;0,101785
1133,9386;0,0995823
1134,9028;0,0975451
1135,8671;0,0957071
1136,8313;0,094102
1137,7955;0,0927579
1138,7598;0,0916909
1139,7240;0,0909007
1140,6882;0,0903701
1141,6525;0,090067
1142,6167;0,0899497
1143,5809;0,0899736
1144,5452;0,0900991
1145,5094;0,0902986
1146,4736;0,0905603
1147,4379;0,0908862
1148,4021;0,0912843
1149,3663;0,0917581
1150,3306;0,0922988
1151,2948;0,0928822
1152,2590;0,0934733
1153,2233;0,0940328
1154,1875;0,0945216
1155,1517;0,0948994
1156,1160;0,0951202
1157,0802;0,0951268
1158,0444;0,0948506
1159,0087;0,0942172
1159,9729;0,0931581
1160,9371;0,0916242
1161,9014;0,0895987
1162,8656;0,087106
1163,8298;0,0842139
1164,7941;0,0810283
1165,7583;0,0776793
1166,7225;0,0743032
1167,6868;0,0710229
1168,6510;0,067933
1169,6152;0,0650933
1170,5795;0,0625302
1171,5437;0,060246
1172,5079;0,0582286
1173,4722;0,0564602
1174,4364;0,0549217
1175,4006;0,0535935
1176,3649;0,0524552
1177,3291;0,0514866
1178,2933;0,0506685
1179,2576;0,0499842
1180,2218;0,0494201
1181,1860;0,0489647
1182,1503;0,0486076
1183,1145;0,0483398
1184,0787;0,048154
1185,0430;0,0480462
1186,0072;0,0480156
1186,9714;0,0480646
1187,9357;0,0481977
1188,8999;0,0484212
1189,8641;0,0487428
1190,8284;0,04917
1191,7926;0,0497074
1192,7568;0,050352
1193,7211;0,0510909
1194,6853;0,0519017
1195,6495;0,0527576
1196,6138;0,0536343
1197,5780;0,0545156
1198,5422;0,0553942
1199,5065;0,0559925
1200,4707;0,0568925
1201,4349;0,0577821
1202,3992;0,0586503
1203,3634;0,0594858
1204,3276;0,0602812
1205,2919;0,061036
1206,2561;0,061758
1207,2203;0,0624626
1208,1846;0,0631705
1209,1488;0,0639049
1210,1130;0,0646879
1211,0773;0,0655365
1212,0415;0,0664595
1213,0057;0,0674571
1213,9700;0,0685221
1214,9342;0,0696427
1215,8984;0,0708052
1216,8627;0,0719925
1217,8269;0,0731838
1218,7911;0,0743582
1219,7554;0,075496
1220,7196;0,0765812
1221,6838;0,0776039
1222,6481;0,0785604
1223,6123;0,0794512
1224,5765;0,0802787
1225,5408;0,0810461
1226,5050;0,0817562
1227,4692;0,0824116
1228,4335;0,0830144
1229,3977;0,0835647
1230,3619;0,0840605
1231,3262;0,0844978
1232,2904;0,084873
1233,2546;0,0851851
1234,2189;0,085438
1235,1831;0,0856402
1236,1473;0,0858035
1237,1116;0,0859395
1238,0758;0,0860566
1239,0400;0,0861568
1240,0043;0,0862349
1240,9685;0,0862788
1241,9327;0,0862732
1242,8970;0,0862043
1243,8612;0,0860638
1244,8254;0,0858515
1245,7897;0,0855752
1246,7539;0,0852483
1247,7181;0,0848862
1248,6824;0,0845039
1249,6466;0,0841128
1250,6108;0,0837205
1251,5751;0,0833306
1252,5393;0,0829439
1253,5035;0,0825608
1254,4678;0,082182
1255,4320;0,0818071
1256,3962;0,0814326
1257,3605;0,0810495
1258,3247;0,0806435
1259,2889;0,0801991
1260,2532;0,0797042
1261,2174;0,0791552
1262,1816;0,0785562
1263,1459;0,0779159
1264,1101;0,0772435
1265,0743;0,076545
1266,0386;0,0758214
1267,0028;0,0750687
1267,9670;0,0742783
1268,9313;0,0734406
1269,8955;0,0725484
1270,8597;0,0716018
1271,8240;0,0706101
1272,7882;0,0695901
1273,7524;0,0685622
1274,7167;0,0675462
1275,6809;0,0665581
1276,6451;0,0656085
1277,6094;0,0647009
1278,5736;0,0638311
1279,5378;0,0629892
1280,5021;0,0621657
1281,4663;0,0613582
1282,4305;0,0605756
1283,3948;0,0598364
1284,3590;0,0591615
1285,3232;0,0585661
1286,2875;0,0580547
1287,2517;0,0576224
1288,2159;0,0572607
1289,1802;0,0569649
1290,1444;0,0567374
1291,1086;0,0565877
1292,0729;0,0565273
1293,0371;0,0565651
1294,0013;0,0567034
1294,9656;0,0569372
1295,9298;0,057256
1296,8940;0,0576488
1297,8583;0,0581078
1298,8225;0,0586304
1299,7867;0,0592174
1300,7510;0,0598694
1301,7152;0,0605876
1302,6794;0,0613694
1303,6437;0,0622102
1304,6079;0,0631072
1305,5721;0,0640587
1306,5364;0,0650628
1307,5006;0,0661165
1308,4648;0,0672139
1309,4291;0,0683436
1310,3933;0,069485
1311,3575;0,0706069
1312,3218;0,0716698
1313,2860;0,0726332
1314,2502;0,0734624
1315,2145;0,0741276
1316,1787;0,0745982
1317,1429;0,0748415
1318,1072;0,074835
1319,0714;0,0745888
1320,0356;0,0741597
1320,9999;0,0736385
1321,9641;0,0731175
1322,9283;0,0726598
1323,8926;0,0722906
1324,8568;0,0720051
1325,8210;0,0717847
1326,7853;0,0716091
1327,7495;0,0714598
1328,7137;0,0713185
1329,6780;0,0711638
1330,6422;0,070976
1331,6064;0,0707474
1332,5707;0,0704887
1333,5349;0,0702293
1334,4991;0,0699998
1335,4634;0,0698083
1336,4276;0,0696174
1337,3918;0,069336
1338,3561;0,0688483
1339,3203;0,0680912
1340,2845;0,0671239
1341,2488;0,0661032
1342,2130;0,0651836
1343,1772;0,0644475
1344,1415;0,0639074
1345,1057;0,0635404
1346,0699;0,0633158
1347,0342;0,0632062
1347,9984;0,0631952
1348,9626;0,0632785
1349,9269;0,06346
1350,8911;0,0637419
1351,8553;0,0641152
1352,8196;0,0645576
1353,7838;0,0650397
1354,7480;0,0655395
1355,7123;0,0660553
1356,6765;0,0666079
1357,6407;0,0672287
1358,6050;0,0679425
1359,5692;0,068748
1360,5334;0,0695931
1361,4977;0,0703681
1362,4619;0,0709624
1363,4261;0,0713566
1364,3904;0,0716345
1365,3546;0,071895
1366,3188;0,07218
1367,2831;0,0724733
1368,2473;0,0727349
1369,2115;0,072933
1370,1758;0,0730566
1371,1400;0,0731054
1372,1042;0,0730664
1373,0685;0,0728993
1374,0327;0,0725551
1374,9969;0,0720228
1375,9612;0,0713469
1376,9254;0,0705801
1377,8896;0,0697327
1378,8539;0,0687845
1379,8181;0,0677359
1380,7823;0,0666403
1381,7466;0,0655848
1382,7108;0,0646359
1383,6750;0,0638008
1384,6393;0,0630333
1385,6035;0,0622662
1386,5677;0,0614581
1387,5320;0,0606431
1388,4962;0,0599261
1389,4604;0,0593929
1390,4247;0,0590477
1391,3889;0,0588512
1392,3531;0,0587836
1393,3174;0,0588517
1394,2816;0,0590408
1395,2458;0,0592769
1396,2101;0,0594569
1397,1743;0,0595217
1398,1385;0,0594981
1399,1028;0,0594758
1400,0670;0,0595451
1401,0313;0,0597469
1401,9955;0,0600649
1402,9597;0,0604515
1403,9240;0,0608619
1404,8882;0,0612768
1405,8524;0,0617101
1406,8167;0,0621939
1407,7809;0,0627461
1408,7451;0,0633567
1409,7094;0,0640061
1410,6736;0,0646887
1411,6378;0,065414
1412,6021;0,0661866
1413,5663;0,0669841
1414,5305;0,0677593
1415,4948;0,0684642
1416,4590;0,0690599
1417,4232;0,0694959
1418,3875;0,0697289
1419,3517;0,0698177
1420,3159;0,0699116
1421,2802;0,0700675
1422,2444;0,0701759
1423,2086;0,0700793
1424,1729;0,0697027
1425,1371;0,0690852
1426,1013;0,068321
1427,0656;0,0674781
1428,0298;0,0665655
1428,9940;0,0655676
1429,9583;0,0645022
1430,9225;0,0634305
1431,8867;0,0623926
1432,8510;0,0613537
1433,8152;0,0602303
1434,7794;0,0589658
1435,7437;0,057602
1436,7079;0,0563297
1437,6721;0,0554246
1438,6364;0,0550226
1439,6006;0,0550071
1440,5648;0,0551542
1441,5291;0,0553151
1442,4933;0,0554684
1443,4575;0,0556686
1444,4218;0,055968
1445,3860;0,056371
1446,3502;0,0568398
1447,3145;0,0573359
1448,2787;0,0578552
1449,2429;0,0584211
1450,2072;0,0590293
1451,1714;0,0596045
1452,1356;0,0600283
1453,0999;0,0602231
1454,0641;0,0602232
1455,0283;0,0601436
1455,9926;0,0599791
1456,9568;0,0595013
1457,9210;0,0587623
1458,8853;0,058266
1459,8495;0,0581947
1460,8137;0,0582616
1461,7780;0,0581354
1462,7422;0,0576489
1463,7064;0,0567856
1464,6707;0,0556458
1465,6349;0,0544317
1466,5991;0,0533315
1467,5634;0,0523545
1468,5276;0,051354
1469,4918;0,0501824
1470,4561;0,048777
1471,4203;0,0471212
1472,3845;0,0451924
1473,3488;0,043072
1474,3130;0,041051
1475,2772;0,0394046
1476,2415;0,0381691
1477,2057;0,0372276
1478,1699;0,0364615
1479,1342;0,0358009
1480,0984;0,0352134
1481,0626;0,0346928
1482,0269;0,0342589
1482,9911;0,0339502
1483,9553;0,0338047
1484,9196;0,0338485
1485,8838;0,0340984
1486,8480;0,0345398
1487,8123;0,0350519
1488,7765;0,0353933
1489,7407;0,0354288
1490,7050;0,0353293
1491,6692;0,0353468
1492,6334;0,0355599
1493,5977;0,0359332
1494,5619;0,0364647
1495,5261;0,0372159
1496,4904;0,038222
1497,4546;0,0394097
1498,4188;0,0406615
1499,3831;0,0418976
1500,3473;0,0430132
1501,3115;0,0438451
1502,2758;0,0442694
1503,2400;0,0443362
1504,2042;0,0443612
1505,1685;0,0448452
1506,1327;0,0459324
1507,0969;0,0468028
1508,0612;0,0467039
1509,0254;0,0460645
1509,9896;0,0454156
1510,9539;0,0448166
1511,9181;0,044191
1512,8823;0,0435298
1513,8466;0,0428719
1514,8108;0,0422235
1515,7750;0,0415232
1516,7393;0,0406912
1517,7035;0,0397051
1518,6677;0,0386231
1519,6320;0,0375493
1520,5962;0,0365876
1521,5604;0,0358173
1522,5247;0,0352722
1523,4889;0,0349126
1524,4531;0,0346383
1525,4174;0,0343609
1526,3816;0,0340663
1527,3458;0,0338035
1528,3101;0,0336193
1529,2743;0,0335205
1530,2385;0,0335065
1531,2028;0,0336097
1532,1670;0,033869
1533,1312;0,0342552
1534,0955;0,034652
1535,0597;0,0349184
1536,0239;0,0349583
1536,9882;0,0348019
1537,9524;0,0346913
1538,9166;0,0350247
1539,8809;0,0359156
1540,8451;0,0367386
1541,8093;0,0369057
1542,7736;0,0366764
1543,7378;0,0364297
1544,7020;0,0362575
1545,6663;0,0361662
1546,6305;0,0361779
1547,5947;0,0362957
1548,5590;0,0364778
1549,5232;0,036665
1550,4874;0,036825
1551,4517;0,036966
1552,4159;0,0370998
1553,3801;0,0371896
1554,3444;0,0371534
1555,3086;0,0369409
1556,2728;0,0366059
1557,2371;0,0362209
1558,2013;0,0356848
1559,1655;0,0351247
1560,1298;0,0352618
1561,0940;0,0363235
1562,0582;0,0378007
1563,0225;0,0391691
1563,9867;0,040187
1564,9509;0,0408451
1565,9152;0,0412665
1566,8794;0,0416258
1567,8436;0,0420744
1568,8079;0,0426783
1569,7721;0,043409
1570,7363;0,0441817
1571,7006;0,044896
1572,6648;0,0454928
1573,6290;0,0460203
1574,5933;0,0466284
1575,5575;0,0474343
1576,5217;0,0483927
1577,4860;0,049393
1578,4502;0,0503971
1579,4144;0,0513868
1580,3787;0,0523309
1581,3429;0,0532311
1582,3071;0,0541282
1583,2714;0,0550643
1584,2356;0,0560518
1585,1998;0,0570795
1586,1641;0,05813
1587,1283;0,059184
1588,0925;0,060214
1589,0568;0,0611815
1590,0210;0,0620426
1590,9852;0,0627581
1591,9495;0,0632935
1592,9137;0,0636164
1593,8779;0,0637028
1594,8422;0,0635558
1595,8064;0,0632216
1596,7706;0,0627804
1597,7349;0,0623155
1598,6991;0,0618835
1599,6633;0,0615036
1600,6276;0,0611661
1601,5918;0,0608524
1602,5560;0,060555
1603,5203;0,0602844
1604,4845;0,0600546
1605,4487;0,0598631
1606,4130;0,059686
1607,3772;0,0594942
1608,3414;0,0592822
1609,3057;0,0590816
1610,2699;0,0589347
1611,2341;0,0588408
1612,1984;0,0587448
1613,1626;0,0585913
1614,1268;0,0583884
1615,0911;0,0582121
1616,0553;0,058157
1617,0195;0,058307
1617,9838;0,0587021
1618,9480;0,0592629
1619,9122;0,059816
1620,8765;0,0602206
1621,8407;0,0604363
1622,8049;0,060502
1623,7692;0,0604902
1624,7334;0,060474
1625,6976;0,0604964
1626,6619;0,0605608
1627,6261;0,0606563
1628,5903;0,0607743
1629,5546;0,060889
1630,5188;0,0609371
1631,4830;0,060848
1632,4473;0,0606187
1633,4115;0,060356
1634,3757;0,0601938
1635,3400;0,0601212
1636,3042;0,0600372
1637,2684;0,0600039
1638,2327;0,0601229
1639,1969;0,060327
1640,1611;0,0604703
1641,1254;0,060456
1642,0896;0,0602727
1643,0538;0,059994
1644,0181;0,0597626
1644,9823;0,0597039
1645,9465;0,059777
1646,9108;0,0597864
1647,8750;0,0595947
1648,8392;0,0591409
1649,8035;0,0583496
1650,7677;0,0572019
1651,7319;0,0557931
1652,6962;0,0542571
1653,6604;0,0529023
1654,6246;0,0523129
1655,5889;0,0525704
1656,5531;0,0531171
1657,5173;0,0534278
1658,4816;0,0532932
1659,4458;0,0527504
1660,4100;0,0519436
1661,3743;0,0510213
1662,3385;0,050115
1663,3027;0,0493492
1664,2670;0,0487805
1665,2312;0,0483477
1666,1954;0,0479297
1667,1597;0,0474213
1668,1239;0,0467495
1669,0881;0,0458764
1670,0524;0,0448542
1671,0166;0,0438188
1671,9808;0,0428419
1672,9451;0,0418711
1673,9093;0,0408557
1674,8735;0,0398782
1675,8378;0,0391454
1676,8020;0,0388193
1677,7662;0,0388424
1678,7305;0,0389565
1679,6947;0,0388736
1680,6589;0,0384115
1681,6232;0,037511
1682,5874;0,0361796
1683,5516;0,0345367
1684,5159;0,0330105
1685,4801;0,0321056
1686,4443;0,0318403
1687,4086;0,0318242
1688,3728;0,0316864
1689,3370;0,0312665
1690,3013;0,0305916
1691,2655;0,029787
1692,2297;0,0290019
1693,1940;0,0283702
1694,1582;0,0279803
1695,1224;0,0278237
1696,0867;0,0277443
1697,0509;0,0274769
1698,0151;0,0268324
1698,9794;0,0259176
1699,9436;0,0251385
1700,9078;0,024887
1701,8721;0,0252244
1702,8363;0,0258929
1703,8005;0,0265522
1704,7648;0,0269751
1705,7290;0,0271215
1706,6932;0,0271191
1707,6575;0,0271631
1708,6217;0,0273844
1709,5859;0,02779
1710,5502;0,0283088
1711,5144;0,0288654
1712,4786;0,0294204
1713,4429;0,029966
1714,4071;0,0304845
1715,3713;0,0308748
1716,3356;0,0309479
1717,2998;0,0306724
1718,2640;0,0303849
1719,2283;0,0304461
1720,1925;0,0308693
1721,1567;0,0314349
1722,1210;0,0319338
1723,0852;0,0322742
1724,0494;0,0324844
1725,0137;0,0326707
1725,9779;0,0329519
1726,9421;0,0333889
1727,9064;0,0339453
1728,8706;0,0345036
1729,8348;0,03492
1730,7991;0,0350768
1731,7633;0,0349062
1732,7275;0,0344122
1733,6918;0,0337476
1734,6560;0,0332133
1735,6202;0,0329968
1736,5845;0,0329915
1737,5487;0,0329572
1738,5129;0,0327397
1739,4772;0,032345
1740,4414;0,0318893
1741,4056;0,0314951
1742,3699;0,0312009
1743,3341;0,0309498
1744,2983;0,0306502
1745,2626;0,0302364
1746,2268;0,0296744
1747,1910;0,0289168
1748,1553;0,0278685
1749,1195;0,0264519
1750,0837;0,024767
1751,0480;0,0231164
1752,0122;0,0217779
1752,9764;0,0208078
1753,9407;0,0200833
1754,9049;0,0194485
1755,8691;0,0188089
1756,8334;0,0181463
1757,7976;0,0174825
1758,7618;0,0168294
1759,7261;0,0161683
1760,6903;0,0154744
1761,6545;0,0147624
1762,6188;0,0140999
1763,5830;0,0135611
1764,5472;0,0131678
1765,5115;0,0128821
1766,4757;0,012647
1767,4399;0,0124243
1768,4042;0,0122034
1769,3684;0,0119817
1770,3326;0,0117379
1771,2969;0,0114337
1772,2611;0,0110695
1773,2253;0,0107316
1774,1896;0,010525
1775,1538;0,0104648
1776,1180;0,0104748
1777,0823;0,0104679
1778,0465;0,0104014
1779,0107;0,0102767
1779,9750;0,010111
1780,9392;0,00991708
1781,9034;0,0097023
1782,8677;0,00948143
1783,8319;0,00928654
1784,7961;0,00916031
1785,7604;0,00912995
1786,7246;0,00918304
1787,6888;0,0092739
1788,6531;0,0093597
1789,6173;0,0094297
1790,5815;0,0094927
1791,5458;0,00953985
1792,5100;0,00955332
1793,4742;0,00955323
1794,4385;0,00957227
1795,4027;0,00959465
1796,3669;0,00957329
1797,3312;0,0094877
1798,2954;0,00936222
1799,2596;0,00923519
1800,2239;0,00912042
1801,1881;0,00900371
1802,1523;0,0088714
1803,1166;0,00873111
1804,0808;0,00860833
1805,0450;0,00853253
1806,0093;0,00852431
1806,9735;0,00858464
1807,9377;0,00868743
1808,9020;0,00878063
1809,8662;0,00880445
1810,8304;0,00872456
1811,7947;0,00855418
1812,7589;0,00834044
1813,7231;0,00813144
1814,6874;0,00795795
1815,6516;0,00783511
1816,6158;0,00776725
1817,5801;0,00774906
1818,5443;0,00776867
1819,5085;0,00781372
1820,4728;0,007876
1821,4370;0,00795254
1822,4012;0,00804242
1823,3655;0,00813986
1824,3297;0,00823174
1825,2939;0,00830456
1826,2582;0,00835019
1827,2224;0,00836038
1828,1866;0,00831843
1829,1509;0,00820551
1830,1151;0,00802924
1831,0793;0,00784268
1832,0436;0,007711
1833,0078;0,00765897
1833,9720;0,00766581
1834,9363;0,00769901
1835,9005;0,00773713
1836,8647;0,00776972
1837,8290;0,00778903
1838,7932;0,00778497
1839,7574;0,00774822
1840,7217;0,00768577
1841,6859;0,00763282
1842,6501;0,00763282
1843,6144;0,00769285
1844,5786;0,0077726
1845,5428;0,00782692
1846,5071;0,00783143
1847,4713;0,00776889
1848,4355;0,00763016
1849,3998;0,00743221
1850,3640;0,00721983
1851,3282;0,00704423
1852,2925;0,00693682
1853,2567;0,00690043
1854,2209;0,00692005
1855,1852;0,00697895
1856,1494;0,0070643
1857,1136;0,00716308
1858,0779;0,00725504
1859,0421;0,00731634
1860,0063;0,0073339
1860,9706;0,00731876
1861,9348;0,00730448
1862,8990;0,00733011
1863,8633;0,00742187
1864,8275;0,00758566
1865,7917;0,0078033
1866,7560;0,00802026
1867,7202;0,00814403
1868,6844;0,00809654
1869,6487;0,00789019
1870,6129;0,00761616
1871,5771;0,00735303
1872,5414;0,00712188
1873,5056;0,00691476
1874,4698;0,00673263
1875,4341;0,0065924
1876,3983;0,00651198
1877,3625;0,00649215
1878,3268;0,00651478
1879,2910;0,00655431
1880,2552;0,00659389
1881,2195;0,00663238
1882,1837;0,00667849
1883,1479;0,00673833
1884,1122;0,00680698
1885,0764;0,00687027
1886,0406;0,00691333
1887,0049;0,00692724
1887,9691;0,00690935
1888,9333;0,0068629
1889,8976;0,00680072
1890,8618;0,00674606
1891,8260;0,0067222
1892,7903;0,00673812
1893,7545;0,00678144
1894,7188;0,00682101
1895,6830;0,00682005
1896,6472;0,00675775
1897,6115;0,00664534
1898,5757;0,00652085
1899,5399;0,00642585
1900,5042;0,00638243
1901,4684;0,00638434
1902,4326;0,00640613
1903,3969;0,00642402
1904,3611;0,00643316
1905,3253;0,00644788
1906,2896;0,00648583
1907,2538;0,0065491
1908,2180;0,00661647
1909,1823;0,00665444
1910,1465;0,00664039
1911,1107;0,00657769
1912,0750;0,0064889
1913,0392;0,00639855
1914,0034;0,00632463
1914,9677;0,00628031
1915,9319;0,00627422
1916,8961;0,00630546
1917,8604;0,00636198
1918,8246;0,00642689
1919,7888;0,00648488
1920,7531;0,00652351
1921,7173;0,00653263
1922,6815;0,00650334
1923,6458;0,00642709
1924,6100;0,00629792
1925,5742;0,00611889
1926,5385;0,00590911
1927,5027;0,00570735
1928,4669;0,00556613
1929,4312;0,00553034
1930,3954;0,00560876
1931,3596;0,00575995
1932,3239;0,00590743
1933,2881;0,00598001
1934,2523;0,00595036
1935,2166;0,00584642
1936,1808;0,00572969
1937,1450;0,00565682
1938,1093;0,0056524
1939,0735;0,00570763
1940,0377;0,00579527
1941,0020;0,00588223
1941,9662;0,00593466
1942,9304;0,00592376
1943,8947;0,00583635
1944,8589;0,00568183
1945,8231;0,00548919
1946,7874;0,00529656
1947,7516;0,00513658
1948,7158;0,00502163
1949,6801;0,0049383
1950,6443;0,00485879
1951,6085;0,00476259
1952,5728;0,00464977
1953,5370;0,00453338
1954,5012;0,00441876
1955,4655;0,0042907
1956,4297;0,00412391
1957,3939;0,00390989
1958,3582;0,00367674
1959,3224;0,00348132
1960,2866;0,00337528
1961,2509;0,0033702
1962,2151;0,00343033
1963,1793;0,00349647
1964,1436;0,00351666
1965,1078;0,00345858
1966,0720;0,00330296
1967,0363;0,00303774
1968,0005;0,00266901
1968,9647;0,00223923
1969,9290;0,00182804
1970,8932;0,00152571
1971,8574;0,00139399
1972,8217;0,00143962
1973,7859;0,00161847
1974,7501;0,00186839
1975,7144;0,00215156
1976,6786;0,00246736
1977,6428;0,00282497
1978,6071;0,00320474
1979,5713;0,0035517
1980,5355;0,00380797
1981,4998;0,00395063
1982,4640;0,00400416
1983,4282;0,00402286
1984,3925;0,00405954
1985,3567;0,00414082
1986,3209;0,00426284
1987,2852;0,00440603
1988,2494;0,00455397
1989,2136;0,00470095
1990,1779;0,00484514
1991,1421;0,00497699
1992,1063;0,00507552
1993,0706;0,00511543
1994,0348;0,00507718
1994,9990;0,00495269
1995,9633;0,00474805
1996,9275;0,0044864
1997,8917;0,00420873
1998,8560;0,00396611
1999,8202;0,00380098
2000,7844;0,0037259
2001,7487;0,00371511
2002,7129;0,00371868
2003,6771;0,0036934
2004,6414;0,00363314
2005,6056;0,00357731
2006,5698;0,00358771
2007,5341;0,00370232
2008,4983;0,00389901
2009,4625;0,00409905
2010,4268;0,004209
2011,3910;0,00417205
2012,3552;0,0039972
2013,3195;0,00375512
2014,2837;0,00354659
2015,2479;0,0034586
2016,2122;0,00352721
2017,1764;0,0037258
2018,1406;0,00398651
2019,1049;0,00423964
2020,0691;0,00444283
2021,0333;0,00458259
2021,9976;0,00465437
2022,9618;0,00464247
2023,9260;0,0045195
2024,8903;0,00426926
2025,8545;0,00391653
2026,8187;0,00353757
2027,7830;0,00323661
2028,7472;0,00309929
2029,7114;0,00315221
2030,6757;0,00335544
2031,6399;0,00363261
2032,6041;0,00391666
2033,5684;0,00418047
2034,5326;0,00443295
2035,4968;0,00469145
2036,4611;0,00495648
2037,4253;0,00521164
2038,3895;0,00543886
2039,3538;0,00563052
2040,3180;0,00578539
2041,2822;0,00589501
2042,2465;0,00594008
2043,2107;0,00590941
2044,1749;0,00583093
2045,1392;0,00578545
2046,1034;0,00587858
2047,0676;0,00617481
2048,0320;0,00663717
2048,9961;0,00713024
2049,9604;0,00749704
2050,9246;0,0076515
2051,8889;0,00761958
2052,8530;0,00751182
2053,8174;0,00745467
2054,7815;0,00751977
2055,7458;0,00769077
2056,7100;0,00788322
2057,6743;0,00800359
2058,6384;0,00800566
2059,6028;0,00790929
2060,5669;0,0077777
2061,5313;0,00767632
2062,4954;0,00764118
2063,4597;0,00767151
2064,4238;0,007743
2065,3882;0,00782749
2066,3523;0,00790542
2067,3167;0,0079672
2068,2808;0,00800863
2069,2451;0,00802811
2070,2092;0,00802832
2071,1736;0,00801996
2072,1377;0,00802068
2073,1021;0,00804772
2074,0662;0,00810476
2075,0305;0,00817263
2075,9946;0,00821298
2076,9590;0,00818763
2077,9231;0,00808364
2078,8875;0,00792748
2079,8516;0,00777599
2080,8159;0,0076872
2081,7800;0,00768976
2082,7444;0,00777141
2083,7085;0,00789355
2084,6729;0,00801911
2085,6370;0,00813311
2086,6013;0,00824056
2087,5654;0,00834789
2088,5298;0,00844626
2089,4939;0,00851343
2090,4583;0,00853301
2091,4224;0,00851323
2092,3867;0,0084866
2093,3508;0,00848754
2094,3152;0,00852449
2095,2793;0,00857022
2096,2437;0,00858158
2097,2078;0,008535
2098,1721;0,00844892
2099,1362;0,00837372
2100,1006;0,00835909
2101,0647;0,00841477
2102,0291;0,00851482
2102,9932;0,00860954
2103,9575;0,00865872
2104,9216;0,00865179
2105,8860;0,00860615
2106,8501;0,00854978
2107,8145;0,00850386
2108,7786;0,00847665
2109,7429;0,00846819
2110,7070;0,00847714
2111,6714;0,00850198
2112,6355;0,00853677
2113,5999;0,008568
2114,5640;0,00857841
2115,5283;0,00855707
2116,4924;0,00850873
2117,4568;0,00845493
2118,4209;0,00842445
2119,3853;0,00843764
2120,3494;0,00849373
2121,3137;0,00856887
2122,2778;0,00862695
2123,2422;0,00863775
2124,2063;0,00859232
2125,1707;0,00850686
2126,1348;0,00841242
2127,0991;0,00833622
2128,0632;0,00828561
2129,0276;0,00824506
2129,9917;0,00818886
2130,9561;0,00810164
2131,9202;0,00799313
2132,8845;0,00789553
2133,8486;0,00784259
2134,8130;0,00784361
2135,7771;0,00787313
2136,7415;0,00788754
2137,7056;0,00785792
2138,6699;0,00779281
2139,6340;0,00773207
2140,5984;0,00771606
2141,5625;0,00775307
2142,5269;0,00780903
2143,4910;0,00782744
2144,4553;0,00776524
2145,4194;0,00761966
2146,3838;0,00742844
2147,3479;0,00724551
2148,3123;0,0071108
2149,2764;0,00703346
2150,2407;0,00699458
2151,2048;0,00696113
2152,1692;0,00689997
2153,1333;0,00678758
2154,0977;0,00661878
2155,0618;0,00641787
2156,0261;0,00624768
2156,9902;0,0062007
2157,9546;0,00635635
2158,9187;0,0067178
2159,8831;0,00718459
2160,8472;0,00760174
2161,8115;0,00784661
2162,7756;0,00788258
2163,7400;0,00775686
2164,7041;0,00756282
2165,6685;0,0073915
2166,6326;0,0072916
2167,5969;0,00725464
2168,5610;0,00723204
2169,5254;0,00717405
2170,4895;0,00706871
2171,4539;0,00695939
2172,4180;0,00692919
2173,3823;0,00705573
2174,3464;0,00735801
2175,3108;0,00776831
2176,2749;0,00815279
2177,2393;0,00837355
2178,2034;0,00835527
2179,1677;0,00811853
2180,1318;0,00776499
2181,0962;0,00742637
2182,0603;0,00720524
2183,0247;0,00713841
2183,9888;0,0071996
2184,9531;0,0073322
2185,9172;0,00748563
2186,8816;0,00763364
2187,8457;0,00777155
2188,8101;0,00790272
2189,7742;0,00802669
2190,7385;0,00813464
2191,7026;0,00821192
2192,6670;0,00824428
2193,6311;0,00822476
2194,5955;0,00815901
2195,5596;0,00806652
2196,5239;0,00797583
2197,4880;0,00791421
2198,4524;0,00789615
2199,4165;0,00791739
2200,3809;0,00795913
2201,3450;0,00800048
2202,3093;0,00803071
2203,2734;0,00805232
2204,2378;0,00807222
2205,2019;0,0080883
2206,1663;0,00808367
2207,1304;0,00803616
2208,0947;0,00793837
2209,0588;0,0078136
2210,0232;0,00771255
2210,9873;0,00768847
2211,9517;0,00776446
2212,9158;0,00791472
2213,8801;0,00807382
2214,8442;0,00816972
2215,8086;0,00816023
2216,7727;0,00805132
2217,7371;0,00788878
2218,7012;0,00773178
2219,6655;0,00762598
2220,6296;0,00758969
2221,5940;0,00761555
2222,5581;0,00768133
2223,5225;0,00776177
2224,4866;0,00783688
2225,4509;0,0078955
2226,4150;0,00793435
2227,3794;0,00795364
2228,3435;0,00795525
2229,3079;0,00794276
2230,2720;0,00792628
2231,2363;0,00792605
2232,2004;0,00796674
2233,1648;0,00806126
2234,1289;0,00819401
2235,0933;0,00831957
2236,0574;0,00838442
2237,0217;0,00836083
2237,9858;0,00826891
2238,9502;0,00816784
2239,9143;0,00811966
2240,8787;0,00815072
2241,8428;0,00823882
2242,8071;0,0083341
2243,7712;0,00839591
2244,7356;0,00841619
2245,6997;0,00841393
2246,6641;0,00841037
2247,6282;0,00840971
2248,5925;0,00840233
2249,5566;0,00838509
2250,5210;0,0083773
2251,4851;0,0084152
2252,4495;0,00852731
2253,4136;0,00871039
2254,3779;0,00892548
2255,3420;0,0091178
2256,3064;0,00924516
2257,2705;0,00929497
2258,2349;0,00928136
2259,1990;0,00923044
2260,1633;0,00916669
2261,1274;0,00910788
2262,0918;0,00906558
2263,0559;0,00904492
2264,0203;0,00904209
2264,9844;0,00904334
2265,9487;0,00903097
2266,9128;0,00899495
2267,8772;0,00894287
2268,8413;0,00889956
2269,8057;0,00889449
2270,7698;0,00894388
2271,7341;0,0090382
2272,6982;0,00914314
2273,6626;0,00921413
2274,6267;0,00921723
2275,5911;0,00914587
2276,5552;0,00902526
2277,5195;0,00890239
2278,4836;0,00882659
2279,4480;0,0088302
2280,4121;0,00891842
2281,3765;0,00907248
2282,3406;0,00926283
2283,3049;0,00946406
2284,2690;0,00966363
2285,2334;0,00986145
2286,1975;0,0100634
2287,1619;0,0102741
2288,1260;0,0104942
2289,0903;0,0107218
2290,0544;0,0109553
2291,0188;0,0111958
2291,9829;0,0114454
2292,9473;0,0117064
2293,9114;0,0119789
2294,8757;0,0122609
2295,8398;0,0125471
2296,8042;0,0128278
2297,7683;0,013088
2298,7327;0,0133097
2299,6968;0,0134794
2300,6611;0,013597
2301,6252;0,0136832
2302,5896;0,0137762
2303,5537;0,0139201
2304,5181;0,0141472
2305,4822;0,0144601
2306,4465;0,0148242
2307,4106;0,0151738
2308,3750;0,0154324
2309,3391;0,0155399
2310,3035;0,0154765
2311,2676;0,0152701
2312,2319;0,0149857
2313,1960;0,014698
2314,1604;0,0144634
2315,1245;0,0143049
2316,0889;0,0142166
2317,0530;0,0141799
2318,0173;0,0141799
2318,9814;0,0142099
2319,9458;0,0142664
2320,9099;0,014343
2321,8743;0,0144295
2322,8384;0,0145137
2323,8027;0,0145781
2324,7668;0,0145939
2325,7312;0,0145256
2326,6953;0,0143476
2327,6597;0,0140605
2328,6238;0,0136954
2329,5881;0,013305
2330,5522;0,0129466
2331,5166;0,0126618
2332,4807;0,0124602
2333,4451;0,0123199
2334,4092;0,0122074
2335,3735;0,0121064
2336,3376;0,0120335
2337,3020;0,0120303
2338,2661;0,0121364
2339,2305;0,0123597
2340,1946;0,0126568
2341,1589;0,0129314
2342,1230;0,0130678
2343,0874;0,0130292
2344,0515;0,0129813
2345,0159;0,0132314
2345,9800;0,0139301
2346,9443;0,0148941
2347,9084;0,0157489
2348,8728;0,0161757
2349,8369;0,0160598
2350,8013;0,0155132
2351,7654;0,0148035
2352,7297;0,0142106
2353,6938;0,0138833
2354,6582;0,0138064
2355,6223;0,0138897
2356,5867;0,0140371
2357,5508;0,0141418
2358,5151;0,0140972
2359,4792;0,0138677
2360,4436;0,0135371
2361,4077;0,0132489
2362,3721;0,0130883
2363,3362;0,0130265
2364,3005;0,0129634
2365,2646;0,0128099
2366,2290;0,0125369
2367,1931;0,01217
2368,1575;0,0117608
2369,1216;0,0113648
2370,0859;0,0110296
2371,0500;0,0107891
2372,0144;0,0106591
2372,9785;0,010639
2373,9429;0,0107185
2374,9070;0,0108837
2375,8713;0,0111183
2376,8354;0,0114008
2377,7998;0,0117005
2378,7639;0,0119764
2379,7283;0,0121811
2380,6924;0,0122693
2381,6567;0,012209
2382,6208;0,0119921
2383,5852;0,0116388
2384,5493;0,0111955
2385,5137;0,0107244
2386,4778;0,0102872
2387,4421;0,00992955
2388,4063;0,0096718
2389,3706;0,00950881
2390,3347;0,0094191
2391,2991;0,00937781
2392,2632;0,00936692
2393,2275;0,00937846
2394,1917;0,00941039
2395,1560;0,00945953
2396,1201;0,00951676
2397,0845;0,00956781
2398,0486;0,0096002
2399,0129;0,00960719
2399,9771;0,00959156
2400,9414;0,00956412
2401,9055;0,00953697
2402,8699;0,00951911
2403,8340;0,00951418
2404,7983;0,00952223
2405,7625;0,00954235
2406,7268;0,00957335
2407,6909;0,00961308
2408,6553;0,00965668
2409,6194;0,00969615
2410,5837;0,00972399
2411,5479;0,00973684
2412,5122;0,00973735
2413,4763;0,00973248
2414,4407;0,00972972
2415,4048;0,00973398
2416,3691;0,00974728
2417,3333;0,00977053
2418,2976;0,0098046
2419,2617;0,00984905
2420,2261;0,00989937
2421,1902;0,00994574
2422,1545;0,00997739
2423,1187;0,00998888
2424,0830;0,00998501
2425,0471;0,00997949
2426,0115;0,00998758
2426,9756;0,0100175
2427,9399;0,010067
2428,9041;0,0101265
2429,8684;0,0101871
2430,8325;0,0102451
2431,7969;0,010301
2432,7610;0,0103546
2433,7253;0,0104005
2434,6895;0,0104297
2435,6538;0,0104358
2436,6179;0,0104208
2437,5823;0,0103961
2438,5464;0,0103772
2439,5107;0,0103763
2440,4749;0,0103985
2441,4392;0,0104419
2442,4033;0,0105015
2443,3677;0,010572
2444,3318;0,0106473
2445,2961;0,0107198
2446,2603;0,0107803
2447,2246;0,0108208
2448,1887;0,0108389
2449,1531;0,0108397
2450,1172;0,0108342
2451,0815;0,0108344
2452,0457;0,0108489
2453,0100;0,0108804
2453,9741;0,0109263
2454,9385;0,0109796
2455,9026;0,0110323
2456,8669;0,0110764
2457,8311;0,0111066
2458,7954;0,0111218
2459,7595;0,0111253
2460,7239;0,0111234
2461,6880;0,0111219
2462,6523;0,0111235
2463,6165;0,0111273
2464,5808;0,011131
2465,5449;0,0111341
2466,5093;0,01114
2467,4734;0,0111543
2468,4377;0,0111809
2469,4019;0,0112187
2470,3662;0,0112607
2471,3303;0,0112965
2472,2947;0,0113182
2473,2588;0,0113244
2474,2231;0,011321
2475,1873;0,0113185
2476,1516;0,0113256
2477,1157;0,0113452
2478,0801;0,0113737
2479,0442;0,0114038
2480,0085;0,0114298
2480,9727;0,0114513
2481,9370;0,011473
2482,9011;0,0115018
2483,8655;0,0115419
2484,8296;0,0115925
2485,7939;0,0116481
2486,7581;0,0117011
2487,7224;0,0117462
2488,6865;0,0117819
2489,6509;0,0118107
2490,6150;0,0118364
2491,5793;0,0118609
2492,5435;0,011882
2493,5078;0,011894
2494,4719;0,0118907
2495,4363;0,0118704
2496,4004;0,0118389
2497,3647;0,0118096
2498,3289;0,0117986
2499,2932;0,0118168
2500,2573;0,0118641
2501,2217;0,0119278
2502,1858;0,0119874
2503,1501;0,0120241
2504,1143;0,0120298
2505,0786;0,0120118
2506,0427;0,0119891
2507,0071;0,0119835
2507,9712;0,0120093
2508,9355;0,012066
2509,8997;0,0121381
2510,8640;0,0122027
2511,8281;0,0122403
2512,7925;0,0122434
2513,7566;0,01222
2514,7209;0,0121885
2515,6851;0,0121685
2516,6494;0,0121712
2517,6135;0,0121957
2518,5779;0,0122315
2519,5420;0,0122658
2520,5063;0,0122911
2521,4705;0,0123069
2522,4348;0,0123178
2523,3989;0,0123283
2524,3633;0,0123392
2525,3274;0,0123482
2526,2917;0,0123529
2527,2559;0,0123529
2528,2202;0,0123501
2529,1843;0,0123471
2530,1487;0,0123453
2531,1128;0,0123458
2532,0771;0,0123517
2533,0413;0,0123689
2534,0056;0,0124035
2534,9697;0,0124571
2535,9341;0,0125232
2536,8982;0,0125883
2537,8625;0,0126374
2538,8267;0,0126603
2539,7910;0,0126556
2540,7551;0,0126291
2541,7195;0,0125903
2542,6836;0,0125483
2543,6479;0,0125115
2544,6121;0,0124881
2545,5764;0,0124856
2546,5405;0,0125087
2547,5049;0,0125555
2548,4690;0,0126169
2549,4333;0,0126788
2550,3975;0,012728
2551,3618;0,0127568
2552,3259;0,0127656
2553,2903;0,0127607
2554,2544;0,0127501
2555,2188;0,0127405
2556,1829;0,0127353
2557,1472;0,0127355
2558,1113;0,0127409
2559,0757;0,0127517
2560,0398;0,0127681
2561,0042;0,0127901
2561,9683;0,0128158
2562,9326;0,0128407
2563,8967;0,0128588
2564,8611;0,012865
2565,8252;0,0128589
2566,7896;0,0128459
2567,7537;0,0128364
2568,7180;0,0128411
2569,6821;0,0128655
2570,6465;0,0129077
2571,6106;0,0129592
2572,5750;0,0130095
2573,5391;0,0130502
2574,5034;0,0130781
2575,4675;0,0130941
2576,4319;0,0131014
2577,3960;0,0131034
2578,3604;0,0131039
2579,3245;0,0131069
2580,2888;0,0131163
2581,2529;0,013134
2582,2173;0,013159
2583,1814;0,013187
2584,1458;0,0132127
2585,1099;0,0132329
2586,0742;0,0132488
2587,0383;0,0132652
2588,0027;0,0132874
2588,9668;0,0133178
2589,9312;0,0133541
2590,8953;0,0133911
2591,8596;0,0134236
2592,8237;0,0134494
2593,7881;0,0134691
2594,7522;0,0134851
2595,7166;0,0134995
2596,6807;0,013514
2597,6450;0,0135311
2598,6091;0,0135547
2599,5735;0,0135895
2600,5376;0,0136382
2601,5020;0,0136982
2602,4661;0,0137614
2603,4304;0,0138174
2604,3945;0,0138589
2605,3589;0,0138855
2606,3230;0,0139035
2607,2874;0,0139221
2608,2515;0,0139491
2609,2158;0,0139872
2610,1799;0,0140345
2611,1443;0,0140858
2612,1084;0,0141352
2613,0728;0,0141771
2614,0369;0,0142082
2615,0012;0,0142282
2615,9653;0,0142415
2616,9297;0,0142551
2617,8938;0,0142761
2618,8582;0,0143083
2619,8223;0,0143502
2620,7866;0,0143968
2621,7507;0,0144428
2622,7151;0,0144854
2623,6792;0,0145244
2624,6436;0,0145613
2625,6077;0,0145975
2626,5720;0,0146343
2627,5361;0,0146739
2628,5005;0,0147189
2629,4646;0,0147703
2630,4290;0,0148261
2631,3931;0,0148801
2632,3574;0,0149256
2633,3215;0,0149594
2634,2859;0,0149841
2635,2500;0,0150074
2636,2144;0,0150368
2637,1785;0,0150764
2638,1428;0,0151244
2639,1069;0,0151763
2640,0713;0,0152272
2641,0354;0,0152749
2641,9998;0,0153194
2642,9639;0,015361
2643,9282;0,0153997
2644,8923;0,0154353
2645,8567;0,0154687
2646,8208;0,0155026
2647,7852;0,0155406
2648,7493;0,0155846
2649,7136;0,0156329
2650,6777;0,0156808
2651,6421;0,0157224
2652,6062;0,0157541
2653,5706;0,0157772
2654,5347;0,0157968
2655,4990;0,0158193
2656,4631;0,0158488
2657,4275;0,0158849
2658,3916;0,0159241
2659,3560;0,0159627
2660,3201;0,0159994
2661,2844;0,0160354
2662,2485;0,0160728
2663,2129;0,0161118
2664,1770;0,0161497
2665,1414;0,0161828
2666,1055;0,0162093
2667,0698;0,0162315
2668,0339;0,0162553
2668,9983;0,0162869
2669,9624;0,0163285
2670,9268;0,0163773
2671,8909;0,0164271
2672,8552;0,0164722
2673,8193;0,0165111
2674,7837;0,0165463
2675,7478;0,0165818
2676,7122;0,0166194
2677,6763;0,0166576
2678,6406;0,0166925
2679,6047;0,0167222
2680,5691;0,0167492
2681,5332;0,0167798
2682,4976;0,0168203
2683,4617;0,0168729
2684,4260;0,0169333
2685,3901;0,0169931
2686,3545;0,017044
2687,3186;0,0170822
2688,2830;0,01711
2689,2471;0,0171339
2690,2114;0,0171615
2691,1755;0,0171983
2692,1399;0,0172464
2693,1040;0,017304
2694,0684;0,0173663
2695,0325;0,0174266
2695,9968;0,0174783
2696,9609;0,0175174
2697,9253;0,0175443
2698,8894;0,0175646
2699,8538;0,0175874
2700,8179;0,0176213
2701,7822;0,0176719
2702,7463;0,0177392
2703,7107;0,0178177
2704,6748;0,0178994
2705,6392;0,017976
2706,6033;0,0180419
2707,5676;0,0180958
2708,5317;0,01814
2709,4961;0,0181786
2710,4602;0,0182153
2711,4246;0,0182521
2712,3887;0,0182895
2713,3530;0,0183279
2714,3171;0,0183687
2715,2815;0,0184142
2716,2456;0,0184659
2717,2100;0,0185236
2718,1741;0,0185843
2719,1384;0,0186438
2720,1025;0,0186976
2721,0669;0,0187426
2722,0310;0,0187773
2722,9954;0,0188024
2723,9595;0,0188206
2724,9238;0,0188368
2725,8879;0,0188577
2726,8523;0,0188894
2727,8164;0,0189357
2728,7808;0,0189958
2729,7449;0,0190646
2730,7092;0,0191343
2731,6733;0,0191972
2732,6377;0,0192485
2733,6018;0,0192876
2734,5662;0,0193178
2735,5303;0,0193446
2736,4946;0,0193728
2737,4587;0,0194043
2738,4231;0,0194376
2739,3872;0,0194689
2740,3516;0,0194953
2741,3157;0,0195171
2742,2800;0,0195376
2743,2441;0,0195615
2744,2085;0,0195909
2745,1726;0,019624
2746,1370;0,0196561
2747,1011;0,019684
2748,0654;0,0197083
2749,0295;0,0197345
2749,9939;0,019769
2750,9580;0,0198155
2751,9224;0,0198715
2752,8865;0,0199301
2753,8508;0,0199837
2754,8149;0,0200285
2755,7793;0,0200661
2756,7434;0,0201013
2757,7078;0,0201388
2758,6719;0,0201799
2759,6362;0,0202232
2760,6003;0,0202661
2761,5647;0,0203078
2762,5288;0,0203502
2763,4932;0,0203967
2764,4573;0,0204494
2765,4216;0,0205083
2766,3857;0,0205714
2767,3501;0,0206361
2768,3142;0,0207006
2769,2786;0,020764
2770,2427;0,0208259
2771,2070;0,0208856
2772,1711;0,0209425
2773,1355;0,0209972
2774,0996;0,0210514
2775,0640;0,0211066
2776,0281;0,0211636
2776,9924;0,0212214
2777,9565;0,0212785
2778,9209;0,0213351
2779,8850;0,021394
2780,8494;0,02146
2781,8135;0,0215376
2782,7778;0,0216272
2783,7419;0,0217246
2784,7063;0,0218215
2785,6704;0,0219094
2786,6348;0,0219835
2787,5989;0,0220443
2788,5632;0,0220986
2789,5273;0,0221563
2790,4917;0,0222265
2791,4558;0,0223143
2792,4202;0,0224187
2793,3843;0,0225332
2794,3486;0,0226498
2795,3127;0,022762
2796,2771;0,0228678
2797,2412;0,0229698
2798,2056;0,0230723
2799,1697;0,0231793
2800,1340;0,0232923
2801,0981;0,0234113
2802,0625;0,023536
2803,0266;0,0236662
2803,9910;0,0238011
2804,9551;0,0239378
2805,9194;0,0240713
2806,8835;0,0241967
2807,8479;0,0243117
2808,8120;0,02442
2809,7764;0,0245303
2810,7405;0,0246528
2811,7048;0,0247953
2812,6689;0,0249591
2813,6333;0,0251395
2814,5974;0,0253275
2815,5618;0,0255143
2816,5259;0,0256941
2817,4902;0,0258667
2818,4543;0,0260369
2819,4187;0,0262125
2820,3828;0,0264005
2821,3472;0,026604
2822,3113;0,0268208
2823,2756;0,0270457
2824,2397;0,0272736
2825,2041;0,0275033
2826,1682;0,0277372
2827,1326;0,02798
2828,0967;0,0282355
2829,0610;0,0285049
2830,0251;0,028788
2830,9895;0,0290847
2831,9536;0,0293955
2832,9180;0,0297206
2833,8821;0,0300583
2834,8464;0,0304052
2835,8105;0,0307587
2836,7749;0,0311202
2837,7390;0,0314965
2838,7034;0,0318982
2839,6675;0,032336
2840,6318;0,0328168
2841,5959;0,0333432
2842,5603;0,0339136
2843,5244;0,0345226
2844,4888;0,0351594
2845,4529;0,0358045
2846,4172;0,0364278
2847,3813;0,036992
2848,3457;0,0374608
2849,3098;0,0378089
2850,2742;0,0380314
2851,2383;0,0381446
2852,2026;0,0381796
2853,1667;0,0381717
2854,1311;0,0381489
2855,0952;0,0381267
2856,0596;0,0381093
2857,0237;0,038096
2857,9880;0,0380878
2858,9521;0,0380912
2859,9165;0,0381168
2860,8806;0,0381753
2861,8450;0,038273
2862,8091;0,0384109
2863,7734;0,0385852
2864,7375;0,0387894
2865,7019;0,0390154
2866,6660;0,0392531
2867,6304;0,0394895
2868,5945;0,0397102
2869,5588;0,0399032
2870,5229;0,0400632
2871,4873;0,0401941
2872,4514;0,0403077
2873,4158;0,0404182
2874,3799;0,0405354
2875,3442;0,0406604
2876,3083;0,0407866
2877,2727;0,0409053
2878,2368;0,0410115
2879,2012;0,0411076
2880,1653;0,0412019
2881,1296;0,0413038
2882,0938;0,0414181
2883,0581;0,0415437
2884,0222;0,0416741
2884,9866;0,0418021
2885,9507;0,0419231
2886,9150;0,0420373
2887,8792;0,042149
2888,8435;0,0422639
2889,8076;0,0423872
2890,7720;0,0425202
2891,7361;0,0426601
2892,7004;0,0428009
2893,6646;0,0429363
2894,6289;0,0430634
2895,5930;0,043184
2896,5574;0,0433038
2897,5215;0,0434282
2898,4858;0,0435578
2899,4500;0,0436873
2900,4143;0,043808
2901,3784;0,0439135
2902,3428;0,0440048
2903,3069;0,0440914
2904,2712;0,0441885
2905,2354;0,0443104
2906,1997;0,0444658
2907,1638;0,0446557
2908,1282;0,0448763
2909,0923;0,0451234
2910,0566;0,0453957
2911,0208;0,0456939
2911,9851;0,0460159
2912,9492;0,0463519
2913,9136;0,0466817
2914,8777;0,0469775
2915,8420;0,0472119
2916,8062;0,0473658
2917,7705;0,0474334
2918,7346;0,0474208
2919,6990;0,0473402
2920,6631;0,0472043
2921,6274;0,0470225
2922,5916;0,0468012
2923,5559;0,0465465
2924,5200;0,046265
2925,4844;0,0459634
2926,4485;0,0456478
2927,4128;0,0453233
2928,3770;0,0449945
2929,3413;0,0446674
2930,3054;0,0443477
2931,2698;0,0440389
2932,2339;0,0437389
2933,1982;0,0434404
2934,1624;0,0431337
2935,1267;0,0428124
2936,0908;0,0424767
2937,0552;0,0421336
2938,0193;0,0417916
2938,9836;0,0414546
2939,9478;0,0411185
2940,9121;0,0407732
2941,8762;0,0404083
2942,8406;0,0400204
2943,8047;0,0396163
2944,7690;0,0392111
2945,7332;0,0388221
2946,6975;0,0384617
2947,6616;0,0381337
2948,6260;0,0378334
2949,5901;0,0375517
2950,5544;0,0372788
2951,5186;0,0370081
2952,4829;0,0367366
2953,4470;0,0364642
2954,4114;0,0361926
2955,3755;0,035924
2956,3398;0,0356603
2957,3040;0,0354033
2958,2683;0,0351547
2959,2324;0,0349166
2960,1968;0,0346905
2961,1609;0,0344766
2962,1252;0,0342718
2963,0894;0,0340699
2964,0537;0,0338628
2965,0178;0,0336436
2965,9822;0,0334107
2966,9463;0,0331684
2967,9106;0,0329253
2968,8748;0,0326903
2969,8391;0,0324679
2970,8032;0,0322572
2971,7676;0,0320536
2972,7317;0,0318523
2973,6960;0,0316515
2974,6602;0,0314529
2975,6245;0,0312594
2976,5886;0,031073
2977,5530;0,0308926
2978,5171;0,0307152
2979,4814;0,0305385
2980,4456;0,0303639
2981,4099;0,030198
2982,3740;0,0300507
2983,3384;0,0299314
2984,3025;0,029843
2985,2668;0,0297795
2986,2310;0,0297281
2987,1953;0,029675
2988,1594;0,0296135
2989,1238;0,0295475
2990,0879;0,0294892
2991,0522;0,0294507
2992,0164;0,0294355
2992,9807;0,0294352
2993,9448;0,0294339
2994,9092;0,0294187
2995,8733;0,0293883
2996,8376;0,0293548
2997,8018;0,0293381
2998,7661;0,0293555
2999,7302;0,0294127
3000,6946;0,0295023
3001,6587;0,0296077
3002,6230;0,0297115
3003,5872;0,0298026
3004,5515;0,0298796
3005,5156;0,029949
3006,4800;0,0300201
3007,4441;0,0300996
3008,4084;0,0301883
3009,3726;0,0302813
3010,3369;0,0303704
3011,3010;0,0304481
3012,2654;0,0305112
3013,2295;0,0305619
3014,1938;0,0306061
3015,1580;0,0306513
3016,1223;0,0307038
3017,0864;0,030768
3018,0508;0,0308471
3019,0149;0,0309435
3019,9792;0,0310584
3020,9434;0,03119
3021,9077;0,0313325
3022,8718;0,0314772
3023,8362;0,0316167
3024,8003;0,0317494
3025,7646;0,0318822
3026,7288;0,0320271
3027,6931;0,0321934
3028,6572;0,0323808
3029,6216;0,0325766
3030,5857;0,0327605
3031,5500;0,0329143
3032,5142;0,0330316
3033,4785;0,0331199
3034,4426;0,0331959
3035,4070;0,0332771
3036,3711;0,0333742
3037,3354;0,0334901
3038,2996;0,0336216
3039,2639;0,0337637
3040,2280;0,0339127
3041,1924;0,0340673
3042,1565;0,0342288
3043,1208;0,0343998
3044,0850;0,0345827
3045,0493;0,0347773
3046,0134;0,0349788
3046,9778;0,0351785
3047,9419;0,0353672
3048,9063;0,035541
3049,8704;0,0357046
3050,8347;0,0358698
3051,7988;0,0360496
3052,7632;0,03625
3053,7273;0,036466
3054,6917;0,0366836
3055,6558;0,0368877
3056,6201;0,0370716
3057,5842;0,0372412
3058,5486;0,0374133
3059,5127;0,0376065
3060,4771;0,0378312
3061,4412;0,0380837
3062,4055;0,038346
3063,3696;0,0385925
3064,3340;0,0388001
3065,2981;0,0389584
3066,2625;0,039074
3067,2266;0,0391679
3068,1909;0,0392664
3069,1550;0,039391
3070,1194;0,0395509
3071,0835;0,0397423
3072,0479;0,0399535
3073,0120;0,0401721
3073,9763;0,0403908
3074,9404;0,0406089
3075,9048;0,0408287
3076,8689;0,0410509
3077,8333;0,0412706
3078,7974;0,0414791
3079,7617;0,0416678
3080,7258;0,041834
3081,6902;0,0419834
3082,6543;0,0421284
3083,6187;0,0422825
3084,5828;0,0424534
3085,5471;0,0426407
3086,5112;0,0428366
3087,4756;0,0430317
3088,4397;0,0432208
3089,4041;0,0434065
3090,3682;0,0435963
3091,3325;0,0437975
3092,2966;0,044012
3093,2610;0,0442352
3094,2251;0,0444601
3095,1895;0,0446827
3096,1536;0,0449042
3097,1179;0,0451288
3098,0820;0,0453576
3099,0464;0,0455847
3100,0105;0,0457987
3100,9749;0,0459903
3101,9390;0,046159
3102,9033;0,0463159
3103,8674;0,046478
3104,8318;0,0466592
3105,7959;0,0468641
3106,7603;0,0470878
3107,7244;0,0473219
3108,6887;0,0475608
3109,6528;0,0478058
3110,6172;0,0480618
3111,5813;0,0483315
3112,5457;0,0486106
3113,5098;0,0488882
3114,4741;0,0491512
3115,4382;0,049392
3116,4026;0,0496125
3117,3667;0,049823
3118,3311;0,050036
3119,2952;0,0502596
3120,2595;0,0504933
3121,2236;0,0507293
3122,1880;0,0509572
3123,1521;0,05117
3124,1165;0,0513675
3125,0806;0,051557
3126,0449;0,05175
3127,0090;0,0519593
3127,9734;0,0521937
3128,9375;0,0524553
3129,9019;0,0527372
3130,8660;0,0530248
3131,8303;0,0533001
3132,7944;0,0535485
3133,7588;0,0537657
3134,7229;0,0539594
3135,6873;0,0541464
3136,6514;0,0543446
3137,6157;0,0545656
3138,5798;0,0548105
3139,5442;0,0550711
3140,5083;0,0553354
3141,4727;0,0555938
3142,4368;0,0558438
3143,4011;0,0560898
3144,3652;0,0563399
3145,3296;0,0566005
3146,2937;0,0568716
3147,2581;0,0571463
3148,2222;0,0574138
3149,1865;0,0576656
3150,1506;0,0579001
3151,1150;0,0581238
3152,0791;0,0583479
3153,0435;0,0585826
3154,0076;0,0588318
3154,9719;0,0590928
3155,9360;0,059359
3156,9004;0,0596243
3157,8645;0,0598857
3158,8289;0,060144
3159,7930;0,060402
3160,7573;0,0606624
3161,7214;0,060927
3162,6858;0,0611964
3163,6499;0,0614701
3164,6143;0,061746
3165,5784;0,0620204
3166,5427;0,0622884
3167,5068;0,0625462
3168,4712;0,0627928
3169,4353;0,0629065
3170,3997;0,0631487
3171,3638;0,0634033
3172,3281;0,0636754
3173,2922;0,0639618
3174,2566;0,0642515
3175,2207;0,0645298
3176,1851;0,0647847
3177,1492;0,065014
3178,1135;0,0652265
3179,0776;0,0654375
3180,0420;0,0656606
3181,0061;0,0659005
3181,9705;0,0661514
3182,9346;0,0664021
3183,8989;0,0666431
3184,8630;0,0668723
3185,8274;0,067095
3186,7915;0,0673188
3187,7559;0,0675483
3188,7200;0,0677825
3189,6843;0,0680172
3190,6484;0,0682491
3191,6128;0,0684788
3192,5769;0,0687101
3193,5413;0,0689469
3194,5054;0,0691898
3195,4697;0,0694354
3196,4338;0,0696777
3197,3982;0,0699113
3198,3623;0,0701326
3199,3267;0,0703402
3200,2908;0,0705343
3201,2551;0,0707165
3202,2192;0,070891
3203,1836;0,0710647
3204,1477;0,0712455
3205,1121;0,0714398
3206,0762;0,0716493
3207,0405;0,0718709
3208,0046;0,0720993
3208,9690;0,0723295
3209,9331;0,0725588
3210,8975;0,0727862
3211,8616;0,0730103
3212,8259;0,0732283
3213,7900;0,0734364
3214,7544;0,0736326
3215,7185;0,0738176
3216,6829;0,0739944
3217,6470;0,0741668
3218,6113;0,0743377
3219,5754;0,0745084
3220,5398;0,0746804
3221,5039;0,0748563
3222,4683;0,07504
3223,4324;0,0752354
3224,3967;0,0754438
3225,3608;0,0756622
3226,3252;0,075883
3227,2893;0,0760965
3228,2537;0,076294
3229,2178;0,0764722
3230,1821;0,0766345
3231,1462;0,0767894
3232,1106;0,0769459
3233,0747;0,0771086
3234,0391;0,0772769
3235,0032;0,0774469
3235,9675;0,077617
3236,9316;0,0777908
3237,8960;0,0779756
3238,8601;0,0781768
3239,8245;0,0783924
3240,7886;0,0786118
3241,7529;0,0788205
3242,7170;0,0790078
3243,6814;0,0791726
3244,6455;0,0793242
3245,6099;0,0794772
3246,5740;0,0796443
3247,5383;0,0798305
3248,5024;0,080033
3249,4668;0,0802442
3250,4309;0,0804558
3251,3953;0,0806618
3252,3594;0,08086
3253,3237;0,0810509
3254,2878;0,0812377
3255,2522;0,0814237
3256,2163;0,0816108
3257,1807;0,0817977
3258,1448;0,0819809
3259,1091;0,0821575
3260,0732;0,0823281
3261,0376;0,0824978
3262,0017;0,0826738
3262,9661;0,0828606
3263,9302;0,0830569
3264,8945;0,0832556
3265,8586;0,0834485
3266,8230;0,0836312
3267,7871;0,0838054
3268,7515;0,0839754
3269,7156;0,0841433
3270,6799;0,0843048
3271,6440;0,0844508
3272,6084;0,0845718
3273,5725;0,0846637
3274,5369;0,0847301
3275,5010;0,0847805
3276,4653;0,0848256
3277,4294;0,0848737
3278,3938;0,0849285
3279,3579;0,0849903
3280,3223;0,0850562
3281,2864;0,0851213
3282,2507;0,0851803
3283,2148;0,0852293
3284,1792;0,0852674
3285,1433;0,0852973
3286,1077;0,0853236
3287,0718;0,0853501
3288,0361;0,0853785
3289,0002;0,0854079
3289,9646;0,0854361
3290,9287;0,0854602
3291,8931;0,0854765
3292,8572;0,0854812
3293,8215;0,0854724
3294,7856;0,0854522
3295,7500;0,085428
3296,7141;0,0854099
3297,6785;0,0854049
3298,6426;0,0854122
3299,6069;0,0854221
3300,5710;0,085422
3301,5354;0,0854046
3302,4995;0,0853736
3303,4639;0,0853419
3304,4280;0,0853238
3305,3923;0,0853264
3306,3564;0,0853455
3307,3208;0,0853685
3308,2849;0,0853814
3309,2493;0,0853755
3310,2134;0,0853506
3311,1777;0,0853132
3312,1418;0,085273
3313,1062;0,0852397
3314,0703;0,0852221
3315,0347;0,0852264
3315,9988;0,0852553
3316,9631;0,0853076
3317,9272;0,0853783
3318,8916;0,0854607
3319,8557;0,0855485
3320,8201;0,0856375
3321,7842;0,0857259
3322,7485;0,0858128
3323,7126;0,0858975
3324,6770;0,085979
3325,6411;0,0860556
3326,6055;0,0861262
3327,5696;0,0861902
3328,5339;0,0862486
3329,4980;0,0863037
3330,4624;0,086358
3331,4265;0,0864125
3332,3909;0,0864653
3333,3550;0,0865098
3334,3193;0,0865364
3335,2834;0,0865356
3336,2478;0,0865016
3337,2119;0,0864345
3338,1763;0,0863396
3339,1404;0,086224
3340,1047;0,0860943
3341,0688;0,0859557
3342,0332;0,0858124
3342,9973;0,0856678
3343,9617;0,0855242
3344,9258;0,0853805
3345,8901;0,0852323
3346,8542;0,0850734
3347,8186;0,0849008
3348,7827;0,0847179
3349,7471;0,0845341
3350,7112;0,0843601
3351,6755;0,0842004
3352,6396;0,0840499
3353,6040;0,0838959
3354,5681;0,0837266
3355,5325;0,0835389
3356,4966;0,0833417
3357,4609;0,0831511
3358,4250;0,0829806
3359,3894;0,0828332
3360,3535;0,0827001
3361,3179;0,0825651
3362,2820;0,0824134
3363,2463;0,0822373
3364,2104;0,0820377
3365,1748;0,0818207
3366,1389;0,0815934
3367,1033;0,08136
3368,0674;0,0811222
3369,0317;0,0808805
3369,9958;0,0806365
3370,9602;0,0803938
3371,9243;0,0801573
3372,8887;0,0799313
3373,8528;0,0797169
3374,8171;0,0795106
3375,7813;0,079306
3376,7456;0,0790974
3377,7097;0,0788831
3378,6741;0,0786675
3379,6382;0,0784587
3380,6025;0,0782636
3381,5667;0,0780829
3382,5310;0,0779095
3383,4951;0,0777325
3384,4595;0,0775441
3385,4236;0,0773458
3386,3879;0,0771492
3387,3521;0,0769687
3388,3164;0,0768119
3389,2805;0,0766717
3390,2449;0,0765278
3391,2090;0,0763563
3392,1733;0,076143
3393,1375;0,0758933
3394,1018;0,0756287
3395,0659;0,0753745
3396,0303;0,0751447
3396,9944;0,0749367
3397,9587;0,0747351
3398,9229;0,0745216
3399,8872;0,0742853
3400,8513;0,0740253
3401,8157;0,0737491
3402,7798;0,0734666
3403,7441;0,0731874
3404,7083;0,0729182
3405,6726;0,0726624
3406,6367;0,0724187
3407,6011;0,0721808
3408,5652;0,0719393
3409,5295;0,0716857
3410,4937;0,0714164
3411,4580;0,0711347
3412,4221;0,0708491
3413,3865;0,0705694
3414,3506;0,0703024
3415,3149;0,07005
3416,2791;0,0698098
3417,2434;0,0695746
3418,2075;0,0693331
3419,1719;0,0690717
3420,1360;0,068779
3421,1003;0,0684522
3422,0645;0,0680998
3423,0288;0,0677392
3423,9929;0,0673884
3424,9573;0,0670583
3425,9214;0,0667494
3426,8857;0,0664527
3427,8499;0,0661554
3428,8142;0,0658469
3429,7783;0,0655229
3430,7427;0,065185
3431,7068;0,0648373
3432,6711;0,0644836
3433,6353;0,064127
3434,5996;0,0637726
3435,5637;0,0634286
3436,5281;0,0631049
3437,4922;0,062809
3438,4565;0,0625417
3439,4207;0,0622971
3440,3850;0,0620649
3441,3491;0,0618351
3442,3135;0,0615997
3443,2776;0,0613499
3444,2419;0,0610728
3445,2061;0,0607517
3446,1704;0,0603742
3447,1345;0,0599427
3448,0989;0,0594801
3449,0630;0,0590213
3450,0273;0,058596
3450,9915;0,0582166
3451,9558;0,0578772
3452,9199;0,0575615
3453,8843;0,0572533
3454,8484;0,0569448
3455,8127;0,056639
3456,7769;0,0563436
3457,7412;0,0560631
3458,7053;0,0557932
3459,6697;0,0555212
3460,6338;0,0552317
3461,5981;0,0549148
3462,5623;0,0545694
3463,5266;0,0542023
3464,4907;0,0538216
3465,4551;0,0534334
3466,4192;0,0530418
3467,3835;0,0526525
3468,3477;0,0522759
3469,3120;0,051924
3470,2761;0,0516032
3471,2405;0,0513071
3472,2046;0,0510188
3473,1689;0,0507203
3474,1331;0,0504063
3475,0974;0,0500913
3476,0615;0,0498011
3477,0259;0,0495549
3477,9900;0,0493491
3478,9543;0,0491544
3479,9185;0,0489291
3480,8828;0,048642
3481,8469;0,0482914
3482,8113;0,0479041
3483,7754;0,0475153
3484,7397;0,0471455
3485,7039;0,0467932
3486,6682;0,0464432
3487,6323;0,0460842
3488,5967;0,0457204
3489,5608;0,0453712
3490,5251;0,0450578
3491,4893;0,044788
3492,4536;0,0445497
3493,4177;0,0443164
3494,3821;0,0440624
3495,3462;0,0437811
3496,3105;0,0434937
3497,2747;0,0432392
3498,2390;0,0430485
3499,2031;0,0429202
3500,1675;0,0428119
3501,1316;0,0426528
3502,0959;0,0423801
3503,0601;0,0419828
3504,0244;0,0415155
3504,9885;0,0410623
3505,9529;0,0406809
3506,9170;0,0403737
3507,8813;0,040096
3508,8455;0,0397882
3509,8098;0,0394129
3510,7739;0,0389778
3511,7383;0,0385257
3512,7024;0,0381028
3513,6667;0,0377331
3514,6309;0,0374166
3515,5952;0,0371432
3516,5593;0,0369082
3517,5237;0,0367185
3518,4878;0,0365856
3519,4521;0,0365118
3520,4163;0,0364798
3521,3806;0,036453
3522,3447;0,0363867
3523,3091;0,0362469
3524,2732;0,0360209
3525,2375;0,0357135
3526,2017;0,0353338
3527,1660;0,0348872
3528,1301;0,0343827
3529,0945;0,033846
3530,0586;0,0333223
3531,0229;0,0328585
3531,9871;0,0324821
3532,9514;0,0321882
3533,9155;0,031942
3534,8799;0,0316938
3535,8440;0,0314043
3536,8083;0,0310699
3537,7725;0,0307303
3538,7368;0,0304483
3539,7009;0,0302775
3540,6653;0,0302383
3541,6294;0,030307
3542,5938;0,0304148
3543,5579;0,030456
3544,5222;0,0303245
3545,4863;0,0299759
3546,4507;0,0294652
3547,4148;0,0289116
3548,3792;0,0284179
3549,3433;0,0280196
3550,3076;0,0276887
3551,2717;0,027366
3552,2361;0,0270033
3553,2002;0,0265964
3554,1646;0,0261868
3555,1287;0,0258289
3556,0930;0,025556
3557,0571;0,0253707
3558,0215;0,0252576
3558,9856;0,0252006
3559,9500;0,0251937
3560,9141;0,0252424
3561,8784;0,0253508
3562,8425;0,0255052
3563,8069;0,0256526
3564,7710;0,0256736
3565,7354;0,0253924
3566,6995;0,0247057
3567,6638;0,0237453
3568,6279;0,0228061
3569,5923;0,0220911
3570,5564;0,021611
3571,5208;0,0212751
3572,4849;0,0209969
3573,4492;0,0207343
3574,4133;0,020482
3575,3777;0,0202494
3576,3418;0,0200426
3577,3062;0,0198587
3578,2703;0,0196914
3579,2346;0,0195408
3580,1987;0,0194172
3581,1631;0,019333
3582,1272;0,0192918
3583,0916;0,0192836
3584,0557;0,0192836
3585,0200;0,0192386
3585,9841;0,0190586
3586,9485;0,018679
3587,9126;0,0181734
3588,8770;0,0177317
3589,8411;0,0174849
3590,8054;0,01742
3591,7695;0,0174414
3592,7339;0,0174504
3593,6980;0,0173806
3594,6624;0,0172122
3595,6265;0,0169747
3596,5908;0,0167163
3597,5549;0,0164564
3598,5193;0,0161734
3599,4834;0,0158349
3600,4478;0,0154407
3601,4119;0,0150352
3602,3762;0,0146746
3603,3403;0,0143831
3604,3047;0,0141429
3605,2688;0,0139123
3606,2332;0,0136474
3607,1973;0,0133264
3608,1616;0,0129786
3609,1257;0,012684
3610,0901;0,0125205
3611,0542;0,0125033
3612,0186;0,0125724
3612,9827;0,0126297
3613,9470;0,0125899
3614,9111;0,012414
3615,8755;0,0121112
3616,8396;0,0117193
3617,8040;0,0112853
3618,7681;0,0108654
3619,7324;0,010539
3620,6965;0,0103838
3621,6609;0,0104015
3622,6250;0,0104896
3623,5894;0,0105035
3624,5535;0,0103438
3625,5178;0,0100035
3626,4819;0,00954726
3627,4463;0,00904031
3628,4104;0,00852537
3629,3748;0,00809969
3630,3389;0,00787427
3631,3032;0,00781307
3632,2673;0,00775527
3633,2317;0,00756751
3634,1958;0,00722717
3635,1602;0,00680691
3636,1243;0,00640961
3637,0886;0,00610512
3638,0527;0,00590706
3639,0171;0,00579269
3639,9812;0,00573516
3640,9456;0,00571753
3641,9097;0,00572494
3642,8740;0,0057348
3643,8381;0,00572663
3644,8025;0,00570934
3645,7666;0,00572821
3646,7310;0,00578762
3647,6951;0,00569936
3648,6594;0,00516307
3649,6235;0,00425702
3650,5879;0,00345664
3651,5520;0,00300854
3652,5164;0,00278279
3653,4805;0,00256848
3654,4448;0,00226829
3655,4089;0,00191594
3656,3733;0,00161142
3657,3374;0,00143671
3658,3018;0,00139505
3659,2659;0,00141685
3660,2302;0,00142565
3661,1943;0,00139708
3662,1587;0,00135957
3663,1228;0,00134743
3664,0872;0,00135679
3665,0513;0,00135476
3666,0156;0,00132585
3666,9797;0,00130472
3667,9441;0,00134003
3668,9082;0,00141717
3669,8726;0,00145732
3670,8367;0,0014044
3671,8010;0,00126058
3672,7651;0,00106472
3673,7295;0,000876812
3674,6936;0,000739118
3675,6580;0,000648956
3676,6221;0,000610264
3677,5864;0,000643165
3678,5505;0,00071785
3679,5149;0,000771703
3680,4790;0,000780466
3681,4434;0,000769073
3682,4075;0,000762509
3683,3718;0,000743683
3684,3359;0,000667512
3685,3003;0,000521256
3686,2644;0,000373998
3687,2288;0,000350215
3688,1929;0,000514003
3689,1572;0,000787286
3690,1213;0,00104674
3691,0857;0,0012461
3692,0498;0,0013844
3693,0142;0,00145405
3693,9783;0,00145164
3694,9426;0,00139075
3695,9067;0,00129175
3696,8711;0,00116925
3697,8352;0,00103413
3698,7996;0,00090439
3699,7637;0,000808291
3700,7280;0,000773355
3701,6921;0,000813842
3702,6565;0,000926637
3703,6206;0,0010875
3704,5850;0,00124952
3705,5491;0,00136129
3706,5134;0,00139816
3707,4775;0,00137558
3708,4419;0,00131809
3709,4060;0,00119506
3710,3704;0,000918359
3711,3345;0,000486988
3712,2988;7,93194E-05
3713,2629;-0,000119243
3714,2273;-8,81474E-05
3715,1914;7,50647E-05
3716,1558;0,000276021
3717,1199;0,000482437
3718,0842;0,000713764
3719,0483;0,000998567
3720,0127;0,00133771
3720,9768;0,0016968
3721,9412;0,00202407
3722,9053;0,00227218
3723,8696;0,00240996
3724,8337;0,00242922
3725,7981;0,00234694
3726,7622;0,00219343
3727,7266;0,00199419
3728,6907;0,00177081
3729,6550;0,00156268
3730,6191;0,00144019
3731,5835;0,00147785
3732,5476;0,00167951
3733,5120;0,00190849
3734,4761;0,00195904
3735,4404;0,00179147
3736,4045;0,00160314
3737,3689;0,00156006
3738,3330;0,00159142
3739,2974;0,00147813
3740,2615;0,0010434
3741,2258;0,000280373
3742,1899;-0,000610135
3743,1543;-0,00129476
3744,1184;-0,00150562
3745,0828;-0,00123316
3746,0469;-0,000719589
3747,0112;-0,000270445
3747,9753;-7,61458E-05
3748,9397;-0,000163905
3749,9038;-0,000450326
3750,8682;-0,000776753
3751,8323;-0,000928048
3752,7966;-0,000788699
3753,7607;-0,00046249
3754,7251;-0,00015096
3755,6892;1,06157E-05
3756,6536;-4,50645E-06
3757,6177;-0,000154475
3758,5820;-0,000369787
3759,5461;-0,000570101
3760,5105;-0,000690501
3761,4746;-0,000715171
3762,4390;-0,000675368
3763,4031;-0,000617778
3764,3674;-0,000581011
3765,3315;-0,00058945
3766,2959;-0,000652154
3767,2600;-0,000761292
3768,2244;-0,000895115
3769,1885;-0,00102557
3770,1528;-0,00112377
3771,1169;-0,00116774
3772,0813;-0,00115648
3773,0454;-0,00111812
3774,0098;-0,00109378
3774,9739;-0,00110699
3775,9382;-0,00114597
3776,9023;-0,00117596
3777,8667;-0,00116887
3778,8308;-0,001115
3779,7952;-0,00101185
3780,7593;-0,000862343
3781,7236;-0,000689377
3782,6877;-0,000538743
3783,6521;-0,000462556
3784,6162;-0,000494723
3785,5806;-0,000629365
3786,5447;-0,000818778
3787,5090;-0,000997897
3788,4731;-0,0011205
3789,4375;-0,00117797
3790,4016;-0,00118728
3791,3660;-0,00116075
3792,3301;-0,00108354
3793,2944;-0,000920861
3794,2585;-0,000655759
3795,2229;-0,000328045
3796,1870;-3,17482E-05
3797,1514;0,000137246
3798,1155;0,000140504
3799,0798;1,31281E-05
3800,0439;-0,000172886
3801,0083;-0,000359697
3801,9724;-0,000526113
3802,9368;-0,000690654
3803,9009;-0,000901221
3804,8652;-0,001189
3805,8293;-0,00151246
3806,7937;-0,00175471
3807,7578;-0,00179549
3808,7222;-0,00161417
3809,6863;-0,0013271
3810,6506;-0,00110832
3811,6147;-0,00106353
3812,5791;-0,00115788
3813,5432;-0,00124131
3814,5076;-0,00116062
3815,4717;-0,00088098
3816,4360;-0,000505326
3817,4001;-0,00018657
3818,3645;-3,75126E-05
3819,3286;-9,52083E-05
3820,2930;-0,000311606
3821,2571;-0,000556319
3822,2214;-0,000681396
3823,1855;-0,000636886
3824,1499;-0,000500973
3825,1140;-0,00039467
3826,0784;-0,000391551
3827,0425;-0,000488352
3828,0068;-0,000626053
3828,9709;-0,000731836
3829,9353;-0,000757793
3830,8994;-0,000700064
3831,8638;-0,000593653
3832,8279;-0,000488078
3833,7922;-0,000416101
3834,7563;-0,000373004
3835,7207;-0,000324161
3836,6848;-0,000242592
3837,6492;-0,000144842
3838,6133;-7,87648E-05
3839,5776;-7,88756E-05
3840,5417;-0,000149521
3841,5061;-0,000276535
3842,4702;-0,000424939
3843,4346;-0,000531172
3844,3987;-0,000524906
3845,3630;-0,000381534
3846,3271;-0,000163743
3847,2915;-1,11334E-05
3848,2556;-7,88311E-05
3849,2200;-0,000458488
3850,1841;-0,00111582
3851,1484;-0,00188278
3852,1125;-0,00253864
3853,0769;-0,00289499
3854,0410;-0,00278391
3855,0054;-0,0021839
3855,9695;-0,0013557
3856,9338;-0,000644215
3857,8979;-0,000246955
3858,8623;-0,000163574
3859,8264;-0,000253916
3860,7908;-0,000336032
3861,7549;-0,000296572
3862,7192;-0,000158325
3863,6833;-3,63547E-05
3864,6477;-2,12517E-05
3865,6118;-0,000117302
3866,5762;-0,000265544
3867,5403;-0,000388058
3868,5046;-0,000427009
3869,4688;-0,000379576
3870,4331;-0,000303765
3871,3972;-0,000274151
3872,3616;-0,0003272
3873,3257;-0,000450898
3874,2900;-0,00061076
3875,2542;-0,000769807
3876,2185;-0,000887098
3877,1826;-0,000914221
3878,1470;-0,00081144
3879,1111;-0,000586554
3880,0754;-0,000319734
3881,0396;-0,000131196
3882,0039;-0,000110094
3882,9680;-0,000269226
3883,9324;-0,000549541
3884,8965;-0,000853052
3885,8608;-0,00108727
3886,8250;-0,00120701
3887,7893;-0,00122433
3888,7534;-0,00117492
3889,7178;-0,0010795
3890,6819;-0,000942366
3891,6462;-0,000772929
3892,6104;-0,000590223
3893,5747;-0,00042005
3894,5388;-0,000298448
3895,5032;-0,000252632
3896,4673;-0,00026834
3897,4316;-0,000290621
3898,3958;-0,000268666
3899,3601;-0,000200081
3900,3242;-0,000128274
3901,2886;-0,000103328
3902,2527;-0,000157068
3903,2170;-0,000297378
3904,1812;-0,000501371
3905,1455;-0,00072272
3906,1096;-0,000923376
3907,0740;-0,0010936
3908,0381;-0,00123794
3909,0024;-0,00135244
3909,9666;-0,00142025
3910,9309;-0,00142491
3911,8950;-0,00136397
3912,8594;-0,00125025
3913,8235;-0,00110397
3914,7878;-0,000947843
3915,7520;-0,000808823
3916,7163;-0,000713504
3917,6804;-0,000667176
3918,6448;-0,000640174
3919,6089;-0,000588945
3920,5732;-0,000493478
3921,5374;-0,000370872
3922,5017;-0,000263764
3923,4658;-0,000216957
3924,4302;-0,000248662
3925,3943;-0,000333129
3926,3586;-0,000416844
3927,3228;-0,000455625
3928,2871;-0,000438145
3929,2512;-0,000387726
3930,2156;-0,000352947
3931,1797;-0,000384663
3932,1440;-0,000500713
3933,1082;-0,000670115
3934,0725;-0,00083947
3935,0366;-0,000970571
3936,0010;-0,00105108
3936,9651;-0,0010815
3937,9294;-0,0010621
3938,8936;-0,000992234
3939,8579;-0,000879845
3940,8220;-0,00074908
3941,7864;-0,00063321
3942,7505;-0,000553206
3943,7148;-0,000501938
3944,6790;-0,00045475
3945,6433;-0,000394771
3946,6074;-0,000331298
3947,5718;-0,00029967
3948,5359;-0,000341407
3949,5002;-0,000472881
3950,4644;-0,000667017
3951,4287;-0,000868423
3952,3928;-0,00102762
3953,3572;-0,00112329
3954,3213;-0,00116185
3955,2856;-0,00116371
3956,2498;-0,00114828
3957,2141;-0,00112584
3958,1782;-0,00109957
3959,1426;-0,00107346
3960,1067;-0,00105776
3961,0710;-0,00106564
3962,0352;-0,00110343
3962,9995;-0,00116324
3963,9636;-0,00122604
3964,9280;-0,00127193
3965,8921;-0,00129116
3966,8564;-0,00128691
3967,8206;-0,00127016
3968,7849;-0,00125081
3969,7490;-0,00123126
3970,7134;-0,0012074
3971,6775;-0,00117585
3972,6418;-0,00114143
3973,6060;-0,00111817
3974,5703;-0,00112207
3975,5344;-0,00116032
3976,4988;-0,00122508
3977,4629;-0,0012968
3978,4272;-0,00135474
3979,3914;-0,00138805
3980,3557;-0,00140055
3981,3198;-0,00140671
3982,2842;-0,00142103
3983,2483;-0,00144763
3984,2126;-0,00147708
3985,1768;-0,00149262
3986,1411;-0,00148117
3987,1052;-0,00144203
3988,0696;-0,00138834
3989,0337;-0,00133993
3989,9980;-0,00131385
3990,9622;-0,00131655
3991,9265;-0,00134311
3992,8906;-0,00138231
3993,8550;-0,00142324
3994,8191;-0,00145895
3995,7834;-0,00148654
3996,7476;-0,00150546
3997,7119;-0,00151644
3998,6760;-0,00152147
3999,6404;-0,00152367
4000,6045;-0,00112849

##### Extended Information
[Comments]
Sample name
Comment
Username
Division
Organization;UNIVERSIDAD INDUSTRIAL DE SANTANDER

[Detailed Information]
Creation date;20/03/2025 12:23 p.m.

Data array type;Linear data array
Horizontal axis;Wavenumber [cm-1]
Vertical axis;Abs
Start;399,193 cm-1
End;4000,6 cm-1
Data interval;0,964233 cm-1
Data points;3736    

[Measurement Information]
Model name;FT/IR-4X1typeA
Serial No.;A035162111

Accessory;ATR PRO 4X
Accessory S/N;A021162126
Incident angle;45 deg

Measurement date;20/03/2025 12:22 p.m.

Light source;Standard
Detector;TGS
Accumulation;40
Resolution;4 cm-1
Zero filling;On
Apodization;Cosine
Gain;Auto (8)
Aperture;Auto (7 mm)
Scan speed;Auto (2 mm/sec)
Filter;Auto (12800 Hz)

