TITLE;
DATA TYPE;INFRARED SPECTRUM
ORIGIN;JASCO
OWNER;
DATE;25/03/20
TIME;13:07:54
SPECTROMETER/DATA SYSTEM;
LOCALE;9226
RESOLUTION;
DELTAX;0,964233
XUNITS;1/CM
YUNITS;ABSORBANCE
FIRSTX;  399,1927
LASTX; 4000,6047
NPOINTS;    3736
FIRSTY;     0,18672
MAXY;     0,26277
MINY;    -0,00448
XYDATA
399,1927;0,186722
400,1569;0,186938
401,1211;0,186264
402,0854;0,185163
403,0496;0,184082
404,0138;0,183427
404,9781;0,183528
405,9423;0,184528
406,9065;0,186283
407,8708;0,18839
408,8350;0,19036
409,7992;0,191825
410,7635;0,192664
411,7277;0,193018
412,6919;0,193199
413,6562;0,19353
414,6204;0,194244
415,5846;0,195471
416,5489;0,197241
417,5131;0,199411
418,4773;0,201553
419,4416;0,203098
420,4058;0,203813
421,3700;0,20391
422,3343;0,203672
423,2985;0,203223
424,2627;0,202574
425,2270;0,201752
426,1912;0,200884
427,1554;0,200188
428,1197;0,199887
429,0839;0,200122
430,0481;0,200909
431,0124;0,202113
431,9766;0,20347
432,9408;0,204647
433,9051;0,205339
434,8693;0,205388
435,8335;0,204845
436,7978;0,203959
437,7620;0,203055
438,7262;0,202403
439,6905;0,202139
440,6547;0,20226
441,6189;0,202643
442,5832;0,203056
443,5474;0,203194
444,5116;0,202795
445,4759;0,201773
446,4401;0,200293
447,4043;0,198712
448,3686;0,19744
449,3328;0,196771
450,2970;0,196769
451,2613;0,197248
452,2255;0,197891
453,1897;0,198431
454,1540;0,198772
455,1182;0,198961
456,0824;0,199077
457,0467;0,199096
458,0109;0,198863
458,9751;0,198224
459,9394;0,197181
460,9036;0,195917
461,8678;0,194677
462,8321;0,193651
463,7963;0,192926
464,7605;0,192483
465,7248;0,192222
466,6890;0,192034
467,6532;0,191863
468,6175;0,191742
469,5817;0,19176
470,5459;0,19199
471,5102;0,192409
472,4744;0,192855
473,4386;0,193109
474,4029;0,193029
475,3671;0,19264
476,3313;0,192107
477,2956;0,191645
478,2598;0,191439
479,2240;0,191594
480,1883;0,192118
481,1525;0,192933
482,1167;0,193905
483,0810;0,194866
484,0452;0,195662
485,0094;0,196208
485,9737;0,196538
486,9379;0,196793
487,9021;0,197138
488,8664;0,197662
489,8306;0,198323
490,7948;0,198951
491,7591;0,19934
492,7233;0,199375
493,6875;0,199107
494,6518;0,198721
495,6160;0,198425
496,5802;0,198348
497,5445;0,198523
498,5087;0,198917
499,4729;0,199481
500,4372;0,200163
501,4014;0,200886
502,3656;0,20153
503,3299;0,201961
504,2941;0,202101
505,2583;0,201976
506,2226;0,201717
507,1868;0,201499
508,1510;0,201466
509,1153;0,201674
510,0795;0,202094
511,0437;0,202669
512,0080;0,203368
512,9722;0,204208
513,9365;0,205217
514,9007;0,206373
515,8649;0,207551
516,8292;0,208538
517,7934;0,209118
518,7576;0,209205
519,7219;0,208913
520,6861;0,208484
521,6503;0,208145
522,6146;0,208009
523,5788;0,208051
524,5430;0,208143
525,5073;0,208126
526,4715;0,2079
527,4357;0,207472
528,4000;0,206938
529,3642;0,206414
530,3284;0,20598
531,2927;0,205672
532,2569;0,205492
533,2211;0,205423
534,1854;0,20543
535,1496;0,205459
536,1138;0,205442
537,0781;0,205317
538,0423;0,205057
539,0065;0,204692
539,9708;0,204313
540,9350;0,204035
541,8992;0,203951
542,8635;0,204095
543,8277;0,204427
544,7919;0,204852
545,7562;0,205266
546,7204;0,205596
547,6846;0,205826
548,6489;0,205985
549,6131;0,206122
550,5773;0,206283
551,5416;0,206502
552,5058;0,206806
553,4700;0,207213
554,4343;0,207721
555,3985;0,20828
556,3627;0,208777
557,3270;0,209056
558,2912;0,208962
559,2554;0,208401
560,2197;0,207386
561,1839;0,206043
562,1481;0,204577
563,1124;0,203209
564,0766;0,202104
565,0408;0,201323
566,0051;0,200819
566,9693;0,200473
567,9335;0,200156
568,8978;0,199798
569,8620;0,199414
570,8262;0,199083
571,7905;0,198883
572,7547;0,198846
573,7189;0,198935
574,6832;0,199069
575,6474;0,199168
576,6116;0,19919
577,5759;0,19914
578,5401;0,199046
579,5043;0,19893
580,4686;0,198791
581,4328;0,198613
582,3970;0,198379
583,3613;0,198092
584,3255;0,197771
585,2897;0,197457
586,2540;0,197207
587,2182;0,19709
588,1824;0,197156
589,1467;0,197408
590,1109;0,197767
591,0751;0,198087
592,0394;0,198215
593,0036;0,198073
593,9678;0,197704
594,9321;0,197235
595,8963;0,196786
596,8605;0,196397
597,8248;0,196017
598,7890;0,195557
599,7532;0,194968
600,7175;0,194284
601,6817;0,1936
602,6459;0,193005
603,6102;0,192527
604,5744;0,192124
605,5386;0,191722
606,5029;0,191258
607,4671;0,190705
608,4313;0,190065
609,3956;0,189356
610,3598;0,188612
611,3240;0,187892
612,2883;0,187278
613,2525;0,186846
614,2167;0,186607
615,1810;0,186462
616,1452;0,186203
617,1094;0,185594
618,0737;0,184495
619,0379;0,182947
620,0021;0,18115
620,9664;0,179353
621,9306;0,17774
622,8948;0,176385
623,8591;0,175261
624,8233;0,174246
625,7875;0,173349
626,7518;0,17253
627,7160;0,171783
628,6802;0,171113
629,6445;0,17052
630,6087;0,169982
631,5729;0,169467
632,5372;0,168941
633,5014;0,168383
634,4656;0,167795
635,4299;0,167201
636,3941;0,16664
637,3583;0,166142
638,3226;0,165719
639,2868;0,165357
640,2510;0,165021
641,2153;0,164677
642,1795;0,164309
643,1437;0,163922
644,1080;0,163538
645,0722;0,163169
646,0364;0,162803
647,0007;0,162409
647,9649;0,161955
648,9291;0,161435
649,8934;0,16089
650,8576;0,160396
651,8218;0,16003
652,7861;0,159841
653,7503;0,159826
654,7145;0,159929
655,6788;0,160059
656,6430;0,160126
657,6072;0,160085
658,5715;0,159958
659,5357;0,159797
660,4999;0,159619
661,4642;0,159345
662,4284;0,158798
663,3926;0,157775
664,3569;0,156183
665,3211;0,154209
666,2853;0,152425
667,2496;0,151538
668,2138;0,151631
669,1780;0,151945
670,1423;0,151945
671,1065;0,151568
672,0707;0,150731
673,0350;0,149363
673,9992;0,147576
674,9634;0,145627
675,9277;0,143767
676,8919;0,142118
677,8561;0,140659
678,8204;0,139323
679,7846;0,138074
680,7488;0,136915
681,7131;0,135863
682,6773;0,134911
683,6415;0,134046
684,6058;0,133271
685,5700;0,132605
686,5342;0,132056
687,4985;0,131597
688,4627;0,131179
689,4269;0,130745
690,3912;0,130281
691,3554;0,129818
692,3196;0,129398
693,2839;0,129037
694,2481;0,128715
695,2123;0,128386
696,1766;0,128005
697,1408;0,127544
698,1050;0,127001
699,0693;0,126395
700,0335;0,125764
700,9977;0,125154
701,9620;0,124608
702,9262;0,124141
703,8904;0,123719
704,8547;0,123296
705,8189;0,122814
706,7831;0,122238
707,7474;0,121569
708,7116;0,120846
709,6758;0,12012
710,6401;0,119427
711,6043;0,118772
712,5685;0,118138
713,5328;0,117509
714,4970;0,116892
715,4612;0,115393
716,4255;0,115064
717,3897;0,114841
718,3539;0,114593
719,3182;0,114131
720,2824;0,113312
721,2466;0,112127
722,2109;0,110717
723,1751;0,109288
724,1393;0,108008
725,1036;0,106939
726,0678;0,106056
727,0320;0,105288
727,9963;0,104573
728,9605;0,103885
729,9247;0,103224
730,8890;0,102592
731,8532;0,101982
732,8174;0,10138
733,7817;0,100779
734,7459;0,100193
735,7101;0,0996452
736,6744;0,0991532
737,6386;0,0987161
738,6028;0,0983114
739,5671;0,0979069
740,5313;0,0974755
741,4955;0,0970062
742,4598;0,0965042
743,4240;0,095983
744,3882;0,0954538
745,3525;0,094919
746,3167;0,0943739
747,2809;0,0938132
748,2452;0,0932382
749,2094;0,0926599
750,1736;0,0920949
751,1379;0,091558
752,1021;0,0910542
753,0663;0,0905764
754,0306;0,0901088
754,9948;0,0896346
755,9590;0,0891444
756,9233;0,088641
757,8875;0,0881388
758,8517;0,0876582
759,8160;0,0872165
760,7802;0,0868191
761,7444;0,0864551
762,7087;0,0860996
763,6729;0,0857249
764,6371;0,0853149
765,6014;0,0848754
766,5656;0,0844335
767,5298;0,084024
768,4941;0,0836705
769,4583;0,0833721
770,4225;0,0831052
771,3868;0,082839
772,3510;0,0825545
773,3152;0,082255
774,2795;0,081959
775,2437;0,0816845
776,2079;0,0814329
777,1722;0,0811872
778,1364;0,0809223
779,1006;0,0806205
780,0649;0,0802801
781,0291;0,0799118
781,9933;0,0795276
782,9576;0,0791315
783,9218;0,078719
784,8860;0,078285
785,8503;0,0778325
786,8145;0,0773758
787,7787;0,0769344
788,7430;0,0765248
789,7072;0,0761536
790,6714;0,0758192
791,6357;0,0755174
792,5999;0,0752474
793,5641;0,0750108
794,5284;0,0748073
795,4926;0,0746274
796,4568;0,0744526
797,4211;0,0742619
798,3853;0,074043
799,3495;0,0738001
800,3138;0,0735527
801,2780;0,0733248
802,2422;0,073132
803,2065;0,0729741
804,1707;0,0728375
805,1349;0,0727061
806,0992;0,0725728
807,0634;0,0724433
808,0276;0,0723304
808,9919;0,0722427
809,9561;0,0721749
810,9203;0,0721077
811,8846;0,0720169
812,8488;0,0718855
813,8130;0,0717121
814,7773;0,0715103
815,7415;0,0713
816,7057;0,0710974
817,6700;0,0709091
818,6342;0,0707339
819,5984;0,0705695
820,5627;0,0704184
821,5269;0,0702892
822,4911;0,0701916
823,4554;0,070128
824,4196;0,070089
825,3839;0,0700543
826,3481;0,0700005
827,3123;0,0699114
828,2766;0,0697845
829,2408;0,0696307
830,2050;0,0694675
831,1693;0,0693097
832,1335;0,0691623
833,0977;0,0690195
834,0620;0,0688676
835,0262;0,0686916
835,9904;0,0684804
836,9547;0,0682316
837,9189;0,0679527
838,8831;0,0676597
839,8474;0,0673719
840,8116;0,0671045
841,7758;0,0668624
842,7401;0,0666393
843,7043;0,0664238
844,6685;0,0662088
845,6328;0,0659975
846,5970;0,0658015
847,5612;0,0656333
848,5255;0,0654971
849,4897;0,0653877
850,4539;0,0652949
851,4182;0,0652116
852,3824;0,0651361
853,3466;0,065067
854,3109;0,0649967
855,2751;0,0649103
856,2393;0,0647924
857,2036;0,0646394
858,1678;0,0644649
859,1320;0,0642954
860,0963;0,0641555
861,0605;0,0640552
862,0247;0,0639872
862,9890;0,0639359
863,9532;0,0638926
864,9174;0,0638639
865,8817;0,0638695
866,8459;0,0639291
867,8101;0,0640492
868,7744;0,0642169
869,7386;0,0644044
870,7028;0,06458
871,6671;0,0647196
872,6313;0,0648138
873,5955;0,0648688
874,5598;0,0649042
875,5240;0,0649468
876,4882;0,0650247
877,4525;0,0651597
878,4167;0,0653613
879,3809;0,065626
880,3452;0,0659414
881,3094;0,0662958
882,2736;0,0666864
883,2379;0,0671227
884,2021;0,0676211
885,1663;0,0681963
886,1306;0,068854
887,0948;0,0695884
888,0590;0,0703867
889,0233;0,0712334
889,9875;0,0721129
890,9517;0,0730079
891,9160;0,0738951
892,8802;0,0747431
893,8444;0,0755126
894,8087;0,0761615
895,7729;0,0766505
896,7371;0,0769502
897,7014;0,077045
898,6656;0,0769357
899,6298;0,0766369
900,5941;0,0761721
901,5583;0,0755684
902,5225;0,0748544
903,4868;0,0740632
904,4510;0,0732378
905,4152;0,0724317
906,3795;0,0717025
907,3437;0,071097
908,3079;0,0706366
909,2722;0,070312
910,2364;0,0700906
911,2007;0,0699332
912,1649;0,0698117
913,1292;0,0697182
914,0934;0,0696626
915,0576;0,0696623
916,0219;0,0697307
916,9861;0,06987
917,9503;0,0700694
918,9146;0,0703084
919,8788;0,0705619
920,8430;0,0708073
921,8073;0,0710297
922,7715;0,071225
923,7357;0,0713994
924,7000;0,0715639
925,6642;0,0717281
926,6284;0,0718967
927,5927;0,072069
928,5569;0,0722426
929,5211;0,0724163
930,4854;0,0725915
931,4496;0,0727704
932,4138;0,0729556
933,3781;0,0731499
934,3423;0,0733596
935,3065;0,0735958
936,2708;0,0738735
937,2350;0,0742082
938,1992;0,0746118
939,1635;0,0750909
940,1277;0,0756475
941,0919;0,0762805
942,0562;0,0769871
943,0204;0,0777618
943,9846;0,0785967
944,9489;0,0794843
945,9131;0,0804205
946,8773;0,0814083
947,8416;0,0824562
948,8058;0,083574
949,7700;0,0847674
950,7343;0,0860356
951,6985;0,0873726
952,6627;0,0887722
953,6270;0,0902307
954,5912;0,0917482
955,5554;0,0933255
956,5197;0,0949617
957,4839;0,0966518
958,4481;0,0983868
959,4124;0,100155
960,3766;0,101946
961,3408;0,103752
962,3051;0,105568
963,2693;0,107395
964,2335;0,109232
965,1978;0,111084
966,1620;0,112952
967,1262;0,114845
968,0905;0,116783
969,0547;0,118799
970,0189;0,120939
970,9832;0,123249
971,9474;0,125768
972,9116;0,128518
973,8759;0,131508
974,8401;0,134735
975,8043;0,138195
976,7686;0,141881
977,7328;0,145784
978,6970;0,149877
979,6613;0,154108
980,6255;0,158396
981,5897;0,162635
982,5540;0,166702
983,5182;0,17049
984,4824;0,173922
985,4467;0,176977
986,4109;0,179681
987,3751;0,182097
988,3394;0,184288
989,3036;0,186294
990,2678;0,188121
991,2321;0,189751
992,1963;0,191164
993,1605;0,192364
994,1248;0,193387
995,0890;0,194293
996,0532;0,195142
997,0175;0,19598
997,9817;0,19683
998,9459;0,197694
999,9102;0,198574
1000,8744;0,199484
1001,8386;0,200454
1002,8029;0,201527
1003,7671;0,202746
1004,7313;0,204148
1005,6956;0,205758
1006,6598;0,207595
1007,6240;0,209678
1008,5883;0,212028
1009,5525;0,214659
1010,5167;0,217563
1011,4810;0,220701
1012,4452;0,223992
1013,4094;0,22733
1014,3737;0,230606
1015,3379;0,23373
1016,3021;0,236659
1017,2664;0,239386
1018,2306;0,24193
1019,1948;0,244312
1020,1591;0,246546
1021,1233;0,248639
1022,0875;0,2506
1023,0518;0,252447
1024,0160;0,254203
1024,9802;0,255884
1025,9445;0,257485
1026,9087;0,258978
1027,8729;0,260314
1028,8372;0,261434
1029,8014;0,26227
1030,7656;0,262743
1031,7299;0,26277
1032,6941;0,26227
1033,6583;0,2612
1034,6226;0,259576
1035,5868;0,257499
1036,5510;0,255136
1037,5153;0,252697
1038,4795;0,250385
1039,4437;0,248357
1040,4080;0,246705
1041,3722;0,245453
1042,3364;0,244566
1043,3007;0,243966
1044,2649;0,243553
1045,2291;0,243216
1046,1934;0,242858
1047,1576;0,242402
1048,1218;0,241793
1049,0861;0,240998
1050,0503;0,239987
1051,0145;0,238738
1051,9788;0,237229
1052,9430;0,235454
1053,9072;0,233428
1054,8715;0,231174
1055,8357;0,228711
1056,7999;0,226028
1057,7642;0,223082
1058,7284;0,219814
1059,6926;0,216186
1060,6569;0,212221
1061,6211;0,208008
1062,5853;0,203696
1063,5496;0,199442
1064,5138;0,19538
1065,4780;0,191589
1066,4423;0,188095
1067,4065;0,184883
1068,3707;0,181917
1069,3350;0,179151
1070,2992;0,176537
1071,2634;0,174026
1072,2277;0,171572
1073,1919;0,169138
1074,1561;0,166698
1075,1204;0,164238
1076,0846;0,161757
1077,0488;0,159271
1078,0131;0,156808
1078,9773;0,15442
1079,9415;0,152167
1080,9058;0,150112
1081,8700;0,148304
1082,8342;0,146763
1083,7985;0,145483
1084,7627;0,144433
1085,7269;0,143574
1086,6912;0,142862
1087,6554;0,142264
1088,6196;0,141756
1089,5839;0,141331
1090,5481;0,140987
1091,5123;0,140732
1092,4766;0,140571
1093,4408;0,140503
1094,4050;0,140517
1095,3693;0,140592
1096,3335;0,140705
1097,2977;0,140838
1098,2620;0,140979
1099,2262;0,141125
1100,1904;0,141267
1101,1547;0,141393
1102,1189;0,141479
1103,0831;0,141495
1104,0474;0,141416
1105,0116;0,141231
1105,9758;0,140939
1106,9401;0,14055
1107,9043;0,140068
1108,8685;0,139484
1109,8328;0,138772
1110,7970;0,137899
1111,7612;0,136835
1112,7255;0,135574
1113,6897;0,134141
1114,6539;0,132599
1115,6182;0,131031
1116,5824;0,129519
1117,5466;0,128123
1118,5109;0,126858
1119,4751;0,125692
1120,4393;0,124556
1121,4036;0,123363
1122,3678;0,122031
1123,3320;0,120501
1124,2963;0,118737
1125,2605;0,116733
1126,2247;0,114502
1127,1890;0,112075
1128,1532;0,109498
1129,1174;0,106827
1130,0817;0,104126
1131,0459;0,101455
1132,0101;0,0988704
1132,9744;0,0964212
1133,9386;0,0941499
1134,9028;0,0920931
1135,8671;0,09028
1136,8313;0,0887297
1137,7955;0,0874503
1138,7598;0,0864398
1139,7240;0,0856886
1140,6882;0,085182
1141,6525;0,0848998
1142,6167;0,0848149
1143,5809;0,0848936
1144,5452;0,0850997
1145,5094;0,0854012
1146,4736;0,0857767
1147,4379;0,0862181
1148,4021;0,0867255
1149,3663;0,0872998
1150,3306;0,087934
1151,2948;0,0886083
1152,2590;0,0892909
1153,2233;0,0899416
1154,1875;0,090516
1155,1517;0,0909676
1156,1160;0,091246
1157,0802;0,0912938
1158,0444;0,091046
1159,0087;0,0904334
1159,9729;0,0893922
1160,9371;0,0878781
1161,9014;0,0858793
1162,8656;0,0834243
1163,8298;0,080581
1164,7941;0,0774473
1165,7583;0,0741386
1166,7225;0,0707756
1167,6868;0,0674728
1168,6510;0,0643296
1169,6152;0,0614212
1170,5795;0,0587924
1171,5437;0,0564566
1172,5079;0,054402
1173,4722;0,0526029
1174,4364;0,0510316
1175,4006;0,0496658
1176,3649;0,0484893
1177,3291;0,0474891
1178,2933;0,0466516
1179,2576;0,0459627
1180,2218;0,0454099
1181,1860;0,0449838
1182,1503;0,0446776
1183,1145;0,0444829
1184,0787;0,0443878
1185,0430;0,0443776
1186,0072;0,0444389
1186,9714;0,0445658
1187,9357;0,0447613
1188,8999;0,0450359
1189,8641;0,0454004
1190,8284;0,0458595
1191,7926;0,0464083
1192,7568;0,0470323
1193,7211;0,0477119
1194,6853;0,0484275
1195,6495;0,0491628
1196,6138;0,0499059
1197,5780;0,0506487
1198,5422;0,0513841
1199,5065;0,0517621
1200,4707;0,0525038
1201,4349;0,0532236
1202,3992;0,0539205
1203,3634;0,0545978
1204,3276;0,0552623
1205,2919;0,0559208
1206,2561;0,0565792
1207,2203;0,0572437
1208,1846;0,0579227
1209,1488;0,058629
1210,1130;0,0593783
1211,0773;0,0601849
1212,0415;0,0610574
1213,0057;0,061996
1213,9700;0,0629932
1214,9342;0,064037
1215,8984;0,065114
1216,8627;0,0662075
1217,8269;0,0672982
1218,7911;0,0683695
1219,7554;0,069408
1220,7196;0,0704053
1221,6838;0,0713576
1222,6481;0,0722613
1223,6123;0,0731102
1224,5765;0,0738946
1225,5408;0,0746052
1226,5050;0,0752384
1227,4692;0,0757995
1228,4335;0,0763007
1229,3977;0,0767541
1230,3619;0,0771658
1231,3262;0,0775334
1232,2904;0,0778492
1233,2546;0,0781065
1234,2189;0,0783053
1235,1831;0,0784533
1236,1473;0,0785635
1237,1116;0,0786492
1238,0758;0,0787188
1239,0400;0,0787738
1240,0043;0,0788083
1240,9685;0,0788115
1241,9327;0,0787714
1242,8970;0,0786783
1243,8612;0,0785274
1244,8254;0,0783188
1245,7897;0,0780566
1246,7539;0,0777469
1247,7181;0,077398
1248,6824;0,0770202
1249,6466;0,0766261
1250,6108;0,0762293
1251,5751;0,0758422
1252,5393;0,0754734
1253,5035;0,0751269
1254,4678;0,074802
1255,4320;0,0744938
1256,3962;0,0741932
1257,3605;0,0738865
1258,3247;0,0735572
1259,2889;0,0731888
1260,2532;0,0727702
1261,2174;0,0722981
1262,1816;0,0717771
1263,1459;0,0712151
1264,1101;0,0706185
1265,0743;0,0699902
1266,0386;0,0693285
1267,0028;0,0686283
1267,9670;0,0678819
1268,9313;0,06708
1269,8955;0,0662148
1270,8597;0,0652833
1271,8240;0,0642917
1272,7882;0,0632579
1273,7524;0,06221
1274,7167;0,0611812
1275,6809;0,0602024
1276,6451;0,0592933
1277,6094;0,0584555
1278,5736;0,0576721
1279,5378;0,0569152
1280,5021;0,0561603
1281,4663;0,0554009
1282,4305;0,0546532
1283,3948;0,0539485
1284,3590;0,0533174
1285,3232;0,052775
1286,2875;0,0523154
1287,2517;0,0519188
1288,2159;0,0515657
1289,1802;0,0512501
1290,1444;0,0509837
1291,1086;0,0507894
1292,0729;0,0506894
1293,0371;0,0506956
1294,0013;0,0508063
1294,9656;0,051009
1295,9298;0,0512867
1296,8940;0,0516244
1297,8583;0,0520128
1298,8225;0,0524488
1299,7867;0,0529346
1300,7510;0,0534738
1301,7152;0,0540741
1302,6794;0,0547383
1303,6437;0,055463
1304,6079;0,0562413
1305,5721;0,0570641
1306,5364;0,0579261
1307,5006;0,0588308
1308,4648;0,0597875
1309,4291;0,0608018
1310,3933;0,0618622
1311,3575;0,0629342
1312,3218;0,0639662
1313,2860;0,0649079
1314,2502;0,0657245
1315,2145;0,0663959
1316,1787;0,0669016
1317,1429;0,0672082
1318,1072;0,0672774
1319,0714;0,0670958
1320,0356;0,0667025
1320,9999;0,0661873
1321,9641;0,0656557
1322,9283;0,0651888
1323,8926;0,0648228
1324,8568;0,0645536
1325,8210;0,064355
1326,7853;0,0641965
1327,7495;0,0640524
1328,7137;0,0639017
1329,6780;0,0637253
1330,6422;0,0635106
1331,6064;0,0632635
1332,5707;0,0630151
1333,5349;0,0628197
1334,4991;0,0627288
1335,4634;0,0627555
1336,4276;0,0628387
1337,3918;0,0628267
1338,3561;0,0625178
1339,3203;0,0617806
1340,2845;0,0606733
1341,2488;0,0594214
1342,2130;0,0582698
1343,1772;0,0573627
1344,1415;0,0567323
1345,1057;0,0563429
1346,0699;0,0561349
1347,0342;0,0560514
1347,9984;0,0560559
1348,9626;0,0561384
1349,9269;0,0563069
1350,8911;0,0565717
1351,8553;0,0569294
1352,8196;0,0573585
1353,7838;0,0578274
1354,7480;0,0583128
1355,7123;0,0588175
1356,6765;0,0593735
1357,6407;0,0600258
1358,6050;0,0608068
1359,5692;0,0617073
1360,5334;0,0626437
1361,4977;0,0634572
1362,4619;0,0640001
1363,4261;0,0642651
1364,3904;0,0643932
1365,3546;0,0645429
1366,3188;0,0647852
1367,2831;0,0651013
1368,2473;0,0654303
1369,2115;0,0657162
1370,1758;0,0659316
1371,1400;0,0660701
1372,1042;0,0661166
1373,0685;0,0660255
1374,0327;0,0657373
1374,9969;0,0652366
1375,9612;0,0645759
1376,9254;0,0638217
1377,8896;0,0629914
1378,8539;0,0620629
1379,8181;0,0610345
1380,7823;0,0599655
1381,7466;0,0589578
1382,7108;0,0580928
1383,6750;0,057384
1384,6393;0,0567751
1385,6035;0,0561686
1386,5677;0,0554798
1387,5320;0,0547151
1388,4962;0,0539927
1389,4604;0,0534402
1390,4247;0,0530973
1391,3889;0,0529409
1392,3531;0,0529552
1393,3174;0,0531395
1394,2816;0,0534531
1395,2458;0,053776
1396,2101;0,0539577
1397,1743;0,0539196
1398,1385;0,053712
1399,1028;0,053479
1400,0670;0,0533686
1401,0313;0,0534558
1401,9955;0,0537228
1402,9597;0,0540935
1403,9240;0,0544845
1404,8882;0,0548512
1405,8524;0,0552115
1406,8167;0,0556252
1407,7809;0,0561359
1408,7451;0,0567372
1409,7094;0,0573938
1410,6736;0,0580842
1411,6378;0,0588183
1412,6021;0,0596181
1413,5663;0,0604797
1414,5305;0,061359
1415,4948;0,0621901
1416,4590;0,0628957
1417,4232;0,063373
1418,3875;0,0635456
1419,3517;0,0635107
1420,3159;0,0635107
1421,2802;0,0636604
1422,2444;0,0638335
1423,2086;0,0638185
1424,1729;0,0634947
1425,1371;0,0628854
1426,1013;0,0620964
1427,0656;0,061219
1428,0298;0,0602825
1428,9940;0,0592813
1429,9583;0,0582342
1430,9225;0,0571961
1431,8867;0,0561952
1432,8510;0,0551789
1433,8152;0,0540443
1434,7794;0,0527175
1435,7437;0,0512334
1436,7079;0,0498061
1437,6721;0,0487712
1438,6364;0,0483178
1439,6006;0,0483288
1440,5648;0,0485429
1441,5291;0,0487774
1442,4933;0,0489978
1443,4575;0,049262
1444,4218;0,049628
1445,3860;0,0500963
1446,3502;0,050616
1447,3145;0,0511371
1448,2787;0,0516602
1449,2429;0,0522324
1450,2072;0,0528739
1451,1714;0,0535132
1452,1356;0,0540149
1453,0999;0,054284
1454,0641;0,0543557
1455,0283;0,0543574
1455,9926;0,0542607
1456,9568;0,0537596
1457,9210;0,0529085
1458,8853;0,0523419
1459,8495;0,0523053
1460,8137;0,0524638
1461,7780;0,0524253
1462,7422;0,0519996
1463,7064;0,0511794
1464,6707;0,0500864
1465,6349;0,0489446
1466,5991;0,0479542
1467,5634;0,0471179
1468,5276;0,0462734
1469,4918;0,0452718
1470,4561;0,0440696
1471,4203;0,0426611
1472,3845;0,0409828
1473,3488;0,0390389
1474,3130;0,0371
1475,2772;0,0354938
1476,2415;0,0343078
1477,2057;0,0334411
1478,1699;0,0327733
1479,1342;0,0322279
1480,0984;0,0317644
1481,0626;0,0313674
1482,0269;0,0310503
1482,9911;0,0308542
1483,9553;0,0308316
1484,9196;0,0310315
1485,8838;0,0314927
1486,8480;0,032201
1487,8123;0,0329793
1488,7765;0,0334707
1489,7407;0,0334656
1490,7050;0,033197
1491,6692;0,0330389
1492,6334;0,0331362
1493,5977;0,0334595
1494,5619;0,0339935
1495,5261;0,0347854
1496,4904;0,0358467
1497,4546;0,0370731
1498,4188;0,0383381
1499,3831;0,0395788
1500,3473;0,0406943
1501,3115;0,0414992
1502,2758;0,0418519
1503,2400;0,0418284
1504,2042;0,0418411
1505,1685;0,0425397
1506,1327;0,044111
1507,0969;0,0454438
1508,0612;0,0454442
1509,0254;0,0446199
1509,9896;0,0437274
1510,9539;0,0429239
1511,9181;0,0421516
1512,8823;0,0414056
1513,8466;0,0407222
1514,8108;0,0400848
1515,7750;0,0393878
1516,7393;0,0385083
1517,7035;0,0374095
1518,6677;0,0361695
1519,6320;0,0349315
1520,5962;0,03384
1521,5604;0,0330039
1522,5247;0,0324662
1523,4889;0,0321679
1524,4531;0,0319678
1525,4174;0,0317364
1526,3816;0,0314419
1527,3458;0,0311461
1528,3101;0,0309234
1529,2743;0,0308015
1530,2385;0,0307839
1531,2028;0,0308915
1532,1670;0,0311364
1533,1312;0,0314571
1534,0955;0,0317252
1535,0597;0,0318121
1536,0239;0,0316361
1536,9882;0,0312401
1537,9524;0,0309085
1538,9166;0,0311308
1539,8809;0,032112
1540,8451;0,0331884
1541,8093;0,0336139
1542,7736;0,0335553
1543,7378;0,0333897
1544,7020;0,0332349
1545,6663;0,0331357
1546,6305;0,0331529
1547,5947;0,0333078
1548,5590;0,0335463
1549,5232;0,0337752
1550,4874;0,0339296
1551,4517;0,0340083
1552,4159;0,0340411
1553,3801;0,0340179
1554,3444;0,0338693
1555,3086;0,0335435
1556,2728;0,0330871
1557,2371;0,0325442
1558,2013;0,0317554
1559,1655;0,0309021
1560,1298;0,0309129
1561,0940;0,0320697
1562,0582;0,0337388
1563,0225;0,0352761
1563,9867;0,0363878
1564,9509;0,037063
1565,9152;0,0374438
1566,8794;0,0377207
1567,8436;0,038047
1568,8079;0,0384891
1569,7721;0,0390418
1570,7363;0,0396586
1571,7006;0,0402548
1572,6648;0,0407536
1573,6290;0,0411747
1574,5933;0,0416483
1575,5575;0,0422899
1576,5217;0,0430829
1577,4860;0,0439736
1578,4502;0,0449545
1579,4144;0,0459799
1580,3787;0,0469663
1581,3429;0,0478794
1582,3071;0,0487503
1583,2714;0,0496304
1584,2356;0,0505483
1585,1998;0,0515055
1586,1641;0,0524883
1587,1283;0,0534747
1588,0925;0,0544323
1589,0568;0,0553192
1590,0210;0,0560916
1590,9852;0,0567123
1591,9495;0,0571503
1592,9137;0,057376
1593,8779;0,0573669
1594,8422;0,0571276
1595,8064;0,0567074
1596,7706;0,0561922
1597,7349;0,0556722
1598,6991;0,0552075
1599,6633;0,0548152
1600,6276;0,0544763
1601,5918;0,0541598
1602,5560;0,0538489
1603,5203;0,0535517
1604,4845;0,0532855
1605,4487;0,0530496
1606,4130;0,0528149
1607,3772;0,0525429
1608,3414;0,0522221
1609,3057;0,0518911
1610,2699;0,0516088
1611,2341;0,0513856
1612,1984;0,0511597
1613,1626;0,0508561
1614,1268;0,0504623
1615,0911;0,0500469
1616,0553;0,0497293
1617,0195;0,0496597
1617,9838;0,0499403
1618,9480;0,0504869
1619,9122;0,0510655
1620,8765;0,0514701
1621,8407;0,0516221
1622,8049;0,051556
1623,7692;0,0513722
1624,7334;0,0511861
1625,6976;0,0510677
1626,6619;0,0510214
1627,6261;0,0510277
1628,5903;0,0510752
1629,5546;0,0511385
1630,5188;0,0511473
1631,4830;0,0510183
1632,4473;0,050743
1633,4115;0,0504422
1634,3757;0,0502712
1635,3400;0,0502163
1636,3042;0,0501553
1637,2684;0,0501549
1638,2327;0,0503316
1639,1969;0,0506095
1640,1611;0,0508227
1641,1254;0,0508623
1642,0896;0,0507175
1643,0538;0,0504734
1644,0181;0,0502887
1644,9823;0,0502879
1645,9465;0,0503906
1646,9108;0,050355
1647,8750;0,0500505
1648,8392;0,0494558
1649,8035;0,0485238
1650,7677;0,04727
1651,7319;0,0458472
1652,6962;0,0444109
1653,6604;0,0432013
1654,6246;0,0427652
1655,5889;0,043208
1656,5531;0,0439557
1657,5173;0,0444437
1658,4816;0,0444437
1659,4458;0,0439981
1660,4100;0,0432655
1661,3743;0,0424042
1662,3385;0,0415531
1663,3027;0,0408525
1664,2670;0,0403753
1665,2312;0,0400656
1666,1954;0,039801
1667,1597;0,0394777
1668,1239;0,03902
1669,0881;0,0383685
1670,0524;0,0375411
1671,0166;0,0366581
1671,9808;0,0358
1672,9451;0,0349296
1673,9093;0,0340153
1674,8735;0,0331708
1675,8378;0,0326401
1676,8020;0,0326027
1677,7662;0,032978
1678,7305;0,0334562
1679,6947;0,0336984
1680,6589;0,0334931
1681,6232;0,0327764
1682,5874;0,0315666
1683,5516;0,0300095
1684,5159;0,0285944
1685,4801;0,0278873
1686,4443;0,0278958
1687,4086;0,028164
1688,3728;0,0282606
1689,3370;0,0279984
1690,3013;0,0274107
1691,2655;0,0266524
1692,2297;0,0259133
1693,1940;0,0253673
1694,1582;0,0251296
1695,1224;0,0251872
1696,0867;0,0253369
1697,0509;0,0252404
1698,0151;0,0246617
1698,9794;0,0237344
1699,9436;0,0229504
1700,9078;0,0227722
1701,8721;0,023262
1702,8363;0,0241085
1703,8005;0,0249081
1704,7648;0,0253923
1705,7290;0,0255151
1706,6932;0,025434
1707,6575;0,0253932
1708,6217;0,0255639
1709,5859;0,0259679
1710,5502;0,0265299
1711,5144;0,0271671
1712,4786;0,0278342
1713,4429;0,0285126
1714,4071;0,0291489
1715,3713;0,0295619
1716,3356;0,0294661
1717,2998;0,0288377
1718,2640;0,0281794
1719,2283;0,0280134
1720,1925;0,0283777
1721,1567;0,0289875
1722,1210;0,029559
1723,0852;0,029953
1724,0494;0,0301849
1725,0137;0,0303789
1725,9779;0,0306887
1726,9421;0,0312045
1727,9064;0,0318966
1728,8706;0,032628
1729,8348;0,0332169
1730,7991;0,0334993
1731,7633;0,0333607
1732,7275;0,0327774
1733,6918;0,0319382
1734,6560;0,0312478
1735,6202;0,0309782
1736,5845;0,0310261
1737,5487;0,0311099
1738,5129;0,0310424
1739,4772;0,0308192
1740,4414;0,0305569
1741,4056;0,0303724
1742,3699;0,0302889
1743,3341;0,0302333
1744,2983;0,0301069
1745,2626;0,0298489
1746,2268;0,0294352
1747,1910;0,0288186
1748,1553;0,0278786
1749,1195;0,026492
1750,0837;0,0247364
1751,0480;0,022953
1752,0122;0,0214936
1752,9764;0,0204692
1753,9407;0,019773
1754,9049;0,0192364
1755,8691;0,0187372
1756,8334;0,0182237
1757,7976;0,0176876
1758,7618;0,0171223
1759,7261;0,0165051
1760,6903;0,0158208
1761,6545;0,015107
1762,6188;0,0144626
1763,5830;0,0139907
1764,5472;0,0137245
1765,5115;0,0136155
1766,4757;0,0135789
1767,4399;0,0135403
1768,4042;0,013455
1769,3684;0,0133
1770,3326;0,0130575
1771,2969;0,0127184
1772,2611;0,0123256
1773,2253;0,0119992
1774,1896;0,0118525
1775,1538;0,0118861
1776,1180;0,0120028
1777,0823;0,0120982
1778,0465;0,0121197
1779,0107;0,0120628
1779,9750;0,0119404
1780,9392;0,011762
1781,9034;0,0115346
1782,8677;0,0112757
1783,8319;0,0110271
1784,7961;0,0108517
1785,7604;0,0108029
1786,7246;0,0108883
1787,6888;0,011065
1788,6531;0,0112734
1789,6173;0,0114703
1790,5815;0,0116217
1791,5458;0,0116835
1792,5100;0,0116428
1793,4742;0,0115731
1794,4385;0,0115628
1795,4027;0,0116122
1796,3669;0,0116579
1797,3312;0,0116549
1798,2954;0,0116065
1799,2596;0,0115309
1800,2239;0,0114218
1801,1881;0,0112543
1802,1523;0,0110245
1803,1166;0,0107695
1804,0808;0,0105501
1805,0450;0,0104235
1806,0093;0,0104217
1806,9735;0,0105375
1807,9377;0,0107189
1808,9020;0,010879
1809,8662;0,0109297
1810,8304;0,0108306
1811,7947;0,0106147
1812,7589;0,0103584
1813,7231;0,0101296
1814,6874;0,00996001
1815,6516;0,00985164
1816,6158;0,00979219
1817,5801;0,00976839
1818,5443;0,00977581
1819,5085;0,0098201
1820,4728;0,00990762
1821,4370;0,010035
1822,4012;0,0101849
1823,3655;0,0103284
1824,3297;0,0104393
1825,2939;0,0105122
1826,2582;0,0105623
1827,2224;0,0105993
1828,1866;0,0106011
1829,1509;0,0105214
1830,1151;0,0103405
1831,0793;0,0101108
1832,0436;0,00992319
1833,0078;0,00982877
1833,9720;0,00981463
1834,9363;0,00983929
1835,9005;0,00986813
1836,8647;0,00988732
1837,8290;0,00990193
1838,7932;0,00992312
1839,7574;0,00995597
1840,7217;0,0100055
1841,6859;0,0100869
1842,6501;0,0102063
1843,6144;0,0103276
1844,5786;0,0103889
1845,5428;0,0103648
1846,5071;0,0102717
1847,4713;0,0101187
1848,4355;0,00990109
1849,3998;0,00963148
1850,3640;0,00935343
1851,3282;0,00912184
1852,2925;0,00897202
1853,2567;0,00890682
1854,2209;0,0089084
1855,1852;0,00895876
1856,1494;0,00904766
1857,1136;0,0091656
1858,0779;0,00929056
1859,0421;0,00938885
1860,0063;0,00943462
1860,9706;0,00943372
1861,9348;0,0094289
1862,8990;0,00947889
1863,8633;0,00962751
1864,8275;0,00988309
1865,7917;0,0102063
1866,7560;0,0104982
1867,7202;0,0106164
1868,6844;0,0104658
1869,6487;0,0100995
1870,6129;0,00967931
1871,5771;0,00933262
1872,5414;0,00908844
1873,5056;0,00891884
1874,4698;0,00879539
1875,4341;0,00870889
1876,3983;0,00866269
1877,3625;0,00865799
1878,3268;0,00868819
1879,2910;0,00874017
1880,2552;0,00880086
1881,2195;0,00886135
1882,1837;0,00891647
1883,1479;0,00896235
1884,1122;0,00899553
1885,0764;0,00901413
1886,0406;0,00901894
1887,0049;0,00901151
1887,9691;0,00899059
1888,9333;0,00895472
1889,8976;0,00891341
1890,8618;0,00889194
1891,8260;0,00891647
1892,7903;0,008991
1893,7545;0,00908632
1894,7188;0,00914806
1895,6830;0,00912285
1896,6472;0,00899236
1897,6115;0,0087902
1898,5757;0,0085833
1899,5399;0,00843225
1900,5042;0,00836085
1901,4684;0,0083523
1902,4326;0,00837085
1903,3969;0,00839381
1904,3611;0,00842991
1905,3253;0,00850875
1906,2896;0,00864918
1907,2538;0,00883006
1908,2180;0,0089871
1909,1823;0,00904528
1910,1465;0,00896966
1911,1107;0,00879118
1912,0750;0,00858225
1913,0392;0,00840848
1914,0034;0,00830082
1914,9677;0,00825919
1915,9319;0,00827036
1916,8961;0,00832501
1917,8604;0,00842591
1918,8246;0,00857836
1919,7888;0,00876477
1920,7531;0,00892826
1921,7173;0,008987
1922,6815;0,00887475
1923,6458;0,00858411
1924,6100;0,00818154
1925,5742;0,00777611
1926,5385;0,00746401
1927,5027;0,00729208
1928,4669;0,00725605
1929,4312;0,00731603
1930,3954;0,00741466
1931,3596;0,00749451
1932,3239;0,00751141
1933,2881;0,00744585
1934,2523;0,00731065
1935,2166;0,00715116
1936,1808;0,00703266
1937,1450;0,00701565
1938,1093;0,00713051
1939,0735;0,00736315
1940,0377;0,00765275
1941,0020;0,00790108
1941,9662;0,00800214
1942,9304;0,0078941
1943,8947;0,00760012
1944,8589;0,00721604
1945,8231;0,00685454
1946,7874;0,0065933
1947,7516;0,00645272
1948,7158;0,00639915
1949,6801;0,006367
1950,6443;0,00629452
1951,6085;0,00615783
1952,5728;0,00598216
1953,5370;0,00582132
1954,5012;0,00571749
1955,4655;0,00566793
1956,4297;0,00562214
1957,3939;0,00551313
1958,3582;0,00530325
1959,3224;0,00501502
1960,2866;0,00472471
1961,2509;0,00451991
1962,2151;0,00444806
1963,1793;0,00448971
1964,1436;0,00456914
1965,1078;0,0045899
1966,0720;0,0044772
1967,0363;0,00421269
1968,0005;0,00384472
1968,9647;0,00346202
1969,9290;0,00314363
1970,8932;0,00291815
1971,8574;0,00275635
1972,8217;0,00259998
1973,7859;0,0024123
1974,7501;0,00222153
1975,7144;0,00212596
1976,6786;0,00223646
1977,6428;0,00258875
1978,6071;0,00309807
1979,5713;0,00360276
1980,5355;0,00396094
1981,4998;0,00412263
1982,4640;0,00413683
1983,4282;0,00410684
1984,3925;0,00413065
1985,3567;0,00425797
1986,3209;0,00448161
1987,2852;0,00475911
1988,2494;0,00504282
1989,2136;0,00529732
1990,1779;0,0055001
1991,1421;0,00563679
1992,1063;0,00570196
1993,0706;0,00570274
1994,0348;0,00565561
1994,9990;0,00557541
1995,9633;0,00546702
1996,9275;0,0053275
1997,8917;0,00515625
1998,8560;0,00496423
1999,8202;0,00477316
2000,7844;0,00460276
2001,7487;0,00445499
2002,7129;0,00430963
2003,6771;0,00413863
2004,6414;0,00393348
2005,6056;0,00372699
2006,5698;0,00359068
2007,5341;0,00359739
2008,4983;0,00376933
2009,4625;0,00404887
2010,4268;0,00431632
2011,3910;0,004446
2012,3552;0,00436796
2013,3195;0,00410462
2014,2837;0,00376556
2015,2479;0,00350146
2016,2122;0,00343563
2017,1764;0,00360697
2018,1406;0,00395702
2019,1049;0,00436649
2020,0691;0,00471261
2021,0333;0,0049113
2021,9976;0,00493049
2022,9618;0,00478313
2023,9260;0,00451274
2024,8903;0,00417731
2025,8545;0,00383256
2026,8187;0,00351826
2027,7830;0,00325458
2028,7472;0,00305241
2029,7114;0,00293046
2030,6757;0,00292314
2031,6399;0,00306718
2032,6041;0,00337129
2033,5684;0,00379401
2034,5326;0,00425294
2035,4968;0,00466657
2036,4611;0,00499787
2037,4253;0,00526911
2038,3895;0,00553452
2039,3538;0,00583326
2040,3180;0,00615354
2041,2822;0,0064317
2042,2465;0,00658865
2043,2107;0,00658187
2044,1749;0,00644067
2045,1392;0,00626356
2046,1034;0,00617766
2047,0676;0,00627652
2048,0320;0,0065684
2048,9961;0,00697242
2049,9604;0,00737019
2050,9246;0,00767488
2051,8889;0,00787002
2052,8530;0,00800141
2053,8174;0,00813653
2054,7815;0,00831599
2055,7458;0,00852661
2056,7100;0,0087102
2057,6743;0,00880345
2058,6384;0,00878035
2059,6028;0,00866863
2060,5669;0,00853262
2061,5313;0,0084372
2062,4954;0,0084163
2063,4597;0,00846245
2064,4238;0,00853904
2065,3882;0,0086043
2066,3523;0,00863206
2067,3167;0,00862019
2068,2808;0,00858673
2069,2451;0,00855943
2070,2092;0,00856393
2071,1736;0,00861421
2072,1377;0,00870673
2073,1021;0,0088228
2074,0662;0,00893649
2075,0305;0,00902547
2075,9946;0,00907872
2076,9590;0,0090983
2077,9231;0,00909485
2078,8875;0,00908031
2079,8516;0,00906221
2080,8159;0,00904264
2081,7800;0,0090227
2082,7444;0,00900979
2083,7085;0,00902205
2084,6729;0,00908378
2085,6370;0,00921193
2086,6013;0,00939876
2087,5654;0,00960427
2088,5298;0,00976766
2089,4939;0,00983678
2090,4583;0,00979928
2091,4224;0,00969426
2092,3867;0,00959348
2093,3508;0,00956061
2094,3152;0,00961278
2095,2793;0,00970959
2096,2437;0,00977986
2097,2078;0,00976904
2098,1721;0,00967472
2099,1362;0,00954578
2100,1006;0,00945115
2101,0647;0,00943251
2102,0291;0,00949502
2102,9932;0,00960493
2103,9575;0,00971667
2104,9216;0,00979755
2105,8860;0,0098381
2106,8501;0,00984626
2107,8145;0,00983467
2108,7786;0,00981212
2109,7429;0,00978368
2110,7070;0,00975568
2111,6714;0,00973807
2112,6355;0,00974047
2113,5999;0,00976455
2114,5640;0,00980014
2115,5283;0,00982969
2116,4924;0,00983971
2117,4568;0,00983109
2118,4209;0,00982014
2119,3853;0,00982775
2120,3494;0,00986316
2121,3137;0,00991366
2122,2778;0,00994909
2123,2422;0,00993949
2124,2063;0,00987455
2125,1707;0,00977079
2126,1348;0,00966089
2127,0991;0,00957219
2128,0632;0,00950988
2129,0276;0,00945759
2129,9917;0,00939543
2130,9561;0,00932205
2131,9202;0,00926317
2132,8845;0,00925701
2133,8486;0,00932335
2134,8130;0,0094379
2135,7771;0,00953493
2136,7415;0,00954264
2137,7056;0,00942834
2138,6699;0,00922046
2139,6340;0,00899153
2140,5984;0,00881455
2141,5625;0,00872191
2142,5269;0,0086927
2143,4910;0,00867452
2144,4553;0,00862302
2145,4194;0,0085316
2146,3838;0,00843199
2147,3479;0,00836746
2148,3123;0,00835931
2149,2764;0,00838951
2150,2407;0,00840878
2151,2048;0,00836121
2152,1692;0,00820904
2153,1333;0,00794534
2154,0977;0,0075942
2155,0618;0,00720491
2156,0261;0,00684512
2156,9902;0,00658887
2157,9546;0,00649169
2158,9187;0,00655929
2159,8831;0,00673851
2160,8472;0,00694854
2161,8115;0,00712696
2162,7756;0,00725286
2163,7400;0,00733935
2164,7041;0,0074113
2165,6685;0,00748432
2166,6326;0,00755343
2167,5969;0,00759476
2168,5610;0,00757908
2169,5254;0,00749139
2170,4895;0,00734867
2171,4539;0,00720664
2172,4180;0,00714723
2173,3823;0,00724505
2174,3464;0,007525
2175,3108;0,00793664
2176,2749;0,0083676
2177,2393;0,00869376
2178,2034;0,00883583
2179,1677;0,0087883
2180,1318;0,00860817
2181,0962;0,0083774
2182,0603;0,00816663
2183,0247;0,00802158
2183,9888;0,00797138
2184,9531;0,00803814
2185,9172;0,00822872
2186,8816;0,00851323
2187,8457;0,00881508
2188,8101;0,00903405
2189,7742;0,00909746
2190,7385;0,00900651
2191,7026;0,00884119
2192,6670;0,00871434
2193,6311;0,00870319
2194,5955;0,00880457
2195,5596;0,00894394
2196,5239;0,00903042
2197,4880;0,00901843
2198,4524;0,00893357
2199,4165;0,00884819
2200,3809;0,00882827
2201,3450;0,00889106
2202,3093;0,00900034
2203,2734;0,00909666
2204,2378;0,00913613
2205,2019;0,00911109
2206,1663;0,00904463
2207,1304;0,00897119
2208,0947;0,00892147
2209,0588;0,00891899
2210,0232;0,00898192
2210,9873;0,00911936
2211,9517;0,00932039
2212,9158;0,00954577
2213,8801;0,00973502
2214,8442;0,00983034
2215,8086;0,00980435
2216,7727;0,00967347
2217,7371;0,00948831
2218,7012;0,00930891
2219,6655;0,00918231
2220,6296;0,00913422
2221,5940;0,00917313
2222,5581;0,00929538
2223,5225;0,00948288
2224,4866;0,00969713
2225,4509;0,00988116
2226,4150;0,00997703
2227,3794;0,00995256
2228,3435;0,00982344
2229,3079;0,00965105
2230,2720;0,00951713
2231,2363;0,00948783
2232,2004;0,00958592
2233,1648;0,00978419
2234,1289;0,0100207
2235,0933;0,0102263
2236,0574;0,0103517
2237,0217;0,0103827
2237,9858;0,0103389
2238,9502;0,0102592
2239,9143;0,0101804
2240,8787;0,0101219
2241,8428;0,0100839
2242,8071;0,0100575
2243,7712;0,0100383
2244,7356;0,0100329
2245,6997;0,0100527
2246,6641;0,0101025
2247,6282;0,010175
2248,5925;0,0102562
2249,5566;0,0103375
2250,5210;0,0104228
2251,4851;0,0105241
2252,4495;0,0106479
2253,4136;0,0107851
2254,3779;0,0109116
2255,3420;0,0110014
2256,3064;0,0110396
2257,2705;0,0110279
2258,2349;0,0109807
2259,1990;0,0109168
2260,1633;0,010855
2261,1274;0,0108113
2262,0918;0,0107972
2263,0559;0,0108135
2264,0203;0,0108467
2264,9844;0,0108726
2265,9487;0,0108692
2266,9128;0,0108325
2267,8772;0,0107833
2268,8413;0,0107576
2269,8057;0,0107864
2270,7698;0,0108769
2271,7341;0,0110069
2272,6982;0,0111361
2273,6626;0,0112262
2274,6267;0,0112588
2275,5911;0,0112418
2276,5552;0,0112032
2277,5195;0,0111769
2278,4836;0,0111899
2279,4480;0,011254
2280,4121;0,0113665
2281,3765;0,0115174
2282,3406;0,0116971
2283,3049;0,0119017
2284,2690;0,0121322
2285,2334;0,0123908
2286,1975;0,0126767
2287,1619;0,0129847
2288,1260;0,0133088
2289,0903;0,0136448
2290,0544;0,0139923
2291,0188;0,0143518
2291,9829;0,014723
2292,9473;0,0151042
2293,9114;0,0154951
2294,8757;0,0158986
2295,8398;0,0163177
2296,8042;0,0167493
2297,7683;0,0171779
2298,7327;0,017579
2299,6968;0,0179304
2300,6611;0,0182283
2301,6252;0,018497
2302,5896;0,0187835
2303,5537;0,0191398
2304,5181;0,0195993
2305,4822;0,0201575
2306,4465;0,0207655
2307,4106;0,0213384
2308,3750;0,0217785
2309,3391;0,0220063
2310,3035;0,0219906
2311,2676;0,021764
2312,2319;0,0214148
2313,1960;0,0210532
2314,1604;0,020768
2315,1245;0,0205981
2316,0889;0,020532
2317,0530;0,020532
2318,0173;0,0205632
2318,9814;0,0206096
2319,9458;0,0206712
2320,9099;0,0207486
2321,8743;0,0208306
2322,8384;0,0208935
2323,8027;0,0209061
2324,7668;0,0208358
2325,7312;0,0206561
2326,6953;0,0203556
2327,6597;0,0199417
2328,6238;0,0194357
2329,5881;0,0188641
2330,5522;0,018257
2331,5166;0,0176486
2332,4807;0,017072
2333,4451;0,0165515
2334,4092;0,0161031
2335,3735;0,0157474
2336,3376;0,0155207
2337,3020;0,0154704
2338,2661;0,0156326
2339,2305;0,0160033
2340,1946;0,0165162
2341,1589;0,0170396
2342,1230;0,0174156
2343,0874;0,0175746
2344,0515;0,0176799
2345,0159;0,0180661
2345,9800;0,0189154
2346,9443;0,0200577
2347,9084;0,0211104
2348,8728;0,0217328
2349,8369;0,0217796
2350,8013;0,0213298
2351,7654;0,0206248
2352,7297;0,019942
2353,6938;0,0194645
2354,6582;0,0192358
2355,6223;0,0192112
2356,5867;0,0193062
2357,5508;0,0194064
2358,5151;0,0194001
2359,4792;0,019248
2360,4436;0,0190127
2361,4077;0,018794
2362,3721;0,0186358
2363,3362;0,0185019
2364,3005;0,0183307
2365,2646;0,018096
2366,2290;0,0178174
2367,1931;0,0175284
2368,1575;0,0172507
2369,1216;0,0169946
2370,0859;0,0167724
2371,0500;0,0166033
2372,0144;0,0165057
2372,9785;0,0164889
2373,9429;0,0165499
2374,9070;0,0166768
2375,8713;0,0168506
2376,8354;0,0170449
2377,7998;0,0172231
2378,7639;0,0173379
2379,7283;0,0173357
2380,6924;0,0171679
2381,6567;0,0168044
2382,6208;0,0162469
2383,5852;0,0155347
2384,5493;0,0147393
2385,5137;0,0139485
2386,4778;0,0132445
2387,4421;0,0126831
2388,4063;0,0122818
2389,3706;0,0120225
2390,3347;0,0118657
2391,2991;0,0117692
2392,2632;0,0117033
2393,2275;0,0116555
2394,1917;0,0116259
2395,1560;0,0116179
2396,1201;0,0116313
2397,0845;0,0116598
2398,0486;0,0116946
2399,0129;0,0117258
2399,9771;0,0117456
2400,9414;0,0117504
2401,9055;0,0117396
2402,8699;0,0117172
2403,8340;0,0116916
2404,7983;0,0116745
2405,7625;0,0116766
2406,7268;0,0117025
2407,6909;0,0117481
2408,6553;0,0118015
2409,6194;0,0118481
2410,5837;0,011878
2411,5479;0,0118901
2412,5122;0,0118918
2413,4763;0,0118932
2414,4407;0,0119023
2415,4048;0,0119206
2416,3691;0,0119448
2417,3333;0,01197
2418,2976;0,0119929
2419,2617;0,0120126
2420,2261;0,0120289
2421,1902;0,0120398
2422,1545;0,0120426
2423,1187;0,0120365
2424,0830;0,0120243
2425,0471;0,0120125
2426,0115;0,0120076
2426,9756;0,0120129
2427,9399;0,012027
2428,9041;0,012047
2429,8684;0,0120718
2430,8325;0,012104
2431,7969;0,0121475
2432,7610;0,0122029
2433,7253;0,0122643
2434,6895;0,0123195
2435,6538;0,0123552
2436,6179;0,0123628
2437,5823;0,0123426
2438,5464;0,0123043
2439,5107;0,012264
2440,4749;0,0122392
2441,4392;0,0122432
2442,4033;0,0122816
2443,3677;0,0123503
2444,3318;0,0124374
2445,2961;0,0125265
2446,2603;0,0126022
2447,2246;0,0126543
2448,1887;0,0126801
2449,1531;0,012684
2450,1172;0,0126755
2451,0815;0,0126664
2452,0457;0,0126678
2453,0100;0,0126873
2453,9741;0,0127273
2454,9385;0,0127836
2455,9026;0,0128468
2456,8669;0,0129051
2457,8311;0,0129488
2458,7954;0,0129724
2459,7595;0,0129759
2460,7239;0,0129626
2461,6880;0,0129373
2462,6523;0,0129054
2463,6165;0,0128735
2464,5808;0,0128502
2465,5449;0,012845
2466,5093;0,0128648
2467,4734;0,0129095
2468,4377;0,0129694
2469,4019;0,0130273
2470,3662;0,013065
2471,3303;0,0130723
2472,2947;0,0130522
2473,2588;0,0130209
2474,2231;0,0129998
2475,1873;0,0130057
2476,1516;0,0130419
2477,1157;0,013097
2478,0801;0,0131516
2479,0442;0,0131882
2480,0085;0,0132007
2480,9727;0,0131963
2481,9370;0,0131903
2482,9011;0,013197
2483,8655;0,0132216
2484,8296;0,0132581
2485,7939;0,0132938
2486,7581;0,0133178
2487,7224;0,0133265
2488,6865;0,0133256
2489,6509;0,0133245
2490,6150;0,0133297
2491,5793;0,0133392
2492,5435;0,0133435
2493,5078;0,0133313
2494,4719;0,0132987
2495,4363;0,0132545
2496,4004;0,013219
2497,3647;0,0132149
2498,3289;0,013256
2499,2932;0,0133376
2500,2573;0,0134372
2501,2217;0,0135226
2502,1858;0,0135659
2503,1501;0,0135559
2504,1143;0,0135022
2505,0786;0,0134312
2506,0427;0,0133748
2507,0071;0,0133581
2507,9712;0,0133905
2508,9355;0,013463
2509,8997;0,0135531
2510,8640;0,0136339
2511,8281;0,0136848
2512,7925;0,013699
2513,7566;0,0136845
2514,7209;0,0136576
2515,6851;0,0136335
2516,6494;0,0136192
2517,6135;0,0136122
2518,5779;0,0136061
2519,5420;0,0135982
2520,5063;0,013593
2521,4705;0,0135995
2522,4348;0,0136237
2523,3989;0,0136633
2524,3633;0,0137076
2525,3274;0,0137445
2526,2917;0,0137673
2527,2559;0,0137777
2528,2202;0,0137828
2529,1843;0,0137883
2530,1487;0,0137954
2531,1128;0,013801
2532,0771;0,0138023
2533,0413;0,0137993
2534,0056;0,0137947
2534,9697;0,0137908
2535,9341;0,0137878
2536,8982;0,0137845
2537,8625;0,0137814
2538,8267;0,0137817
2539,7910;0,0137886
2540,7551;0,0138019
2541,7195;0,013816
2542,6836;0,0138235
2543,6479;0,0138218
2544,6121;0,0138168
2545,5764;0,0138208
2546,5405;0,0138444
2547,5049;0,0138877
2548,4690;0,0139383
2549,4333;0,0139769
2550,3975;0,0139877
2551,3618;0,0139674
2552,3259;0,013927
2553,2903;0,0138853
2554,2544;0,0138599
2555,2188;0,013859
2556,1829;0,0138796
2557,1472;0,0139113
2558,1113;0,013943
2559,0757;0,0139672
2560,0398;0,0139823
2561,0042;0,0139901
2561,9683;0,0139929
2562,9326;0,0139916
2563,8967;0,0139864
2564,8611;0,0139788
2565,8252;0,0139721
2566,7896;0,0139701
2567,7537;0,0139747
2568,7180;0,0139851
2569,6821;0,0139988
2570,6465;0,0140153
2571,6106;0,0140367
2572,5750;0,0140656
2573,5391;0,0141008
2574,5034;0,0141346
2575,4675;0,0141553
2576,4319;0,0141541
2577,3960;0,0141321
2578,3604;0,0141013
2579,3245;0,0140788
2580,2888;0,0140775
2581,2529;0,0140994
2582,2173;0,0141365
2583,1814;0,0141768
2584,1458;0,0142111
2585,1099;0,0142368
2586,0742;0,0142559
2587,0383;0,0142709
2588,0027;0,014282
2588,9668;0,0142875
2589,9312;0,0142864
2590,8953;0,0142807
2591,8596;0,0142755
2592,8237;0,0142771
2593,7881;0,0142891
2594,7522;0,01431
2595,7166;0,0143335
2596,6807;0,0143524
2597,6450;0,0143629
2598,6091;0,0143686
2599,5735;0,0143799
2600,5376;0,014408
2601,5020;0,0144583
2602,4661;0,0145255
2603,4304;0,014596
2604,3945;0,0146548
2605,3589;0,0146943
2606,3230;0,0147173
2607,2874;0,0147341
2608,2515;0,0147546
2609,2158;0,0147819
2610,1799;0,014811
2611,1443;0,0148333
2612,1084;0,0148427
2613,0728;0,0148405
2614,0369;0,0148349
2615,0012;0,0148368
2615,9653;0,0148542
2616,9297;0,0148882
2617,8938;0,0149327
2618,8582;0,0149767
2619,8223;0,0150097
2620,7866;0,015026
2621,7507;0,0150265
2622,7151;0,0150179
2623,6792;0,0150089
2624,6436;0,0150066
2625,6077;0,0150156
2626,5720;0,0150378
2627,5361;0,0150737
2628,5005;0,0151226
2629,4646;0,0151808
2630,4290;0,0152416
2631,3931;0,0152965
2632,3574;0,015339
2633,3215;0,0153677
2634,2859;0,0153871
2635,2500;0,0154045
2636,2144;0,015425
2637,1785;0,0154499
2638,1428;0,0154763
2639,1069;0,0155017
2640,0713;0,0155259
2641,0354;0,0155517
2641,9998;0,0155823
2642,9639;0,0156187
2643,9282;0,0156585
2644,8923;0,0156981
2645,8567;0,0157344
2646,8208;0,0157668
2647,7852;0,0157962
2648,7493;0,0158238
2649,7136;0,0158492
2650,6777;0,0158712
2651,6421;0,0158892
2652,6062;0,0159049
2653,5706;0,0159221
2654,5347;0,015945
2655,4990;0,0159764
2656,4631;0,0160155
2657,4275;0,0160585
2658,3916;0,0161005
2659,3560;0,0161381
2660,3201;0,0161711
2661,2844;0,0162018
2662,2485;0,0162333
2663,2129;0,0162668
2664,1770;0,0163005
2665,1414;0,0163311
2666,1055;0,0163556
2667,0698;0,0163746
2668,0339;0,016392
2668,9983;0,0164135
2669,9624;0,0164431
2670,9268;0,0164806
2671,8909;0,0165219
2672,8552;0,0165613
2673,8193;0,0165949
2674,7837;0,0166222
2675,7478;0,0166448
2676,7122;0,0166649
2677,6763;0,0166832
2678,6406;0,0166997
2679,6047;0,0167156
2680,5691;0,0167347
2681,5332;0,0167621
2682,4976;0,0168009
2683,4617;0,0168496
2684,4260;0,0169011
2685,3901;0,0169465
2686,3545;0,0169798
2687,3186;0,0170009
2688,2830;0,0170159
2689,2471;0,0170329
2690,2114;0,0170584
2691,1755;0,0170936
2692,1399;0,0171349
2693,1040;0,0171767
2694,0684;0,017214
2695,0325;0,0172449
2695,9968;0,0172706
2696,9609;0,0172942
2697,9253;0,0173186
2698,8894;0,0173462
2699,8538;0,017378
2700,8179;0,0174149
2701,7822;0,0174572
2702,7463;0,0175043
2703,7107;0,0175538
2704,6748;0,0176018
2705,6392;0,0176442
2706,6033;0,017679
2707,5676;0,017708
2708,5317;0,0177358
2709,4961;0,0177671
2710,4602;0,0178037
2711,4246;0,0178443
2712,3887;0,0178853
2713,3530;0,0179243
2714,3171;0,017961
2715,2815;0,017997
2716,2456;0,0180338
2717,2100;0,0180713
2718,1741;0,0181082
2719,1384;0,0181434
2720,1025;0,0181762
2721,0669;0,0182062
2722,0310;0,0182321
2722,9954;0,018252
2723,9595;0,0182648
2724,9238;0,0182723
2725,8879;0,0182798
2726,8523;0,0182946
2727,8164;0,0183219
2728,7808;0,018362
2729,7449;0,0184101
2730,7092;0,0184585
2731,6733;0,018501
2732,6377;0,0185352
2733,6018;0,018563
2734,5662;0,0185885
2735,5303;0,0186147
2736,4946;0,0186415
2737,4587;0,0186667
2738,4231;0,0186882
2739,3872;0,0187063
2740,3516;0,0187245
2741,3157;0,0187474
2742,2800;0,0187773
2743,2441;0,0188122
2744,2085;0,0188462
2745,1726;0,0188726
2746,1370;0,0188881
2747,1011;0,0188946
2748,0654;0,0188985
2749,0295;0,0189078
2749,9939;0,0189283
2750,9580;0,0189619
2751,9224;0,0190062
2752,8865;0,0190562
2753,8508;0,0191062
2754,8149;0,0191519
2755,7793;0,0191911
2756,7434;0,0192241
2757,7078;0,0192528
2758,6719;0,0192794
2759,6362;0,0193059
2760,6003;0,0193338
2761,5647;0,019364
2762,5288;0,0193974
2763,4932;0,0194341
2764,4573;0,0194736
2765,4216;0,0195148
2766,3857;0,0195573
2767,3501;0,0196017
2768,3142;0,0196492
2769,2786;0,0197002
2770,2427;0,0197526
2771,2070;0,019802
2772,1711;0,0198437
2773,1355;0,0198764
2774,0996;0,0199038
2775,0640;0,0199324
2776,0281;0,0199679
2776,9924;0,0200116
2777,9565;0,0200601
2778,9209;0,0201095
2779,8850;0,0201589
2780,8494;0,020212
2781,8135;0,0202748
2782,7778;0,0203496
2783,7419;0,0204322
2784,7063;0,0205126
2785,6704;0,0205798
2786,6348;0,0206275
2787,5989;0,020658
2788,5632;0,0206812
2789,5273;0,0207102
2790,4917;0,0207565
2791,4558;0,0208258
2792,4202;0,0209165
2793,3843;0,0210209
2794,3486;0,0211281
2795,3127;0,021228
2796,2771;0,0213147
2797,2412;0,0213885
2798,2056;0,0214554
2799,1697;0,021524
2800,1340;0,021601
2801,0981;0,0216888
2802,0625;0,0217844
2803,0266;0,0218823
2803,9910;0,0219772
2804,9551;0,0220665
2805,9194;0,0221508
2806,8835;0,022233
2807,8479;0,0223168
2808,8120;0,0224053
2809,7764;0,0225013
2810,7405;0,0226066
2811,7048;0,0227227
2812,6689;0,0228497
2813,6333;0,0229862
2814,5974;0,0231289
2815,5618;0,0232729
2816,5259;0,0234139
2817,4902;0,0235505
2818,4543;0,023685
2819,4187;0,0238228
2820,3828;0,02397
2821,3472;0,0241292
2822,3113;0,0242992
2823,2756;0,0244757
2824,2397;0,0246548
2825,2041;0,0248361
2826,1682;0,0250226
2827,1326;0,0252186
2828,0967;0,0254266
2829,0610;0,0256458
2830,0251;0,0258736
2830,9895;0,0261079
2831,9536;0,0263486
2832,9180;0,0265973
2833,8821;0,0268554
2834,8464;0,027123
2835,8105;0,0273992
2836,7749;0,0276837
2837,7390;0,0279789
2838,7034;0,0282896
2839,6675;0,0286223
2840,6318;0,0289837
2841,5959;0,0293781
2842,5603;0,0298063
2843,5244;0,030263
2844,4888;0,0307356
2845,4529;0,0312038
2846,4172;0,031642
2847,3813;0,0320233
2848,3457;0,0323262
2849,3098;0,0325393
2850,2742;0,0326646
2851,2383;0,0327163
2852,2026;0,0327168
2853,1667;0,0326902
2854,1311;0,0326566
2855,0952;0,0326281
2856,0596;0,0326092
2857,0237;0,0326004
2857,9880;0,0326022
2858,9521;0,0326188
2859,9165;0,0326568
2860,8806;0,0327224
2861,8450;0,0328176
2862,8091;0,0329397
2863,7734;0,033083
2864,7375;0,0332424
2865,7019;0,0334144
2866,6660;0,0335963
2867,6304;0,0337829
2868,5945;0,0339649
2869,5588;0,0341302
2870,5229;0,0342676
2871,4873;0,0343721
2872,4514;0,0344476
2873,4158;0,0345057
2874,3799;0,0345612
2875,3442;0,0346257
2876,3083;0,0347039
2877,2727;0,0347929
2878,2368;0,0348845
2879,2012;0,0349706
2880,1653;0,035047
2881,1296;0,035115
2882,0938;0,0351801
2883,0581;0,0352485
2884,0222;0,0353236
2884,9866;0,0354045
2885,9507;0,0354871
2886,9150;0,0355669
2887,8792;0,0356426
2888,8435;0,0357165
2889,8076;0,0357937
2890,7720;0,0358789
2891,7361;0,0359732
2892,7004;0,0360733
2893,6646;0,0361734
2894,6289;0,0362682
2895,5930;0,0363557
2896,5574;0,0364376
2897,5215;0,0365173
2898,4858;0,0365971
2899,4500;0,0366762
2900,4143;0,0367521
2901,3784;0,0368225
2902,3428;0,0368883
2903,3069;0,0369543
2904,2712;0,0370277
2905,2354;0,0371157
2906,1997;0,0372235
2907,1638;0,0373543
2908,1282;0,0375104
2909,0923;0,037694
2910,0566;0,0379062
2911,0208;0,0381444
2911,9851;0,0383999
2912,9492;0,0386569
2913,9136;0,0388944
2914,8777;0,0390906
2915,8420;0,0392271
2916,8062;0,0392932
2917,7705;0,039286
2918,7346;0,0392107
2919,6990;0,0390777
2920,6631;0,0389007
2921,6274;0,0386937
2922,5916;0,0384691
2923,5559;0,0382354
2924,5200;0,0379974
2925,4844;0,0377568
2926,4485;0,0375149
2927,4128;0,0372732
2928,3770;0,0370345
2929,3413;0,0368014
2930,3054;0,0365741
2931,2698;0,0363508
2932,2339;0,0361279
2933,1982;0,0359027
2934,1624;0,0356746
2935,1267;0,0354455
2936,0908;0,0352178
2937,0552;0,0349916
2938,0193;0,0347638
2938,9836;0,0345285
2939,9478;0,0342791
2940,9121;0,0340111
2941,8762;0,0337241
2942,8406;0,0334215
2943,8047;0,0331103
2944,7690;0,0327988
2945,7332;0,032496
2946,6975;0,0322096
2947,6616;0,0319451
2948,6260;0,0317038
2949,5901;0,0314819
2950,5544;0,0312711
2951,5186;0,031061
2952,4829;0,0308439
2953,4470;0,0306176
2954,4114;0,0303868
2955,3755;0,0301597
2956,3398;0,0299437
2957,3040;0,0297417
2958,2683;0,029552
2959,2324;0,0293716
2960,1968;0,0291989
2961,1609;0,0290354
2962,1252;0,0288823
2963,0894;0,0287376
2964,0537;0,0285944
2965,0178;0,0284439
2965,9822;0,0282805
2966,9463;0,0281055
2967,9106;0,0279267
2968,8748;0,0277532
2969,8391;0,0275899
2970,8032;0,0274346
2971,7676;0,0272808
2972,7317;0,0271221
2973,6960;0,026957
2974,6602;0,026789
2975,6245;0,026624
2976,5886;0,0264664
2977,5530;0,0263168
2978,5171;0,0261735
2979,4814;0,026035
2980,4456;0,0259021
2981,4099;0,0257782
2982,3740;0,0256678
2983,3384;0,0255743
2984,3025;0,0254986
2985,2668;0,0254387
2986,2310;0,0253901
2987,1953;0,0253477
2988,1594;0,025307
2989,1238;0,0252665
2990,0879;0,0252276
2991,0522;0,0251936
2992,0164;0,0251665
2992,9807;0,0251445
2993,9448;0,0251227
2994,9092;0,0250966
2995,8733;0,0250668
2996,8376;0,0250414
2997,8018;0,0250334
2998,7661;0,0250542
2999,7302;0,0251068
3000,6946;0,025183
3001,6587;0,0252666
3002,6230;0,0253408
3003,5872;0,0253956
3004,5515;0,025432
3005,5156;0,0254595
3006,4800;0,0254914
3007,4441;0,0255378
3008,4084;0,0256021
3009,3726;0,0256796
3010,3369;0,0257601
3011,3010;0,0258314
3012,2654;0,0258836
3013,2295;0,0259134
3014,1938;0,0259242
3015,1580;0,0259254
3016,1223;0,0259287
3017,0864;0,0259443
3018,0508;0,0259788
3019,0149;0,0260337
3019,9792;0,026106
3020,9434;0,0261887
3021,9077;0,0262738
3022,8718;0,0263549
3023,8362;0,0264319
3024,8003;0,0265129
3025,7646;0,0266118
3026,7288;0,026741
3027,6931;0,0269033
3028,6572;0,0270866
3029,6216;0,0272666
3030,5857;0,0274166
3031,5500;0,0275193
3032,5142;0,0275743
3033,4785;0,0275971
3034,4426;0,0276101
3035,4070;0,0276329
3036,3711;0,0276763
3037,3354;0,0277422
3038,2996;0,0278268
3039,2639;0,0279242
3040,2280;0,0280299
3041,1924;0,0281416
3042,1565;0,0282605
3043,1208;0,02839
3044,0850;0,0285333
3045,0493;0,0286894
3046,0134;0,0288507
3046,9778;0,0290043
3047,9419;0,0291384
3048,9063;0,0292495
3049,8704;0,0293458
3050,8347;0,0294444
3051,7988;0,0295619
3052,7632;0,0297055
3053,7273;0,0298687
3054,6917;0,0300357
3055,6558;0,0301897
3056,6201;0,0303226
3057,5842;0,0304397
3058,5486;0,0305566
3059,5127;0,0306904
3060,4771;0,0308507
3061,4412;0,0310339
3062,4055;0,031223
3063,3696;0,0313951
3064,3340;0,0315312
3065,2981;0,0316253
3066,2625;0,0316876
3067,2266;0,0317393
3068,1909;0,0318026
3069,1550;0,0318905
3070,1194;0,0320032
3071,0835;0,0321319
3072,0479;0,0322665
3073,0120;0,0324025
3073,9763;0,0325429
3074,9404;0,0326949
3075,9048;0,0328629
3076,8689;0,033043
3077,8333;0,0332227
3078,7974;0,0333854
3079,7617;0,0335181
3080,7258;0,0336188
3081,6902;0,033698
3082,6543;0,0337751
3083,6187;0,033869
3084,5828;0,0339898
3085,5471;0,0341342
3086,5112;0,0342886
3087,4756;0,0344372
3088,4397;0,0345714
3089,4041;0,0346938
3090,3682;0,0348151
3091,3325;0,0349468
3092,2966;0,0350937
3093,2610;0,0352527
3094,2251;0,0354175
3095,1895;0,0355843
3096,1536;0,0357545
3097,1179;0,0359312
3098,0820;0,0361132
3099,0464;0,0362912
3100,0105;0,0364507
3100,9749;0,0365801
3101,9390;0,0366794
3102,9033;0,036762
3103,8674;0,0368493
3104,8318;0,0369603
3105,7959;0,0371029
3106,7603;0,0372716
3107,7244;0,0374532
3108,6887;0,0376348
3109,6528;0,0378123
3110,6172;0,0379906
3111,5813;0,0381787
3112,5457;0,0383811
3113,5098;0,0385928
3114,4741;0,038801
3115,4382;0,0389926
3116,4026;0,0391626
3117,3667;0,0393164
3118,3311;0,0394663
3119,2952;0,0396223
3120,2595;0,0397861
3121,2236;0,0399507
3122,1880;0,0401057
3123,1521;0,0402441
3124,1165;0,0403663
3125,0806;0,0404799
3126,0449;0,0405965
3127,0090;0,0407276
3127,9734;0,0408816
3128,9375;0,0410617
3129,9019;0,0412639
3130,8660;0,0414779
3131,8303;0,0416893
3132,7944;0,0418847
3133,7588;0,0420563
3134,7229;0,0422043
3135,6873;0,0423354
3136,6514;0,0424592
3137,6157;0,0425853
3138,5798;0,0427219
3139,5442;0,0428758
3140,5083;0,0430514
3141,4727;0,0432493
3142,4368;0,0434651
3143,4011;0,0436906
3144,3652;0,0439168
3145,3296;0,0441364
3146,2937;0,0443454
3147,2581;0,0445425
3148,2222;0,044728
3149,1865;0,0449031
3150,1506;0,0450707
3151,1150;0,0452349
3152,0791;0,0454006
3153,0435;0,0455716
3154,0076;0,0457498
3154,9719;0,0459357
3155,9360;0,0461297
3156,9004;0,0463324
3157,8645;0,0465431
3158,8289;0,0467583
3159,7930;0,0469719
3160,7573;0,0471773
3161,7214;0,0473716
3162,6858;0,0475569
3163,6499;0,0477397
3164,6143;0,0479276
3165,5784;0,048125
3166,5427;0,0483314
3167,5068;0,0485426
3168,4712;0,0487527
3169,4353;0,048789
3170,3997;0,0489921
3171,3638;0,0491986
3172,3281;0,0494141
3173,2922;0,0496403
3174,2566;0,0498724
3175,2207;0,0500997
3176,1851;0,0503106
3177,1492;0,0504996
3178,1135;0,0506715
3179,0776;0,0508398
3180,0420;0,0510182
3181,0061;0,0512125
3181,9705;0,0514174
3182,9346;0,0516212
3183,8989;0,0518143
3184,8630;0,0519946
3185,8274;0,0521683
3186,7915;0,0523432
3187,7559;0,0525236
3188,7200;0,0527089
3189,6843;0,0528969
3190,6484;0,0530885
3191,6128;0,0532876
3192,5769;0,0534973
3193,5413;0,0537145
3194,5054;0,053929
3195,4697;0,054128
3196,4338;0,0543035
3197,3982;0,0544572
3198,3623;0,0545989
3199,3267;0,0547409
3200,2908;0,0548913
3201,2551;0,0550523
3202,2192;0,0552223
3203,1836;0,0553987
3204,1477;0,0555802
3205,1121;0,0557656
3206,0762;0,0559538
3207,0405;0,0561431
3208,0046;0,0563333
3208,9690;0,0565251
3209,9331;0,0567193
3210,8975;0,0569143
3211,8616;0,0571067
3212,8259;0,0572932
3213,7900;0,0574737
3214,7544;0,0576519
3215,7185;0,057833
3216,6829;0,0580187
3217,6470;0,0582053
3218,6113;0,058385
3219,5754;0,0585513
3220,5398;0,0587036
3221,5039;0,0588483
3222,4683;0,0589963
3223,4324;0,0591564
3224,3967;0,0593324
3225,3608;0,0595212
3226,3252;0,0597151
3227,2893;0,0599049
3228,2537;0,0600834
3229,2178;0,0602483
3230,1821;0,0604025
3231,1462;0,0605529
3232,1106;0,0607058
3233,0747;0,0608633
3234,0391;0,0610225
3235,0032;0,0611781
3235,9675;0,0613282
3236,9316;0,061479
3237,8960;0,0616435
3238,8601;0,061835
3239,8245;0,0620581
3240,7886;0,062303
3241,7529;0,0625478
3242,7170;0,0627678
3243,6814;0,0629458
3244,6455;0,0630802
3245,6099;0,063185
3246,5740;0,0632827
3247,5383;0,0633943
3248,5024;0,0635323
3249,4668;0,0636992
3250,4309;0,0638906
3251,3953;0,0640987
3252,3594;0,0643158
3253,3237;0,064535
3254,2878;0,0647507
3255,2522;0,0649585
3256,2163;0,0651554
3257,1807;0,0653398
3258,1448;0,0655126
3259,1091;0,0656773
3260,0732;0,0658393
3261,0376;0,0660048
3262,0017;0,0661777
3262,9661;0,066358
3263,9302;0,0665423
3264,8945;0,066726
3265,8586;0,0669072
3266,8230;0,0670873
3267,7871;0,0672705
3268,7515;0,0674583
3269,7156;0,067646
3270,6799;0,0678223
3271,6440;0,0679744
3272,6084;0,0680942
3273,5725;0,0681831
3274,5369;0,0682515
3275,5010;0,0683139
3276,4653;0,0683819
3277,4294;0,06846
3278,3938;0,0685461
3279,3579;0,0686342
3280,3223;0,0687185
3281,2864;0,0687957
3282,2507;0,0688652
3283,2148;0,0689277
3284,1792;0,0689844
3285,1433;0,0690361
3286,1077;0,0690834
3287,0718;0,0691277
3288,0361;0,0691708
3289,0002;0,0692143
3289,9646;0,0692576
3290,9287;0,0692966
3291,8931;0,0693247
3292,8572;0,0693352
3293,8215;0,0693269
3294,7856;0,0693057
3295,7500;0,0692828
3296,7141;0,0692697
3297,6785;0,0692719
3298,6426;0,0692856
3299,6069;0,0693012
3300,5710;0,0693096
3301,5354;0,0693091
3302,4995;0,0693068
3303,4639;0,0693145
3304,4280;0,0693401
3305,3923;0,0693817
3306,3564;0,0694275
3307,3208;0,0694614
3308,2849;0,0694716
3309,2493;0,0694565
3310,2134;0,0694248
3311,1777;0,0693905
3312,1418;0,0693668
3313,1062;0,0693619
3314,0703;0,0693785
3315,0347;0,0694151
3315,9988;0,0694686
3316,9631;0,0695351
3317,9272;0,0696115
3318,8916;0,0696964
3319,8557;0,0697904
3320,8201;0,0698956
3321,7842;0,0700138
3322,7485;0,0701437
3323,7126;0,070279
3324,6770;0,0704091
3325,6411;0,0705226
3326,6055;0,0706109
3327,5696;0,0706725
3328,5339;0,0707141
3329,4980;0,0707486
3330,4624;0,0707899
3331,4265;0,070847
3332,3909;0,0709193
3333,3550;0,0709945
3334,3193;0,0710519
3335,2834;0,0710704
3336,2478;0,0710381
3337,2119;0,0709575
3338,1763;0,070844
3339,1404;0,0707169
3340,1047;0,0705902
3341,0688;0,0704678
3342,0332;0,0703462
3342,9973;0,0702206
3343,9617;0,0700894
3344,9258;0,0699543
3345,8901;0,0698166
3346,8542;0,0696741
3347,8186;0,0695222
3348,7827;0,0693593
3349,7471;0,0691906
3350,7112;0,0690275
3351,6755;0,0688803
3352,6396;0,0687517
3353,6040;0,0686335
3354,5681;0,068512
3355,5325;0,0683759
3356,4966;0,0682227
3357,4609;0,0680587
3358,4250;0,0678921
3359,3894;0,0677291
3360,3535;0,0675716
3361,3179;0,0674199
3362,2820;0,0672754
3363,2463;0,0671394
3364,2104;0,0670092
3365,1748;0,0668738
3366,1389;0,0667171
3367,1033;0,0665245
3368,0674;0,0662932
3369,0317;0,0660353
3369,9958;0,0657741
3370,9602;0,0655331
3371,9243;0,065326
3372,8887;0,0651514
3373,8528;0,0649951
3374,8171;0,0648384
3375,7813;0,0646673
3376,7456;0,0644789
3377,7097;0,0642821
3378,6741;0,0640924
3379,6382;0,0639229
3380,6025;0,0637772
3381,5667;0,0636459
3382,5310;0,0635115
3383,4951;0,0633577
3384,4595;0,0631803
3385,4236;0,0629912
3386,3879;0,0628129
3387,3521;0,062665
3388,3164;0,0625522
3389,2805;0,0624605
3390,2449;0,0623646
3391,2090;0,0622413
3392,1733;0,0620812
3393,1375;0,0618915
3394,1018;0,0616879
3395,0659;0,0614823
3396,0303;0,061276
3396,9944;0,0610629
3397,9587;0,0608372
3398,9229;0,0605995
3399,8872;0,0603566
3400,8513;0,0601164
3401,8157;0,0598828
3402,7798;0,0596549
3403,7441;0,0594293
3404,7083;0,0592045
3405,6726;0,0589815
3406,6367;0,058764
3407,6011;0,0585549
3408,5652;0,0583545
3409,5295;0,0581586
3410,4937;0,0579582
3411,4580;0,0577432
3412,4221;0,0575081
3413,3865;0,057258
3414,3506;0,0570099
3415,3149;0,0567862
3416,2791;0,0566039
3417,2434;0,0564607
3418,2075;0,0563314
3419,1719;0,056175
3420,1360;0,0559534
3421,1003;0,0556512
3422,0645;0,0552839
3423,0288;0,0548885
3423,9929;0,0545045
3424,9573;0,0541581
3425,9214;0,0538561
3426,8857;0,0535891
3427,8499;0,0533403
3428,8142;0,0530935
3429,7783;0,0528387
3430,7427;0,0525723
3431,7068;0,0522935
3432,6711;0,0520025
3433,6353;0,0517008
3434,5996;0,0513936
3435,5637;0,0510915
3436,5281;0,0508076
3437,4922;0,0505523
3438,4565;0,0503289
3439,4207;0,0501343
3440,3850;0,0499629
3441,3491;0,0498097
3442,3135;0,0496688
3443,2776;0,0495261
3444,2419;0,0493542
3445,2061;0,0491165
3446,1704;0,0487845
3447,1345;0,0483588
3448,0989;0,0478772
3449,0630;0,047398
3450,0273;0,0469697
3450,9915;0,0466114
3451,9558;0,0463129
3452,9199;0,0460497
3453,8843;0,0458005
3454,8484;0,0455582
3455,8127;0,0453295
3456,7769;0,0451242
3457,7412;0,0449433
3458,7053;0,0447735
3459,6697;0,0445912
3460,6338;0,0443729
3461,5981;0,0441067
3462,5623;0,0437964
3463,5266;0,0434578
3464,4907;0,0431078
3465,4551;0,0427572
3466,4192;0,0424095
3467,3835;0,0420668
3468,3477;0,0417363
3469,3120;0,0414297
3470,2761;0,0411553
3471,2405;0,0409089
3472,2046;0,0406732
3473,1689;0,0404282
3474,1331;0,0401683
3475,0974;0,0399111
3476,0615;0,0396892
3477,0259;0,0395262
3477,9900;0,0394159
3478,9543;0,0393176
3479,9185;0,0391739
3480,8828;0,0389428
3481,8469;0,0386235
3482,8113;0,0382569
3483,7754;0,0378967
3484,7397;0,0375754
3485,7039;0,0372908
3486,6682;0,0370174
3487,6323;0,0367302
3488,5967;0,036426
3489,5608;0,0361259
3490,5251;0,03586
3491,4893;0,0356436
3492,4536;0,0354657
3493,4177;0,0352942
3494,3821;0,0350979
3495,3462;0,0348727
3496,3105;0,0346539
3497,2747;0,0344997
3498,2390;0,0344519
3499,2031;0,0345002
3500,1675;0,0345705
3501,1316;0,034548
3502,0959;0,0343357
3503,0601;0,0339218
3504,0244;0,0333989
3504,9885;0,0329044
3505,9529;0,0325325
3506,9170;0,0322882
3507,8813;0,0321003
3508,8455;0,0318713
3509,8098;0,0315382
3510,7739;0,0311087
3511,7383;0,030648
3512,7024;0,0302288
3513,6667;0,0298893
3514,6309;0,029628
3515,5952;0,0294257
3516,5593;0,0292723
3517,5237;0,0291776
3518,4878;0,0291625
3519,4521;0,029236
3520,4163;0,0293772
3521,3806;0,0295322
3522,3447;0,0296314
3523,3091;0,0296165
3524,2732;0,0294609
3525,2375;0,0291685
3526,2017;0,0287566
3527,1660;0,0282457
3528,1301;0,0276647
3529,0945;0,0270642
3530,0586;0,0265141
3531,0229;0,0260779
3531,9871;0,0257848
3532,9514;0,0256154
3533,9155;0,0255066
3534,8799;0,0253744
3535,8440;0,0251522
3536,8083;0,024831
3537,7725;0,0244727
3538,7368;0,0241811
3539,7009;0,0240506
3540,6653;0,0241251
3541,6294;0,024378
3542,5938;0,024708
3543,5579;0,0249531
3544,5222;0,0249486
3545,4863;0,0246236
3546,4507;0,02406
3547,4148;0,023439
3548,3792;0,0229182
3549,3433;0,0225526
3550,3076;0,0222964
3551,2717;0,022053
3552,2361;0,0217396
3553,2002;0,0213431
3554,1646;0,020924
3555,1287;0,0205669
3556,0930;0,020323
3557,0571;0,0201948
3558,0215;0,020156
3558,9856;0,020183
3559,9500;0,0202781
3560,9141;0,0204678
3561,8784;0,0207767
3562,8425;0,0211919
3563,8069;0,0216265
3564,7710;0,021882
3565,7354;0,0216755
3566,6995;0,020846
3567,6638;0,0195983
3568,6279;0,0183851
3569,5923;0,0175191
3570,5564;0,0170219
3571,5208;0,0167566
3572,4849;0,0165838
3573,4492;0,0164256
3574,4133;0,016262
3575,3777;0,0161028
3576,3418;0,0159588
3577,3062;0,0158274
3578,2703;0,0156982
3579,2346;0,0155727
3580,1987;0,0154754
3581,1631;0,0154446
3582,1272;0,0155078
3583,0916;0,015663
3584,0557;0,0158653
3585,0200;0,0160048
3585,9841;0,0159067
3586,9485;0,0154498
3587,9126;0,0147539
3588,8770;0,0141373
3589,8411;0,0138297
3590,8054;0,0138296
3591,7695;0,0139934
3592,7339;0,014159
3593,6980;0,014209
3594,6624;0,0141024
3595,6265;0,0138814
3596,5908;0,0136208
3597,5549;0,0133536
3598,5193;0,0130518
3599,4834;0,0126759
3600,4478;0,0122382
3601,4119;0,0118158
3602,3762;0,0114947
3603,3403;0,0113036
3604,3047;0,011202
3605,2688;0,0111097
3606,2332;0,0109442
3607,1973;0,0106616
3608,1616;0,0103023
3609,1257;0,00998742
3610,0901;0,0098372
3611,0542;0,00988346
3612,0186;0,0100541
3612,9827;0,010225
3613,9470;0,010287
3614,9111;0,0101849
3615,8755;0,00991466
3616,8396;0,00949679
3617,8040;0,00896053
3618,7681;0,00836748
3619,7324;0,00785179
3620,6965;0,00757792
3621,6609;0,00760541
3622,6250;0,0078249
3623,5894;0,00804098
3624,5535;0,00809653
3625,5178;0,0079344
3626,4819;0,007567
3627,4463;0,00700069
3628,4104;0,00627289
3629,3748;0,00560306
3630,3389;0,00526384
3631,3032;0,0052638
3632,2673;0,00537383
3633,2317;0,00537378
3634,1958;0,00519115
3635,1602;0,00489085
3636,1243;0,00459159
3637,0886;0,0043796
3638,0527;0,00427223
3639,0171;0,00424062
3639,9812;0,00425434
3640,9456;0,00430425
3641,9097;0,0043912
3642,8740;0,0045041
3643,8381;0,00461993
3644,8025;0,0047283
3645,7666;0,00483337
3646,7310;0,00485857
3647,6951;0,00450271
3648,6594;0,00345628
3649,6235;0,00204013
3650,5879;0,00101363
3651,5520;0,00065918
3652,5164;0,000699821
3653,4805;0,000769792
3654,4448;0,000680737
3655,4089;0,000443164
3656,3733;0,000188439
3657,3374;5,53132E-05
3658,3018;8,34132E-05
3659,2659;0,000193566
3660,2302;0,000273809
3661,1943;0,000277212
3662,1587;0,000243441
3663,1228;0,000241207
3664,0872;0,000293091
3665,0513;0,000361939
3666,0156;0,000398078
3666,9797;0,000390354
3667,9441;0,000353508
3668,9082;0,000283059
3669,8726;0,000174411
3670,8367;6,08936E-05
3671,8010;-3,54372E-05
3672,7651;-0,000138695
3673,7295;-0,000284127
3674,6936;-0,000496718
3675,6580;-0,000753434
3676,6221;-0,00092416
3677,5864;-0,000881884
3678,5505;-0,000666542
3679,5149;-0,000422795
3680,4790;-0,000245258
3681,4434;-0,000133945
3682,4075;-5,41639E-05
3683,3718;-5,46706E-06
3684,3359;-2,77809E-05
3685,3003;-0,000145256
3686,2644;-0,000312234
3687,2288;-0,000436324
3688,1929;-0,000479054
3689,1572;-0,000488986
3690,1213;-0,000480529
3691,0857;-0,000394725
3692,0498;-0,000217076
3693,0142;-7,04245E-06
3693,9783;0,000173805
3694,9426;0,000302023
3695,9067;0,00037847
3696,8711;0,000403468
3697,8352;0,000370967
3698,7996;0,000279794
3699,7637;0,000145161
3700,7280;2,10671E-06
3701,6921;-9,57241E-05
3702,6565;-9,11909E-05
3703,6206;3,7346E-05
3704,5850;0,000248193
3705,5491;0,000461635
3706,5134;0,000615402
3707,4775;0,000692479
3708,4419;0,000685893
3709,4060;0,000526962
3710,3704;0,000108118
3711,3345;-0,000515277
3712,2988;-0,00104403
3713,2629;-0,00121393
3714,2273;-0,00102299
3715,1914;-0,000642196
3716,1558;-0,00023741
3717,1199;0,00011634
3718,0842;0,000428682
3719,0483;0,000744774
3720,0127;0,00109482
3720,9768;0,00146727
3721,9412;0,00181105
3722,9053;0,00205754
3723,8696;0,00215071
3724,8337;0,00207806
3725,7981;0,00188124
3726,7622;0,0016277
3727,7266;0,00136935
3728,6907;0,00113845
3729,6550;0,000981593
3730,6191;0,000981141
3731,5835;0,00121414
3732,5476;0,00163941
3733,5120;0,00200164
3734,4761;0,00196881
3735,4404;0,00152012
3736,4045;0,00104287
3737,3689;0,00087925
3738,3330;0,000983047
3739,2974;0,00104311
3740,2615;0,000761574
3741,2258;3,3066E-05
3742,1899;-0,000997164
3743,1543;-0,00198421
3744,1184;-0,00254771
3745,0828;-0,00250261
3746,0469;-0,00199664
3747,0112;-0,00139585
3747,9753;-0,0010345
3748,9397;-0,00107911
3749,9038;-0,00151936
3750,8682;-0,00212528
3751,8323;-0,00247346
3752,7966;-0,00229479
3753,7607;-0,00172007
3754,7251;-0,00107852
3755,6892;-0,000626419
3756,6536;-0,000466108
3757,6177;-0,00057961
3758,5820;-0,000863602
3759,5461;-0,00115845
3760,5105;-0,00132419
3761,4746;-0,00132021
3762,4390;-0,0012018
3763,4031;-0,00105764
3764,3674;-0,000961083
3765,3315;-0,000954894
3766,2959;-0,00105224
3767,2600;-0,00124139
3768,2244;-0,00149139
3769,1885;-0,00175415
3770,1528;-0,00196315
3771,1169;-0,00205034
3772,0813;-0,00198638
3773,0454;-0,00180861
3774,0098;-0,00160044
3774,9739;-0,00144142
3775,9382;-0,00137121
3776,9023;-0,00138828
3777,8667;-0,00146454
3778,8308;-0,00154655
3779,7952;-0,00156186
3780,7593;-0,00146149
3781,7236;-0,00126325
3782,6877;-0,00104477
3783,6521;-0,000899245
3784,6162;-0,00088897
3785,5806;-0,00101403
3786,5447;-0,00121314
3787,5090;-0,00139989
3788,4731;-0,00151277
3789,4375;-0,00154191
3790,4016;-0,00151661
3791,3660;-0,00146787
3792,3301;-0,0013955
3793,2944;-0,00126654
3794,2585;-0,00105089
3795,2229;-0,000768803
3796,1870;-0,000505505
3797,1514;-0,000373024
3798,1155;-0,000447978
3799,0798;-0,000731112
3800,0439;-0,00114568
3801,0083;-0,00156273
3801,9724;-0,00185731
3802,9368;-0,00199918
3803,9009;-0,00208562
3804,8652;-0,00224853
3805,8293;-0,0025211
3806,7937;-0,0027828
3807,7578;-0,00283344
3808,7222;-0,00256716
3809,6863;-0,00209025
3810,6506;-0,00164738
3811,6147;-0,00143988
3812,5791;-0,00150147
3813,5432;-0,00169599
3814,5076;-0,00181923
3815,4717;-0,00173731
3816,4360;-0,00146774
3817,4001;-0,00115719
3818,3645;-0,000988738
3819,3286;-0,00107963
3820,2930;-0,00139686
3821,2571;-0,00173309
3822,2214;-0,00183617
3823,1855;-0,00162387
3824,1499;-0,00123329
3825,1140;-0,000878488
3826,0784;-0,000705105
3827,0425;-0,00073884
3828,0068;-0,000909703
3828,9709;-0,00111099
3829,9353;-0,0012584
3830,8994;-0,00132194
3831,8638;-0,00132195
3832,8279;-0,00129975
3833,7922;-0,00128212
3834,7563;-0,00125962
3835,7207;-0,0011959
3836,6848;-0,001068
3837,6492;-0,000902819
3838,6133;-0,000760493
3839,5776;-0,000688173
3840,5417;-0,00070769
3841,5061;-0,000825044
3842,4702;-0,00101188
3843,4346;-0,00118209
3844,3987;-0,00121742
3845,3630;-0,00104638
3846,3271;-0,000715989
3847,2915;-0,000391391
3848,2556;-0,000280723
3849,2200;-0,000536104
3850,1841;-0,00118416
3851,1484;-0,00212762
3852,1125;-0,00320642
3853,0769;-0,00414854
3854,0410;-0,00448015
3855,0054;-0,00393913
3855,9695;-0,00283618
3856,9338;-0,00170333
3857,8979;-0,000888917
3858,8623;-0,000470253
3859,8264;-0,000336374
3860,7908;-0,000314339
3861,7549;-0,000290257
3862,7192;-0,000264664
3863,6833;-0,000295281
3864,6477;-0,000401558
3865,6118;-0,000546698
3866,5762;-0,000677568
3867,5403;-0,000751453
3868,5046;-0,000751842
3869,4688;-0,000707505
3870,4331;-0,000685059
3871,3972;-0,000736859
3872,3616;-0,000856505
3873,3257;-0,000993496
3874,2900;-0,00109867
3875,2542;-0,00114686
3876,2185;-0,00112607
3877,1826;-0,00102205
3878,1470;-0,000824319
3879,1111;-0,000557616
3880,0754;-0,00030303
3881,0396;-0,000171157
3882,0039;-0,000245068
3882,9680;-0,000539674
3883,9324;-0,000987628
3884,8965;-0,00144873
3885,8608;-0,00176244
3886,8250;-0,00183612
3887,7893;-0,00169583
3888,7534;-0,00144876
3889,7178;-0,00120631
3890,6819;-0,00103448
3891,6462;-0,000932353
3892,6104;-0,000836432
3893,5747;-0,000685717
3894,5388;-0,000493436
3895,5032;-0,000325087
3896,4673;-0,000220462
3897,4316;-0,000160716
3898,3958;-0,000103956
3899,3601;-3,61658E-05
3900,3242;1,33672E-05
3901,2886;-9,22762E-06
3902,2527;-0,000158613
3903,2170;-0,000455175
3904,1812;-0,0008475
3905,1455;-0,00123005
3906,1096;-0,00151837
3907,0740;-0,00169554
3908,0381;-0,00178826
3909,0024;-0,00182016
3909,9666;-0,00179175
3910,9309;-0,00169143
3911,8950;-0,00151619
3912,8594;-0,00128374
3913,8235;-0,00103245
3914,7878;-0,000815798
3915,7520;-0,00069081
3916,7163;-0,000688979
3917,6804;-0,000776913
3918,6448;-0,000857431
3919,6089;-0,000835048
3920,5732;-0,000686917
3921,5374;-0,000472914
3922,5017;-0,000295277
3923,4658;-0,000239754
3924,4302;-0,000320323
3925,3943;-0,000463838
3926,3586;-0,00056112
3927,3228;-0,000542881
3928,2871;-0,00041649
3929,2512;-0,000255801
3930,2156;-0,0001674
3931,1797;-0,000237738
3932,1440;-0,000475189
3933,1082;-0,000799975
3934,0725;-0,00110305
3935,0366;-0,00131165
3936,0010;-0,00140425
3936,9651;-0,00138834
3937,9294;-0,00128009
3938,8936;-0,00110232
3939,8579;-0,000892577
3940,8220;-0,000702814
3941,7864;-0,000577425
3942,7505;-0,000521593
3943,7148;-0,000493846
3944,6790;-0,000441493
3945,6433;-0,000346218
3946,6074;-0,000243572
3947,5718;-0,000206415
3948,5359;-0,000300861
3949,5002;-0,000536816
3950,4644;-0,000852156
3951,4287;-0,00115062
3952,3928;-0,00135908
3953,3572;-0,00145596
3954,3213;-0,00146237
3955,2856;-0,00141622
3956,2498;-0,0013497
3957,2141;-0,00128009
3958,1782;-0,00121543
3959,1426;-0,00116625
3960,1067;-0,00115116
3961,0710;-0,00118939
3962,0352;-0,00128542
3962,9995;-0,00141931
3963,9636;-0,00155315
3964,9280;-0,00164836
3965,8921;-0,00168392
3966,8564;-0,00166263
3967,8206;-0,00160523
3968,7849;-0,00153661
3969,7490;-0,00147306
3970,7134;-0,00141839
3971,6775;-0,00137083
3972,6418;-0,00133337
3973,6060;-0,00131811
3974,5703;-0,00133988
3975,5344;-0,00140427
3976,4988;-0,00150035
3977,4629;-0,00160476
3978,4272;-0,00169447
3979,3914;-0,00175911
3980,3557;-0,00180436
3981,3198;-0,00184446
3982,2842;-0,00188877
3983,2483;-0,00193205
3984,2126;-0,00195591
3985,1768;-0,00194078
3986,1411;-0,00187981
3987,1052;-0,00178559
3988,0696;-0,00168606
3989,0337;-0,00161106
3989,9980;-0,00157982
3990,9622;-0,00159445
3991,9265;-0,00164373
3992,8906;-0,00171242
3993,8550;-0,0017889
3994,8191;-0,00186641
3995,7834;-0,00193948
3996,7476;-0,00200043
3997,7119;-0,00204005
3998,6760;-0,00205195
3999,6404;-0,00203674
4000,6045;-0,00149836

##### Extended Information
[Comments]
Sample name
Comment
Username
Division
Organization;UNIVERSIDAD INDUSTRIAL DE SANTANDER

[Detailed Information]
Creation date;20/03/2025 1:07 p.m.

Data array type;Linear data array
Horizontal axis;Wavenumber [cm-1]
Vertical axis;Abs
Start;399,193 cm-1
End;4000,6 cm-1
Data interval;0,964233 cm-1
Data points;3736    

[Measurement Information]
Model name;FT/IR-4X1typeA
Serial No.;A035162111

Accessory;ATR PRO 4X
Accessory S/N;A021162126
Incident angle;45 deg

Measurement date;20/03/2025 1:06 p.m.

Light source;Standard
Detector;TGS
Accumulation;40
Resolution;4 cm-1
Zero filling;On
Apodization;Cosine
Gain;Auto (8)
Aperture;Auto (7 mm)
Scan speed;Auto (2 mm/sec)
Filter;Auto (12800 Hz)

