TITLE;
DATA TYPE;INFRARED SPECTRUM
ORIGIN;JASCO
OWNER;
DATE;25/03/20
TIME;12:11:49
SPECTROMETER/DATA SYSTEM;
LOCALE;9226
RESOLUTION;
DELTAX;0,964233
XUNITS;1/CM
YUNITS;ABSORBANCE
FIRSTX;  399,1927
LASTX; 4000,6047
NPOINTS;    3736
FIRSTY;     0,22561
MAXY;     0,29667
MINY;    -0,00096
XYDATA
399,1927;0,225611
400,1569;0,227937
401,1211;0,22883
402,0854;0,228609
403,0496;0,227795
404,0138;0,226951
404,9781;0,226583
405,9423;0,226981
406,9065;0,22809
407,8708;0,229531
408,8350;0,230835
409,7992;0,231683
410,7635;0,232032
411,7277;0,232062
412,6919;0,23203
413,6562;0,232152
414,6204;0,232589
415,5846;0,233524
416,5489;0,235188
417,5131;0,237702
418,4773;0,240686
419,4416;0,243133
420,4058;0,244167
421,3700;0,243781
422,3343;0,242546
423,2985;0,241062
424,2627;0,239784
425,2270;0,239018
426,1912;0,238897
427,1554;0,239368
428,1197;0,240242
429,0839;0,241298
430,0481;0,242373
431,0124;0,24338
431,9766;0,244262
432,9408;0,244922
433,9051;0,245194
434,8693;0,244889
435,8335;0,243938
436,7978;0,242503
437,7620;0,240953
438,7262;0,239693
439,6905;0,238983
440,6547;0,238851
441,6189;0,239114
442,5832;0,239475
443,5474;0,239662
444,5116;0,239535
445,4759;0,239097
446,4401;0,238423
447,4043;0,237586
448,3686;0,236656
449,3328;0,235723
450,2970;0,234909
451,2613;0,234339
452,2255;0,234086
453,1897;0,23415
454,1540;0,234473
455,1182;0,234969
456,0824;0,235526
457,0467;0,235983
458,0109;0,236144
458,9751;0,235861
459,9394;0,235144
460,9036;0,234158
461,8678;0,233119
462,8321;0,232204
463,7963;0,231489
464,7605;0,230956
465,7248;0,230524
466,6890;0,230131
467,6532;0,22979
468,6175;0,229585
469,5817;0,229605
470,5459;0,229863
471,5102;0,230257
472,4744;0,2306
473,4386;0,230736
474,4029;0,230626
475,3671;0,230344
476,3313;0,230001
477,2956;0,229684
478,2598;0,229447
479,2240;0,229324
480,1883;0,22934
481,1525;0,229513
482,1167;0,229846
483,0810;0,23032
484,0452;0,230899
485,0094;0,231536
485,9737;0,232194
486,9379;0,232849
487,9021;0,233494
488,8664;0,234129
489,8306;0,234756
490,7948;0,235365
491,7591;0,23593
492,7233;0,236398
493,6875;0,236701
494,6518;0,236784
495,6160;0,236633
496,5802;0,236303
497,5445;0,23591
498,5087;0,235601
499,4729;0,235497
500,4372;0,23564
501,4014;0,235971
502,3656;0,236357
503,3299;0,236688
504,2941;0,236953
505,2583;0,237243
506,2226;0,237671
507,1868;0,238275
508,1510;0,238975
509,1153;0,23961
510,0795;0,240048
511,0437;0,240276
512,0080;0,240407
512,9722;0,240607
513,9365;0,241007
514,9007;0,241643
515,8649;0,242444
516,8292;0,243268
517,7934;0,243952
518,7576;0,244373
519,7219;0,244488
520,6861;0,244335
521,6503;0,244011
522,6146;0,243636
523,5788;0,243324
524,5430;0,243148
525,5073;0,243104
526,4715;0,243107
527,4357;0,243035
528,4000;0,2428
529,3642;0,242384
530,3284;0,241827
531,2927;0,241195
532,2569;0,240556
533,2211;0,239971
534,1854;0,239492
535,1496;0,239149
536,1138;0,238934
537,0781;0,2388
538,0423;0,238673
539,0065;0,2385
539,9708;0,238282
540,9350;0,238086
541,8992;0,238009
542,8635;0,238122
543,8277;0,238419
544,7919;0,238815
545,7562;0,239187
546,7204;0,239442
547,6846;0,239564
548,6489;0,239609
549,6131;0,239669
550,5773;0,239815
551,5416;0,240076
552,5058;0,240445
553,4700;0,240898
554,4343;0,241397
555,3985;0,241883
556,3627;0,242257
557,3270;0,242391
558,2912;0,242162
559,2554;0,241506
560,2197;0,240457
561,1839;0,239144
562,1481;0,237746
563,1124;0,236432
564,0766;0,235308
565,0408;0,234397
566,0051;0,233659
566,9693;0,233027
567,9335;0,232454
568,8978;0,231934
569,8620;0,231491
570,8262;0,231154
571,7905;0,230928
572,7547;0,230788
573,7189;0,230695
574,6832;0,230625
575,6474;0,23058
576,6116;0,230574
577,5759;0,230601
578,5401;0,230614
579,5043;0,230532
580,4686;0,230289
581,4328;0,22987
582,3970;0,229335
583,3613;0,228785
584,3255;0,228307
585,2897;0,227943
586,2540;0,227685
587,2182;0,227507
588,1824;0,227394
589,1467;0,227344
590,1109;0,227345
591,0751;0,227355
592,0394;0,227309
593,0036;0,22715
593,9678;0,226863
594,9321;0,22647
595,8963;0,226008
596,8605;0,225495
597,8248;0,224933
598,7890;0,224326
599,7532;0,223702
600,7175;0,223109
601,6817;0,222584
602,6459;0,222119
603,6102;0,221657
604,5744;0,221119
605,5386;0,220443
606,5029;0,219616
607,4671;0,218665
608,4313;0,217642
609,3956;0,216599
610,3598;0,215593
611,3240;0,214691
612,2883;0,213966
613,2525;0,213461
614,2167;0,213151
615,1810;0,212907
616,1452;0,212514
617,1094;0,211759
618,0737;0,210534
619,0379;0,2089
620,0021;0,207049
620,9664;0,205198
621,9306;0,203505
622,8948;0,202038
623,8591;0,200796
624,8233;0,199701
625,7875;0,198804
626,7518;0,19807
627,7160;0,197459
628,6802;0,196917
629,6445;0,196389
630,6087;0,195829
631,5729;0,195215
632,5372;0,194542
633,5014;0,193826
634,4656;0,193099
635,4299;0,192403
636,3941;0,191782
637,3583;0,191273
638,3226;0,190882
639,2868;0,190582
640,2510;0,190321
641,2153;0,19004
642,1795;0,189706
643,1437;0,189321
644,1080;0,188915
645,0722;0,18852
646,0364;0,188151
647,0007;0,187792
647,9649;0,187414
648,9291;0,186998
649,8934;0,186556
650,8576;0,186137
651,8218;0,185803
652,7861;0,185606
653,7503;0,185552
654,7145;0,185601
655,6788;0,185676
656,6430;0,185704
657,6072;0,185663
658,5715;0,185592
659,5357;0,185546
660,4999;0,185517
661,4642;0,185382
662,4284;0,184924
663,3926;0,183933
664,3569;0,18233
665,3211;0,180335
666,2853;0,178535
667,2496;0,177603
668,2138;0,177529
669,1780;0,177529
670,1423;0,177198
671,1065;0,176588
672,0707;0,175619
673,0350;0,174164
673,9992;0,172266
674,9634;0,170125
675,9277;0,167961
676,8919;0,165906
677,8561;0,163996
678,8204;0,162223
679,7846;0,160592
680,7488;0,159122
681,7131;0,157819
682,6773;0,156653
683,6415;0,155585
684,6058;0,154605
685,5700;0,15373
686,5342;0,15298
687,4985;0,152346
688,4627;0,151789
689,4269;0,151247
690,3912;0,150693
691,3554;0,150135
692,3196;0,149598
693,2839;0,149093
694,2481;0,148603
695,2123;0,148098
696,1766;0,147552
697,1408;0,14696
698,1050;0,146337
699,0693;0,145702
700,0335;0,145071
700,9977;0,144452
701,9620;0,143847
702,9262;0,143257
703,8904;0,142663
704,8547;0,142067
705,8189;0,141463
706,7831;0,140843
707,7474;0,140204
708,7116;0,139545
709,6758;0,138868
710,6401;0,138167
711,6043;0,137425
712,5685;0,136625
713,5328;0,135767
714,4970;0,134888
715,4612;0,133092
716,4255;0,13255
717,3897;0,132184
718,3539;0,131867
719,3182;0,131394
720,2824;0,130588
721,2466;0,129409
722,2109;0,12798
723,1751;0,126512
724,1393;0,125183
725,1036;0,124072
726,0678;0,123156
727,0320;0,122357
727,9963;0,121598
728,9605;0,120836
729,9247;0,12006
730,8890;0,119276
731,8532;0,118494
732,8174;0,117724
733,7817;0,116985
734,7459;0,116301
735,7101;0,115694
736,6744;0,115166
737,6386;0,114701
738,6028;0,114263
739,5671;0,113816
740,5313;0,113332
741,4955;0,112806
742,4598;0,112248
743,4240;0,111677
744,3882;0,111105
745,3525;0,110532
746,3167;0,109945
747,2809;0,109333
748,2452;0,108696
749,2094;0,108052
750,1736;0,107422
751,1379;0,106825
752,1021;0,106263
753,0663;0,105727
754,0306;0,105204
754,9948;0,104688
755,9590;0,104178
756,9233;0,10368
757,8875;0,103195
758,8517;0,10272
759,8160;0,102253
760,7802;0,101788
761,7444;0,101322
762,7087;0,10085
763,6729;0,100367
764,6371;0,0998753
765,6014;0,0993862
766,5656;0,0989217
767,5298;0,0985052
768,4941;0,0981486
769,4583;0,0978448
770,4225;0,0975707
771,3868;0,0973005
772,3510;0,0970193
773,3152;0,0967295
774,2795;0,096445
775,2437;0,0961774
776,2079;0,0959242
777,1722;0,0956647
778,1364;0,0953668
779,1006;0,0950001
780,0649;0,0945473
781,0291;0,0940113
781,9933;0,0934122
782,9576;0,0927793
783,9218;0,0921401
784,8860;0,0915132
785,8503;0,0909062
786,8145;0,090321
787,7787;0,0897606
788,7430;0,0892344
789,7072;0,0887566
790,6714;0,0883397
791,6357;0,087987
792,5999;0,0876885
793,5641;0,0874248
794,5284;0,0871752
795,4926;0,0869267
796,4568;0,0866784
797,4211;0,0864387
798,3853;0,0862188
799,3495;0,0860253
800,3138;0,0858571
801,2780;0,085707
802,2422;0,0855656
803,2065;0,0854252
804,1707;0,0852808
805,1349;0,0851297
806,0992;0,0849702
807,0634;0,0848017
808,0276;0,0846254
808,9919;0,0844449
809,9561;0,0842639
810,9203;0,0840839
811,8846;0,083902
812,8488;0,0837125
813,8130;0,0835101
814,7773;0,0832949
815,7415;0,0830741
816,7057;0,0828608
817,6700;0,082669
818,6342;0,0825088
819,5984;0,0823832
820,5627;0,0822878
821,5269;0,0822144
822,4911;0,0821544
823,4554;0,0821011
824,4196;0,0820504
825,3839;0,0819993
826,3481;0,081944
827,3123;0,0818797
828,2766;0,0818018
829,2408;0,0817075
830,2050;0,0815955
831,1693;0,0814645
832,1335;0,0813113
833,0977;0,0811301
834,0620;0,0809136
835,0262;0,080656
835,9904;0,0803557
836,9547;0,0800168
837,9189;0,0796504
838,8831;0,0792749
839,8474;0,0789148
840,8116;0,0785958
841,7758;0,0783366
842,7401;0,0781394
843,7043;0,0779877
844,6685;0,0778535
845,6328;0,0777127
846,5970;0,0775591
847,5612;0,0774084
848,5255;0,077287
849,4897;0,0772136
850,4539;0,0771859
851,4182;0,0771812
852,3824;0,0771699
853,3466;0,0771329
854,3109;0,0770688
855,2751;0,0769892
856,2393;0,076907
857,2036;0,0768277
858,1678;0,0767497
859,1320;0,0766716
860,0963;0,0765981
861,0605;0,07654
862,0247;0,0765087
862,9890;0,0765105
863,9532;0,0765463
864,9174;0,0766145
865,8817;0,0767142
866,8459;0,0768444
867,8101;0,0769995
868,7744;0,0771668
869,7386;0,0773282
870,7028;0,0774666
871,6671;0,0775729
872,6313;0,0776484
873,5955;0,0777017
874,5598;0,0777438
875,5240;0,0777855
876,4882;0,0778377
877,4525;0,0779147
878,4167;0,078035
879,3809;0,0782196
880,3452;0,0784862
881,3094;0,0788446
882,2736;0,0792946
883,2379;0,0798288
884,2021;0,0804382
885,1663;0,0811185
886,1306;0,0818729
887,0948;0,0827101
888,0590;0,0836387
889,0233;0,0846588
889,9875;0,085756
890,9517;0,0868999
891,9160;0,0880466
892,8802;0,0891446
893,8444;0,0901408
894,8087;0,0909851
895,7729;0,0916343
896,7371;0,0920552
897,7014;0,092228
898,6656;0,0921481
899,6298;0,0918265
900,5941;0,0912871
901,5583;0,0905636
902,5225;0,0896969
903,4868;0,0887345
904,4510;0,0877315
905,4152;0,0867487
906,3795;0,085848
907,3437;0,0850826
908,3079;0,0844869
909,2722;0,0840692
910,2364;0,0838117
911,2007;0,08368
912,1649;0,0836365
913,1292;0,0836551
914,0934;0,0837285
915,0576;0,0838655
916,0219;0,0840804
916,9861;0,0843787
917,9503;0,0847477
918,9146;0,0851574
919,8788;0,0855722
920,8430;0,0859644
921,8073;0,0863238
922,7715;0,0866561
923,7357;0,0869732
924,7000;0,087281
925,6642;0,0875755
926,6284;0,0878463
927,5927;0,0880868
928,5569;0,0883008
929,5211;0,0885013
930,4854;0,0887029
931,4496;0,0889139
932,4138;0,0891341
933,3781;0,0893607
934,3423;0,089596
935,3065;0,0898527
936,2708;0,0901529
937,2350;0,0905205
938,1992;0,090975
939,1635;0,0915265
940,1277;0,0921765
941,0919;0,0929216
942,0562;0,0937575
943,0204;0,0946816
943,9846;0,0956944
944,9489;0,0967984
945,9131;0,0979965
946,8773;0,0992902
947,8416;0,10068
948,8058;0,102165
949,7700;0,103747
950,7343;0,105426
951,6985;0,107201
952,6627;0,109064
953,6270;0,111006
954,5912;0,113015
955,5554;0,115088
956,5197;0,117224
957,4839;0,119426
958,4481;0,121684
959,4124;0,123977
960,3766;0,126277
961,3408;0,128563
962,3051;0,130828
963,2693;0,133086
964,2335;0,135357
965,1978;0,137657
966,1620;0,139992
967,1262;0,142367
968,0905;0,144796
969,0547;0,147309
970,0189;0,149949
970,9832;0,152758
971,9474;0,155766
972,9116;0,158985
973,8759;0,162422
974,8401;0,166082
975,8043;0,169977
976,7686;0,17412
977,7328;0,178503
978,6970;0,183084
979,6613;0,187782
980,6255;0,192478
981,5897;0,197041
982,5540;0,201346
983,5182;0,205297
984,4824;0,208841
985,4467;0,211969
986,4109;0,214707
987,3751;0,217104
988,3394;0,219213
989,3036;0,221085
990,2678;0,222754
991,2321;0,22424
992,1963;0,225558
993,1605;0,226719
994,1248;0,227748
995,0890;0,22868
996,0532;0,229556
997,0175;0,230409
997,9817;0,231256
998,9459;0,2321
999,9102;0,232944
1000,8744;0,233803
1001,8386;0,234719
1002,8029;0,235751
1003,7671;0,236963
1004,7313;0,238401
1005,6956;0,240094
1006,6598;0,242049
1007,6240;0,244271
1008,5883;0,246762
1009,5525;0,249522
1010,5167;0,252534
1011,4810;0,255754
1012,4452;0,259117
1013,4094;0,262544
1014,3737;0,265958
1015,3379;0,269289
1016,3021;0,272482
1017,2664;0,275486
1018,2306;0,278255
1019,1948;0,28076
1020,1591;0,282993
1021,1233;0,284981
1022,0875;0,286775
1023,0518;0,288435
1024,0160;0,290006
1024,9802;0,291501
1025,9445;0,292899
1026,9087;0,294155
1027,8729;0,295215
1028,8372;0,296024
1029,8014;0,29653
1030,7656;0,296671
1031,7299;0,296385
1032,6941;0,295614
1033,6583;0,294331
1034,6226;0,292568
1035,5868;0,290425
1036,5510;0,28806
1037,5153;0,285664
1038,4795;0,283413
1039,4437;0,281434
1040,4080;0,279784
1041,3722;0,27845
1042,3364;0,277367
1043,3007;0,276441
1044,2649;0,275577
1045,2291;0,274691
1046,1934;0,273719
1047,1576;0,272613
1048,1218;0,271331
1049,0861;0,269832
1050,0503;0,268082
1051,0145;0,266056
1051,9788;0,263748
1052,9430;0,261181
1053,9072;0,258394
1054,8715;0,255433
1055,8357;0,252324
1056,7999;0,249061
1057,7642;0,245608
1058,7284;0,241916
1059,6926;0,237955
1060,6569;0,233747
1061,6211;0,229377
1062,5853;0,224978
1063,5496;0,220696
1064,5138;0,216651
1065,4780;0,212911
1066,4423;0,209483
1067,4065;0,206338
1068,3707;0,203428
1069,3350;0,200711
1070,2992;0,198151
1071,2634;0,195716
1072,2277;0,19336
1073,1919;0,191025
1074,1561;0,188645
1075,1204;0,186171
1076,0846;0,183584
1077,0488;0,180912
1078,0131;0,17822
1078,9773;0,175594
1079,9415;0,173118
1080,9058;0,170849
1081,8700;0,16881
1082,8342;0,166992
1083,7985;0,165373
1084,7627;0,163926
1085,7269;0,162635
1086,6912;0,161495
1087,6554;0,160506
1088,6196;0,159664
1089,5839;0,158958
1090,5481;0,158372
1091,5123;0,157895
1092,4766;0,157523
1093,4408;0,157256
1094,4050;0,157095
1095,3693;0,157027
1096,3335;0,157034
1097,2977;0,157094
1098,2620;0,157188
1099,2262;0,157301
1100,1904;0,15742
1101,1547;0,157523
1102,1189;0,157578
1103,0831;0,157552
1104,0474;0,15742
1105,0116;0,157172
1105,9758;0,156817
1106,9401;0,156376
1107,9043;0,15586
1108,8685;0,155263
1109,8328;0,154559
1110,7970;0,153705
1111,7612;0,152664
1112,7255;0,151425
1113,6897;0,150013
1114,6539;0,148492
1115,6182;0,14695
1116,5824;0,145473
1117,5466;0,144121
1118,5109;0,142903
1119,4751;0,141779
1120,4393;0,14067
1121,4036;0,139481
1122,3678;0,138123
1123,3320;0,136532
1124,2963;0,134674
1125,2605;0,132545
1126,2247;0,130162
1127,1890;0,127563
1128,1532;0,124798
1129,1174;0,121923
1130,0817;0,118998
1131,0459;0,11608
1132,0101;0,113223
1132,9744;0,110474
1133,9386;0,107881
1134,9028;0,105488
1135,8671;0,103342
1136,8313;0,101481
1137,7955;0,0999313
1138,7598;0,0986992
1139,7240;0,0977753
1140,6882;0,0971371
1141,6525;0,096754
1142,6167;0,09659
1143,5809;0,0966043
1144,5452;0,0967541
1145,5094;0,097001
1146,4736;0,0973199
1147,4379;0,0977047
1148,4021;0,098165
1149,3663;0,0987139
1150,3306;0,0993527
1151,2948;0,10006
1152,2590;0,100793
1153,2233;0,101495
1154,1875;0,102107
1155,1517;0,102573
1156,1160;0,102836
1157,0802;0,102839
1158,0444;0,102515
1159,0087;0,101797
1159,9729;0,100623
1160,9371;0,0989547
1161,9014;0,0967829
1162,8656;0,0941385
1163,8298;0,0910923
1164,7941;0,0877484
1165,7583;0,0842319
1166,7225;0,0806728
1167,6868;0,0771892
1168,6510;0,0738763
1169,6152;0,0708
1170,5795;0,0679981
1171,5437;0,0654854
1172,5079;0,06326
1173,4722;0,0613096
1174,4364;0,059616
1175,4006;0,0581579
1176,3649;0,0569122
1177,3291;0,0558551
1178,2933;0,0549627
1179,2576;0,0542123
1180,2218;0,0535842
1181,1860;0,0530634
1182,1503;0,0526397
1183,1145;0,0523073
1184,0787;0,0520626
1185,0430;0,0519039
1186,0072;0,0518317
1186,9714;0,0518503
1187,9357;0,0519689
1188,8999;0,0522001
1189,8641;0,0525563
1190,8284;0,0530452
1191,7926;0,0536661
1192,7568;0,054408
1193,7211;0,0552524
1194,6853;0,0561765
1195,6495;0,0571592
1196,6138;0,0581839
1197,5780;0,05924
1198,5422;0,0603212
1199,5065;0,0612046
1200,4707;0,0623482
1201,4349;0,0635032
1202,3992;0,0646611
1203,3634;0,0658134
1204,3276;0,0669516
1205,2919;0,0680704
1206,2561;0,0691706
1207,2203;0,0702633
1208,1846;0,0713715
1209,1488;0,0725253
1210,1130;0,0737534
1211,0773;0,0750728
1212,0415;0,0764823
1213,0057;0,0779645
1213,9700;0,0794934
1214,9342;0,0810426
1215,8984;0,0825917
1216,8627;0,0841241
1217,8269;0,0856246
1218,7911;0,0870806
1219,7554;0,0884811
1220,7196;0,0898176
1221,6838;0,0910841
1222,6481;0,0922748
1223,6123;0,0933835
1224,5765;0,0944047
1225,5408;0,0953364
1226,5050;0,0961811
1227,4692;0,096946
1228,4335;0,0976385
1229,3977;0,0982643
1230,3619;0,098827
1231,3262;0,0993291
1232,2904;0,0997737
1233,2546;0,100164
1234,2189;0,1005
1235,1831;0,100782
1236,1473;0,101007
1237,1116;0,101175
1238,0758;0,101292
1239,0400;0,101365
1240,0043;0,101401
1240,9685;0,101397
1241,9327;0,101344
1242,8970;0,101228
1243,8612;0,101036
1244,8254;0,100761
1245,7897;0,100402
1246,7539;0,0999649
1247,7181;0,0994634
1248,6824;0,0989139
1249,6466;0,0983358
1250,6108;0,0977474
1251,5751;0,0971619
1252,5393;0,0965853
1253,5035;0,0960157
1254,4678;0,0954451
1255,4320;0,0948623
1256,3962;0,094255
1257,3605;0,0936127
1258,3247;0,0929286
1259,2889;0,0922001
1260,2532;0,0914281
1261,2174;0,0906137
1262,1816;0,0897548
1263,1459;0,0888463
1264,1101;0,0878823
1265,0743;0,086861
1266,0386;0,0857849
1267,0028;0,0846589
1267,9670;0,0834844
1268,9313;0,0822571
1269,8955;0,0809691
1270,8597;0,0796161
1271,8240;0,0782042
1272,7882;0,076752
1273,7524;0,0752886
1274,7167;0,0738454
1275,6809;0,0724501
1276,6451;0,0711196
1277,6094;0,0698578
1278,5736;0,0686553
1279,5378;0,0674954
1280,5021;0,0663641
1281,4663;0,065259
1282,4305;0,0641932
1283,3948;0,0631907
1284,3590;0,0622763
1285,3232;0,0614666
1286,2875;0,0607649
1287,2517;0,0601639
1288,2159;0,0596526
1289,1802;0,0592235
1290,1444;0,0588764
1291,1086;0,0586181
1292,0729;0,0584581
1293,0371;0,058405
1294,0013;0,058462
1294,9656;0,0586263
1295,9298;0,0588894
1296,8940;0,0592412
1297,8583;0,059673
1298,8225;0,0601804
1299,7867;0,0607624
1300,7510;0,0614185
1301,7152;0,0621493
1302,6794;0,0629517
1303,6437;0,0638201
1304,6079;0,0647497
1305,5721;0,0657353
1306,5364;0,0667724
1307,5006;0,0678573
1308,4648;0,0689866
1309,4291;0,0701542
1310,3933;0,0713458
1311,3575;0,072535
1312,3218;0,073683
1313,2860;0,0747452
1314,2502;0,0756792
1315,2145;0,0764476
1316,1787;0,0770144
1317,1429;0,0773446
1318,1072;0,0774136
1319,0714;0,0772286
1320,0356;0,0768407
1320,9999;0,0763362
1321,9641;0,0758063
1322,9283;0,0753189
1323,8926;0,0749076
1324,8568;0,0745767
1325,8210;0,074313
1326,7853;0,0740965
1327,7495;0,073905
1328,7137;0,0737153
1329,6780;0,0735035
1330,6422;0,0732497
1331,6064;0,0729467
1332,5707;0,0726041
1333,5349;0,072247
1334,4991;0,0718999
1335,4634;0,0715664
1336,4276;0,0712118
1337,3918;0,0707603
1338,3561;0,0701239
1339,3203;0,0692674
1340,2845;0,0682592
1341,2488;0,0672398
1342,2130;0,0663367
1343,1772;0,06561
1344,1415;0,0650626
1345,1057;0,0646722
1346,0699;0,0644156
1347,0342;0,0642769
1347,9984;0,0642494
1348,9626;0,0643337
1349,9269;0,064532
1350,8911;0,064841
1351,8553;0,0652486
1352,8196;0,0657352
1353,7838;0,0662804
1354,7480;0,0668718
1355,7123;0,0675105
1356,6765;0,0682097
1357,6407;0,0689875
1358,6050;0,0698583
1359,5692;0,0708189
1360,5334;0,0718252
1361,4977;0,0727784
1362,4619;0,0735667
1363,4261;0,0741495
1364,3904;0,0745822
1365,3546;0,0749505
1366,3188;0,0753037
1367,2831;0,0756439
1368,2473;0,0759475
1369,2115;0,0761896
1370,1758;0,0763545
1371,1400;0,0764308
1372,1042;0,0763952
1373,0685;0,076204
1374,0327;0,0758133
1374,9969;0,0752196
1375,9612;0,0744685
1376,9254;0,0736056
1377,8896;0,0726312
1378,8539;0,0715172
1379,8181;0,0702623
1380,7823;0,068927
1381,7466;0,0676117
1382,7108;0,0663934
1383,6750;0,06528
1384,6393;0,0642153
1385,6035;0,0631239
1386,5677;0,0619752
1387,5320;0,0608368
1388,4962;0,0598462
1389,4604;0,0591002
1390,4247;0,0585927
1391,3889;0,0582631
1392,3531;0,0580671
1393,3174;0,057991
1394,2816;0,0580155
1395,2458;0,0580831
1396,2101;0,0581173
1397,1743;0,0580779
1398,1385;0,0579923
1399,1028;0,0579361
1400,0670;0,0579829
1401,0313;0,0581629
1401,9955;0,0584579
1402,9597;0,0588268
1403,9240;0,0592347
1404,8882;0,0596706
1405,8524;0,0601507
1406,8167;0,0607023
1407,7809;0,0613404
1408,7451;0,0620602
1409,7094;0,0628534
1410,6736;0,0637198
1411,6378;0,0646603
1412,6021;0,0656587
1413,5663;0,0666738
1414,5305;0,0676548
1415,4948;0,068565
1416,4590;0,0693828
1417,4232;0,0700707
1418,3875;0,0705764
1419,3517;0,0709145
1420,3159;0,0711811
1421,2802;0,0714184
1422,2444;0,0715435
1423,2086;0,0714353
1424,1729;0,071041
1425,1371;0,0704028
1426,1013;0,0696053
1427,0656;0,0687032
1428,0298;0,0676963
1428,9940;0,0665713
1429,9583;0,0653626
1430,9225;0,0641549
1431,8867;0,0630065
1432,8510;0,0618859
1433,8152;0,0606985
1434,7794;0,0593693
1435,7437;0,0579322
1436,7079;0,0565892
1437,6721;0,0556278
1438,6364;0,0551841
1439,6006;0,055142
1440,5648;0,0552871
1441,5291;0,0554802
1442,4933;0,0557031
1443,4575;0,0560087
1444,4218;0,0564485
1445,3860;0,0570281
1446,3502;0,0577102
1447,3145;0,058447
1448,2787;0,0592117
1449,2429;0,0599987
1450,2072;0,0607874
1451,1714;0,0615098
1452,1356;0,0620691
1453,0999;0,0624034
1454,0641;0,0625406
1455,0283;0,0625724
1455,9926;0,0624942
1456,9568;0,0621316
1457,9210;0,0615554
1458,8853;0,0611961
1459,8495;0,0611962
1460,8137;0,0613018
1461,7780;0,061218
1462,7422;0,0607772
1463,7064;0,0599324
1464,6707;0,0587516
1465,6349;0,0574318
1466,5991;0,0561835
1467,5634;0,0550467
1468,5276;0,0538886
1469,4918;0,0525449
1470,4561;0,0509079
1471,4203;0,0489226
1472,3845;0,0465939
1473,3488;0,0441042
1474,3130;0,0418194
1475,2772;0,0399997
1476,2415;0,0386338
1477,2057;0,0375777
1478,1699;0,0367089
1479,1342;0,0359622
1480,0984;0,0353106
1481,0626;0,034751
1482,0269;0,0343023
1482,9911;0,0339989
1483,9553;0,0338729
1484,9196;0,0339438
1485,8838;0,0342218
1486,8480;0,0346917
1487,8123;0,0352503
1488,7765;0,0356906
1489,7407;0,0358891
1490,7050;0,035978
1491,6692;0,0361678
1492,6334;0,0365341
1493,5977;0,0370622
1494,5619;0,0377675
1495,5261;0,0387176
1496,4904;0,0399482
1497,4546;0,0413799
1498,4188;0,0428732
1499,3831;0,0443254
1500,3473;0,0456368
1501,3115;0,0466738
1502,2758;0,0473362
1503,2400;0,0476625
1504,2042;0,0478988
1505,1685;0,0484174
1506,1327;0,0492608
1507,0969;0,049712
1508,0612;0,0492531
1509,0254;0,0483706
1509,9896;0,0475286
1510,9539;0,0467426
1511,9181;0,0459129
1512,8823;0,0450035
1513,8466;0,0440258
1514,8108;0,0429805
1515,7750;0,0418403
1516,7393;0,0405845
1517,7035;0,0392325
1518,6677;0,0378356
1519,6320;0,0364514
1520,5962;0,0351418
1521,5604;0,0339889
1522,5247;0,0330694
1523,4889;0,0323833
1524,4531;0,0318395
1525,4174;0,0313355
1526,3816;0,0308421
1527,3458;0,0304054
1528,3101;0,0300779
1529,2743;0,0298673
1530,2385;0,0297569
1531,2028;0,0297475
1532,1670;0,029853
1533,1312;0,030057
1534,0955;0,0302964
1535,0597;0,0304832
1536,0239;0,0305402
1536,9882;0,0304728
1537,9524;0,0304538
1538,9166;0,0307766
1539,8809;0,0314939
1540,8451;0,0320825
1541,8093;0,0321223
1542,7736;0,0318887
1543,7378;0,0316957
1544,7020;0,0315976
1545,6663;0,0315856
1546,6305;0,0316715
1547,5947;0,0318533
1548,5590;0,0320916
1549,5232;0,032335
1550,4874;0,0325596
1551,4517;0,0327801
1552,4159;0,0330131
1553,3801;0,033228
1554,3444;0,0333484
1555,3086;0,0333202
1556,2728;0,0331714
1557,2371;0,0329373
1558,2013;0,0325113
1559,1655;0,0320261
1560,1298;0,0321491
1561,0940;0,0330941
1562,0582;0,0344194
1563,0225;0,0356692
1563,9867;0,0366323
1564,9509;0,037298
1565,9152;0,0377703
1566,8794;0,0382004
1567,8436;0,0387236
1568,8079;0,0394013
1569,7721;0,0402041
1570,7363;0,041046
1571,7006;0,0418309
1572,6648;0,0425106
1573,6290;0,0431406
1574,5933;0,0438704
1575,5575;0,0448153
1576,5217;0,0459259
1577,4860;0,0470746
1578,4502;0,0482084
1579,4144;0,0493209
1580,3787;0,0504063
1581,3429;0,0514797
1582,3071;0,0525752
1583,2714;0,0537156
1584,2356;0,0548959
1585,1998;0,0560995
1586,1641;0,0573133
1587,1283;0,0585236
1588,0925;0,0597021
1589,0568;0,0608016
1590,0210;0,0617672
1590,9852;0,0625503
1591,9495;0,063111
1592,9137;0,0634152
1593,8779;0,063441
1594,8422;0,0631986
1595,8064;0,0627434
1596,7706;0,0621636
1597,7349;0,061547
1598,6991;0,0609524
1599,6633;0,0604016
1600,6276;0,05989
1601,5918;0,0594065
1602,5560;0,0589506
1603,5203;0,0585362
1604,4845;0,0581762
1605,4487;0,0578632
1606,4130;0,0575666
1607,3772;0,0572528
1608,3414;0,0569176
1609,3057;0,0566026
1610,2699;0,0563648
1611,2341;0,0562168
1612,1984;0,0561087
1613,1626;0,0559778
1614,1268;0,0558093
1615,0911;0,0556493
1616,0553;0,0555748
1617,0195;0,0556738
1617,9838;0,0560005
1618,9480;0,0564886
1619,9122;0,0569758
1620,8765;0,0573257
1621,8407;0,0574965
1622,8049;0,057527
1623,7692;0,0574939
1624,7334;0,0574703
1625,6976;0,0574897
1626,6619;0,0575441
1627,6261;0,0576189
1628,5903;0,0577137
1629,5546;0,057819
1630,5188;0,0578878
1631,4830;0,0578565
1632,4473;0,0577105
1633,4115;0,0575234
1634,3757;0,0573902
1635,3400;0,0572918
1636,3042;0,0571593
1637,2684;0,0570783
1638,2327;0,0571518
1639,1969;0,0573206
1640,1611;0,0574553
1641,1254;0,0574721
1642,0896;0,0573602
1643,0538;0,0571782
1644,0181;0,0570374
1644,9823;0,057029
1645,9465;0,0571065
1646,9108;0,0571108
1647,8750;0,0569463
1648,8392;0,0565711
1649,8035;0,0559092
1650,7677;0,0549188
1651,7319;0,053649
1652,6962;0,0522019
1653,6604;0,0508969
1654,6246;0,0503153
1655,5889;0,050533
1656,5531;0,0510312
1657,5173;0,0513275
1658,4816;0,0512259
1659,4458;0,0507478
1660,4100;0,0500092
1661,3743;0,0491358
1662,3385;0,0482544
1663,3027;0,047497
1664,2670;0,0469302
1665,2312;0,0465009
1666,1954;0,0460901
1667,1597;0,045587
1668,1239;0,0449135
1669,0881;0,0440395
1670,0524;0,0430337
1671,0166;0,0420375
1671,9808;0,0411127
1672,9451;0,0401935
1673,9093;0,0392153
1674,8735;0,0382476
1675,8378;0,037492
1676,8020;0,0371193
1677,7662;0,0370945
1678,7305;0,0371867
1679,6947;0,0371293
1680,6589;0,036748
1681,6232;0,0359801
1682,5874;0,0348264
1683,5516;0,0333934
1684,5159;0,0320659
1685,4801;0,0312965
1686,4443;0,0311074
1687,4086;0,0311597
1688,3728;0,0311274
1689,3370;0,0308638
1690,3013;0,0303825
1691,2655;0,0297841
1692,2297;0,0291971
1693,1940;0,0287447
1694,1582;0,0285156
1695,1224;0,0285112
1696,0867;0,0285951
1697,0509;0,0285265
1698,0151;0,0281316
1698,9794;0,0275029
1699,9436;0,0269969
1700,9078;0,0269518
1701,8721;0,0274149
1702,8363;0,0281639
1703,8005;0,0289168
1704,7648;0,0294947
1705,7290;0,0298741
1706,6932;0,0301597
1707,6575;0,0305023
1708,6217;0,0310005
1709,5859;0,0316592
1710,5502;0,0324227
1711,5144;0,0332292
1712,4786;0,0340411
1713,4429;0,0348474
1714,4071;0,0356409
1715,3713;0,036361
1716,3356;0,0368677
1717,2998;0,0371093
1718,2640;0,0373079
1719,2283;0,0377331
1720,1925;0,0384081
1721,1567;0,0391771
1722,1210;0,0398869
1723,0852;0,0404691
1724,0494;0,040942
1725,0137;0,0413812
1725,9779;0,0418735
1726,9421;0,042463
1727,9064;0,043118
1728,8706;0,0437388
1729,8348;0,0441999
1730,7991;0,0443929
1731,7633;0,044248
1732,7275;0,0437638
1733,6918;0,0430909
1734,6560;0,0425256
1735,6202;0,0422494
1736,5845;0,0421549
1737,5487;0,0420004
1738,5129;0,0416202
1739,4772;0,041003
1740,4414;0,0402591
1741,4056;0,0395276
1742,3699;0,0388791
1743,3341;0,038285
1744,2983;0,0376683
1745,2626;0,0369655
1746,2268;0,0361363
1747,1910;0,03512
1748,1553;0,0338072
1749,1195;0,0321173
1750,0837;0,0301631
1751,0480;0,0282635
1752,0122;0,0266984
1752,9764;0,0255119
1753,9407;0,0245648
1754,9049;0,0236896
1755,8691;0,0227924
1756,8334;0,0218685
1757,7976;0,020956
1758,7618;0,0200738
1759,7261;0,0191976
1760,6903;0,0182949
1761,6545;0,0173817
1762,6188;0,0165351
1763,5830;0,0158359
1764,5472;0,0153018
1765,5115;0,0148841
1766,4757;0,0145163
1767,4399;0,0141571
1768,4042;0,0137983
1769,3684;0,0134406
1770,3326;0,0130639
1771,2969;0,0126316
1772,2611;0,0121522
1773,2253;0,0117234
1774,1896;0,0114554
1775,1538;0,0113596
1776,1180;0,0113515
1777,0823;0,0113334
1778,0465;0,0112519
1779,0107;0,0111018
1779,9750;0,0109012
1780,9392;0,0106695
1781,9034;0,0104215
1782,8677;0,0101754
1783,8319;0,00996298
1784,7961;0,00982488
1785,7604;0,00978632
1786,7246;0,00983349
1787,6888;0,00991886
1788,6531;0,00999509
1789,6173;0,010044
1790,5815;0,0100697
1791,5458;0,0100705
1792,5100;0,0100471
1793,4742;0,0100328
1794,4385;0,0100591
1795,4027;0,0101008
1796,3669;0,0101003
1797,3312;0,0100248
1798,2954;0,00988659
1799,2596;0,00972096
1800,2239;0,00955513
1801,1881;0,00939991
1802,1523;0,0092616
1803,1166;0,00915056
1804,0808;0,00907926
1805,0450;0,00905757
1806,0093;0,00908814
1806,9735;0,00916085
1807,9377;0,00924818
1808,9020;0,00930701
1809,8662;0,00929371
1810,8304;0,0091893
1811,7947;0,00901308
1812,7589;0,0088074
1813,7231;0,00861061
1814,6874;0,00844608
1815,6516;0,00832777
1816,6158;0,00826511
1817,5801;0,00826062
1818,5443;0,00830658
1819,5085;0,00838666
1820,4728;0,00848159
1821,4370;0,00857573
1822,4012;0,00865992
1823,3655;0,00872906
1824,3297;0,0087804
1825,2939;0,00881551
1826,2582;0,00883844
1827,2224;0,00884611
1828,1866;0,00882036
1829,1509;0,00873584
1830,1151;0,00858894
1831,0793;0,00841956
1832,0436;0,00828471
1833,0078;0,00821109
1833,9720;0,00818819
1834,9363;0,00819658
1835,9005;0,00822592
1836,8647;0,00827095
1837,8290;0,00832066
1838,7932;0,0083554
1839,7574;0,00835517
1840,7217;0,00831799
1841,6859;0,00827115
1842,6501;0,00825286
1843,6144;0,00827305
1844,5786;0,00830453
1845,5428;0,00831844
1846,5071;0,00830123
1847,4713;0,00823938
1848,4355;0,00812152
1849,3998;0,00795703
1850,3640;0,00777992
1851,3282;0,0076322
1852,2925;0,00754244
1853,2567;0,00751767
1854,2209;0,00754969
1855,1852;0,00762511
1856,1494;0,00772816
1857,1136;0,00783903
1858,0779;0,00793264
1859,0421;0,00798641
1860,0063;0,00799318
1860,9706;0,00796869
1861,9348;0,00794473
1862,8990;0,00795248
1863,8633;0,00800988
1864,8275;0,0081213
1865,7917;0,00827924
1866,7560;0,00845367
1867,7202;0,00858222
1868,6844;0,00860057
1869,6487;0,00850094
1870,6129;0,00833297
1871,5771;0,00814215
1872,5414;0,00793834
1873,5056;0,00771893
1874,4698;0,00749877
1875,4341;0,00731306
1876,3983;0,00719894
1877,3625;0,00717176
1878,3268;0,00721767
1879,2910;0,00730399
1880,2552;0,0073995
1881,2195;0,00748794
1882,1837;0,00756749
1883,1479;0,00763994
1884,1122;0,00770022
1885,0764;0,0077351
1886,0406;0,00773097
1887,0049;0,00768314
1887,9691;0,00759966
1888,9333;0,00749969
1889,8976;0,00740899
1890,8618;0,00735189
1891,8260;0,00734093
1892,7903;0,00737163
1893,7545;0,00742522
1894,7188;0,00747485
1895,6830;0,0074943
1896,6472;0,00747025
1897,6115;0,0074107
1898,5757;0,00734025
1899,5399;0,0072845
1900,5042;0,00725597
1901,4684;0,00725046
1902,4326;0,00725567
1903,3969;0,00726552
1904,3611;0,00728788
1905,3253;0,00733737
1906,2896;0,00741805
1907,2538;0,00750991
1908,2180;0,00757252
1909,1823;0,00756859
1910,1465;0,0074927
1911,1107;0,00737791
1912,0750;0,00727141
1913,0392;0,00720345
1914,0034;0,0071768
1914,9677;0,00717687
1915,9319;0,00718616
1916,8961;0,00719435
1917,8604;0,00720365
1918,8246;0,00722576
1919,7888;0,00726844
1920,7531;0,00732305
1921,7173;0,00736505
1922,6815;0,00736474
1923,6458;0,00730054
1924,6100;0,0071698
1925,5742;0,00699193
1926,5385;0,00680278
1927,5027;0,00664529
1928,4669;0,00655903
1929,4312;0,00656494
1930,3954;0,00665079
1931,3596;0,00677084
1932,3239;0,00686429
1933,2881;0,00688551
1934,2523;0,00682638
1935,2166;0,00671783
1936,1808;0,00661098
1937,1450;0,0065507
1938,1093;0,00655792
1939,0735;0,00662701
1940,0377;0,0067308
1941,0020;0,00682519
1941,9662;0,00685933
1942,9304;0,00680064
1943,8947;0,00666188
1944,8589;0,00650152
1945,8231;0,00639153
1946,7874;0,00637706
1947,7516;0,00645059
1948,7158;0,00655111
1949,6801;0,00659299
1950,6443;0,00651548
1951,6085;0,00632327
1952,5728;0,00608639
1953,5370;0,00589506
1954,5012;0,00579941
1955,4655;0,00577624
1956,4297;0,0057471
1957,3939;0,005635
1958,3582;0,00541956
1959,3224;0,00515251
1960,2866;0,00492361
1961,2509;0,00480226
1962,2151;0,00479774
1963,1793;0,00486282
1964,1436;0,00492784
1965,1078;0,00493399
1966,0720;0,00484818
1967,0363;0,00466376
1968,0005;0,00439833
1968,9647;0,00409196
1969,9290;0,00380159
1970,8932;0,00358849
1971,8574;0,00350024
1972,8217;0,00355386
1973,7859;0,00372865
1974,7501;0,00397532
1975,7144;0,00424449
1976,6786;0,00451468
1977,6428;0,00479975
1978,6071;0,00512718
1979,5713;0,00550412
1980,5355;0,00589747
1981,4998;0,00624009
1982,4640;0,00645701
1983,4282;0,00649849
1984,3925;0,00636666
1985,3567;0,00612196
1986,3209;0,00586229
1987,2852;0,00568401
1988,2494;0,00564722
1989,2136;0,00576218
1990,1779;0,00599735
1991,1421;0,006299
1992,1063;0,00661093
1993,0706;0,00688531
1994,0348;0,00708329
1994,9990;0,00717308
1995,9633;0,00713479
1996,9275;0,00697163
1997,8917;0,00671761
1998,8560;0,00643095
1999,8202;0,00617164
2000,7844;0,00597594
2001,7487;0,00584667
2002,7129;0,00576787
2003,6771;0,00573325
2004,6414;0,00576596
2005,6056;0,00590966
2006,5698;0,00619047
2007,5341;0,00657281
2008,4983;0,00694873
2009,4625;0,00717994
2010,4268;0,00716928
2011,3910;0,00691481
2012,3552;0,00651405
2013,3195;0,00611913
2014,2837;0,00586781
2015,2479;0,00582325
2016,2122;0,0059527
2017,1764;0,00615888
2018,1406;0,00634595
2019,1049;0,00647412
2020,0691;0,00656609
2021,0333;0,00666905
2021,9976;0,00680583
2022,9618;0,00694899
2023,9260;0,00703212
2024,8903;0,00699001
2025,8545;0,00680148
2026,8187;0,00650676
2027,7830;0,00618881
2028,7472;0,0059326
2029,7114;0,0057894
2030,6757;0,00576706
2031,6399;0,00584794
2032,6041;0,00601613
2033,5684;0,00627161
2034,5326;0,00661894
2035,4968;0,00704341
2036,4611;0,00749734
2037,4253;0,00791411
2038,3895;0,00823736
2039,3538;0,0084454
2040,3180;0,00855417
2041,2822;0,00859848
2042,2465;0,00860759
2043,2107;0,00859511
2044,1749;0,00857031
2045,1392;0,00855644
2046,1034;0,00859337
2047,0676;0,00871441
2048,0320;0,00891354
2048,9961;0,00913623
2049,9604;0,00930925
2050,9246;0,00938685
2051,8889;0,00937747
2052,8530;0,00933557
2053,8174;0,00932819
2054,7815;0,00939507
2055,7458;0,00952665
2056,7100;0,0096705
2057,6743;0,00976308
2058,6384;0,00976517
2059,6028;0,00967994
2060,5669;0,009547
2061,5313;0,00942005
2062,4954;0,00934151
2063,4597;0,00932607
2064,4238;0,00935905
2065,3882;0,00940884
2066,3523;0,00944591
2067,3167;0,00945735
2068,2808;0,0094497
2069,2451;0,00944026
2070,2092;0,00944416
2071,1736;0,00946605
2072,1377;0,00949921
2073,1021;0,00953209
2074,0662;0,0095538
2075,0305;0,00955612
2075,9946;0,0095331
2076,9590;0,00948362
2077,9231;0,00941678
2078,8875;0,00935495
2079,8516;0,00932756
2080,8159;0,0093559
2081,7800;0,00943861
2082,7444;0,00954967
2083,7085;0,00965265
2084,6729;0,0097213
2085,6370;0,00975214
2086,6013;0,00975904
2087,5654;0,0097566
2088,5298;0,00974717
2089,4939;0,00972397
2090,4583;0,00968718
2091,4224;0,00965685
2092,3867;0,00966734
2093,3508;0,00974248
2094,3152;0,00986872
2095,2793;0,00999015
2096,2437;0,0100366
2097,2078;0,0099693
2098,1721;0,00981131
2099,1362;0,0096376
2100,1006;0,00953324
2101,0647;0,00953905
2102,0291;0,00964175
2102,9932;0,00978224
2103,9575;0,00989713
2104,9216;0,00995419
2105,8860;0,00996177
2106,8501;0,00995081
2107,8145;0,009947
2108,7786;0,00995422
2109,7429;0,00995872
2110,7070;0,00994614
2111,6714;0,00991517
2112,6355;0,0098772
2113,5999;0,00984466
2114,5640;0,00982036
2115,5283;0,00979784
2116,4924;0,00977231
2117,4568;0,00975173
2118,4209;0,0097569
2119,3853;0,0098077
2120,3494;0,00990436
2121,3137;0,0100178
2122,2778;0,0100988
2123,2422;0,0101027
2124,2063;0,0100155
2125,1707;0,00986286
2126,1348;0,00969758
2127,0991;0,00956987
2128,0632;0,00950034
2129,0276;0,00947213
2129,9917;0,00944749
2130,9561;0,00939776
2131,9202;0,00932642
2132,8845;0,00926826
2133,8486;0,00926309
2134,8130;0,00932099
2135,7771;0,00940709
2136,7415;0,00946196
2137,7056;0,00944507
2138,6699;0,00936767
2139,6340;0,00928927
2140,5984;0,00927989
2141,5625;0,00937463
2142,5269;0,00955096
2143,4910;0,00974246
2144,4553;0,0098785
2145,4194;0,00992382
2146,3838;0,0098951
2147,3479;0,00984801
2148,3123;0,00984508
2149,2764;0,00992191
2150,2407;0,0100661
2151,2048;0,0102162
2152,1692;0,0102813
2153,1333;0,010178
2154,0977;0,00987308
2155,0618;0,00941501
2156,0261;0,00893776
2156,9902;0,00861939
2157,9546;0,00859456
2158,9187;0,00886455
2159,8831;0,00928764
2160,8472;0,00967631
2161,8115;0,00991451
2162,7756;0,0100007
2163,7400;0,0100129
2164,7041;0,0100443
2165,6685;0,0101462
2166,6326;0,0103002
2167,5969;0,0104275
2168,5610;0,0104312
2169,5254;0,0102516
2170,4895;0,00990613
2171,4539;0,00949651
2172,4180;0,00917311
2173,3823;0,00907042
2174,3464;0,00924257
2175,3108;0,00963562
2176,2749;0,0101151
2177,2393;0,0105312
2178,2034;0,0107791
2179,1677;0,0108239
2180,1318;0,010689
2181,0962;0,0104299
2182,0603;0,0101125
2183,0247;0,00980214
2183,9888;0,00955637
2184,9531;0,00941516
2185,9172;0,00938926
2186,8816;0,00945647
2187,8457;0,00957276
2188,8101;0,00969522
2189,7742;0,00980359
2190,7385;0,00990575
2191,7026;0,0100227
2192,6670;0,0101635
2193,6311;0,0103084
2194,5955;0,0104138
2195,5596;0,0104381
2196,5239;0,0103691
2197,4880;0,0102357
2198,4524;0,0100915
2199,4165;0,00998337
2200,3809;0,00992444
2201,3450;0,00989337
2202,3093;0,00985742
2203,2734;0,00980094
2204,2378;0,00973588
2205,2019;0,00968654
2206,1663;0,0096636
2207,1304;0,00965226
2208,0947;0,00962691
2209,0588;0,00958038
2210,0232;0,00954075
2210,9873;0,00955643
2211,9517;0,00965697
2212,9158;0,00981982
2213,8801;0,00997178
2214,8442;0,0100283
2215,8086;0,00994484
2216,7727;0,00974378
2217,7371;0,00950136
2218,7012;0,00930509
2219,6655;0,00921287
2220,6296;0,00923709
2221,5940;0,00935571
2222,5581;0,00953404
2223,5225;0,009739
2224,4866;0,00994007
2225,4509;0,0101042
2226,4150;0,0101959
2227,3794;0,0101868
2228,3435;0,0100736
2229,3079;0,00988701
2230,2720;0,00968743
2231,2363;0,00954407
2232,2004;0,00950531
2233,1648;0,00957511
2234,1289;0,00971004
2235,0933;0,00984191
2236,0574;0,00991485
2237,0217;0,00991462
2237,9858;0,00987033
2238,9502;0,00982714
2239,9143;0,00981001
2240,8787;0,00980613
2241,8428;0,00977986
2242,8071;0,00970815
2243,7712;0,00960694
2244,7356;0,00952541
2245,6997;0,00951122
2246,6641;0,00957384
2247,6282;0,00967596
2248,5925;0,00976063
2249,5566;0,00979385
2250,5210;0,00979048
2251,4851;0,00980448
2252,4495;0,00989166
2253,4136;0,010071
2254,3779;0,0103101
2255,3420;0,010542
2256,3064;0,0106995
2257,2705;0,0107454
2258,2349;0,0106838
2259,1990;0,0105525
2260,1633;0,0104047
2261,1274;0,0102891
2262,0918;0,0102348
2263,0559;0,0102436
2264,0203;0,0102929
2264,9844;0,0103483
2265,9487;0,0103818
2266,9128;0,0103846
2267,8772;0,0103687
2268,8413;0,0103563
2269,8057;0,0103645
2270,7698;0,0103955
2271,7341;0,0104365
2272,6982;0,0104673
2273,6626;0,0104704
2274,6267;0,0104371
2275,5911;0,0103706
2276,5552;0,0102843
2277,5195;0,0101989
2278,4836;0,0101381
2279,4480;0,0101217
2280,4121;0,0101613
2281,3765;0,0102579
2282,3406;0,0104043
2283,3049;0,01059
2284,2690;0,0108032
2285,2334;0,0110307
2286,1975;0,0112565
2287,1619;0,0114641
2288,1260;0,0116423
2289,0903;0,0117935
2290,0544;0,0119348
2291,0188;0,0120911
2291,9829;0,0122814
2292,9473;0,012508
2293,9114;0,0127553
2294,8757;0,0129988
2295,8398;0,0132178
2296,8042;0,0134034
2297,7683;0,0135569
2298,7327;0,013682
2299,6968;0,0137786
2300,6611;0,0138449
2301,6252;0,0138847
2302,5896;0,0139138
2303,5537;0,0139594
2304,5181;0,0140493
2305,4822;0,014196
2306,4465;0,0143838
2307,4106;0,0145675
2308,3750;0,0146851
2309,3391;0,0146806
2310,3035;0,0145285
2311,2676;0,0142471
2312,2319;0,0138936
2313,1960;0,0135403
2314,1604;0,0132443
2315,1245;0,0130272
2316,0889;0,0128772
2317,0530;0,0127685
2318,0173;0,0126845
2318,9814;0,0126307
2319,9458;0,0126307
2320,9099;0,0127094
2321,8743;0,0128739
2322,8384;0,0131001
2323,8027;0,0133296
2324,7668;0,0134807
2325,7312;0,0134762
2326,6953;0,0132757
2327,6597;0,0128984
2328,6238;0,0124212
2329,5881;0,0119533
2330,5522;0,0115967
2331,5166;0,0114076
2332,4807;0,0113767
2333,4451;0,0114409
2334,4092;0,0115228
2335,3735;0,0115752
2336,3376;0,0116027
2337,3020;0,011652
2338,2661;0,011777
2339,2305;0,0119977
2340,1946;0,0122716
2341,1589;0,0124868
2342,1230;0,0125035
2343,0874;0,0122835
2344,0515;0,0120528
2345,0159;0,0122184
2345,9800;0,0129784
2346,9443;0,0140952
2347,9084;0,0150878
2348,8728;0,0155544
2349,8369;0,0153632
2350,8013;0,0146778
2351,7654;0,0138537
2352,7297;0,0132381
2353,6938;0,0129744
2354,6582;0,0129846
2355,6223;0,0131326
2356,5867;0,0133357
2357,5508;0,0135223
2358,5151;0,013584
2359,4792;0,0134311
2360,4436;0,0130757
2361,4077;0,0126178
2362,3721;0,0121497
2363,3362;0,0116991
2364,3005;0,0112536
2365,2646;0,0108102
2366,2290;0,0103851
2367,1931;0,00998983
2368,1575;0,00961616
2369,1216;0,00925163
2370,0859;0,00890412
2371,0500;0,00860926
2372,0144;0,00841657
2372,9785;0,00836936
2373,9429;0,00849198
2374,9070;0,00878665
2375,8713;0,00923454
2376,8354;0,00979721
2377,7998;0,0104182
2378,7639;0,0110275
2379,7283;0,0115504
2380,6924;0,0119214
2381,6567;0,0120985
2382,6208;0,0120733
2383,5852;0,0118739
2384,5493;0,0115571
2385,5137;0,0111943
2386,4778;0,0108527
2387,4421;0,0105804
2388,4063;0,0103975
2389,3706;0,0102981
2390,3347;0,0102586
2391,2991;0,0102512
2392,2632;0,0102539
2393,2275;0,0102564
2394,1917;0,0102588
2395,1560;0,0102662
2396,1201;0,0102825
2397,0845;0,0103066
2398,0486;0,0103343
2399,0129;0,0103581
2399,9771;0,0103729
2400,9414;0,0103787
2401,9055;0,0103795
2402,8699;0,0103819
2403,8340;0,0103914
2404,7983;0,0104112
2405,7625;0,0104416
2406,7268;0,0104809
2407,6909;0,010527
2408,6553;0,010577
2409,6194;0,0106258
2410,5837;0,0106673
2411,5479;0,0106961
2412,5122;0,0107096
2413,4763;0,0107103
2414,4407;0,0107046
2415,4048;0,0107001
2416,3691;0,0107026
2417,3333;0,0107147
2418,2976;0,0107369
2419,2617;0,0107679
2420,2261;0,0108051
2421,1902;0,0108432
2422,1545;0,0108762
2423,1187;0,0108997
2424,0830;0,010915
2425,0471;0,0109297
2426,0115;0,0109542
2426,9756;0,0109957
2427,9399;0,011053
2428,9041;0,0111171
2429,8684;0,0111772
2430,8325;0,011227
2431,7969;0,0112674
2432,7610;0,0113032
2433,7253;0,0113375
2434,6895;0,0113678
2435,6538;0,0113883
2436,6179;0,0113951
2437,5823;0,0113912
2438,5464;0,0113866
2439,5107;0,0113944
2440,4749;0,0114234
2441,4392;0,0114735
2442,4033;0,0115357
2443,3677;0,0115961
2444,3318;0,0116426
2445,2961;0,0116698
2446,2603;0,0116813
2447,2246;0,0116871
2448,1887;0,0116976
2449,1531;0,0117183
2450,1172;0,0117479
2451,0815;0,0117801
2452,0457;0,0118101
2453,0100;0,0118385
2453,9741;0,0118711
2454,9385;0,0119139
2455,9026;0,0119668
2456,8669;0,012021
2457,8311;0,0120628
2458,7954;0,0120804
2459,7595;0,012071
2460,7239;0,0120417
2461,6880;0,0120069
2462,6523;0,011981
2463,6165;0,0119741
2464,5808;0,0119897
2465,5449;0,0120247
2466,5093;0,0120717
2467,4734;0,0121205
2468,4377;0,0121603
2469,4019;0,0121817
2470,3662;0,01218
2471,3303;0,0121566
2472,2947;0,0121198
2473,2588;0,0120833
2474,2231;0,0120631
2475,1873;0,0120727
2476,1516;0,0121175
2477,1157;0,0121919
2478,0801;0,0122796
2479,0442;0,0123594
2480,0085;0,0124143
2480,9727;0,0124395
2481,9370;0,0124441
2482,9011;0,0124453
2483,8655;0,012458
2484,8296;0,0124867
2485,7939;0,0125247
2486,7581;0,0125598
2487,7224;0,0125841
2488,6865;0,0125975
2489,6509;0,0126064
2490,6150;0,0126164
2491,5793;0,0126271
2492,5435;0,0126321
2493,5078;0,0126246
2494,4719;0,0126042
2495,4363;0,0125792
2496,4004;0,0125639
2497,3647;0,0125708
2498,3289;0,0126042
2499,2932;0,0126583
2500,2573;0,0127194
2501,2217;0,0127722
2502,1858;0,0128052
2503,1501;0,0128146
2504,1143;0,0128049
2505,0786;0,0127879
2506,0427;0,0127784
2507,0071;0,0127896
2507,9712;0,0128275
2508,9355;0,0128877
2509,8997;0,0129562
2510,8640;0,0130152
2511,8281;0,013051
2512,7925;0,0130601
2513,7566;0,0130498
2514,7209;0,0130328
2515,6851;0,0130202
2516,6494;0,0130155
2517,6135;0,0130159
2518,5779;0,0130165
2519,5420;0,0130158
2520,5063;0,0130172
2521,4705;0,013026
2522,4348;0,0130445
2523,3989;0,0130699
2524,3633;0,0130957
2525,3274;0,0131165
2526,2917;0,0131306
2527,2559;0,0131404
2528,2202;0,0131484
2529,1843;0,0131546
2530,1487;0,0131568
2531,1128;0,0131537
2532,0771;0,0131481
2533,0413;0,0131477
2534,0056;0,0131597
2534,9697;0,0131865
2535,9341;0,0132226
2536,8982;0,0132573
2537,8625;0,0132811
2538,8267;0,0132905
2539,7910;0,0132888
2540,7551;0,0132828
2541,7195;0,013278
2542,6836;0,0132766
2543,6479;0,0132783
2544,6121;0,0132835
2545,5764;0,0132935
2546,5405;0,0133105
2547,5049;0,013334
2548,4690;0,0133603
2549,4333;0,0133841
2550,3975;0,0134008
2551,3618;0,0134089
2552,3259;0,0134103
2553,2903;0,0134077
2554,2544;0,0134031
2555,2188;0,0133973
2556,1829;0,0133906
2557,1472;0,0133848
2558,1113;0,0133837
2559,0757;0,0133911
2560,0398;0,0134091
2561,0042;0,0134356
2561,9683;0,0134646
2562,9326;0,0134896
2563,8967;0,0135069
2564,8611;0,0135188
2565,8252;0,0135318
2566,7896;0,0135522
2567,7537;0,0135805
2568,7180;0,0136098
2569,6821;0,0136293
2570,6465;0,0136309
2571,6106;0,013616
2572,5750;0,0135955
2573,5391;0,0135839
2574,5034;0,0135912
2575,4675;0,0136174
2576,4319;0,0136542
2577,3960;0,0136906
2578,3604;0,0137196
2579,3245;0,0137402
2580,2888;0,0137548
2581,2529;0,0137658
2582,2173;0,0137738
2583,1814;0,0137788
2584,1458;0,0137831
2585,1099;0,0137918
2586,0742;0,0138096
2587,0383;0,0138377
2588,0027;0,0138718
2588,9668;0,0139045
2589,9312;0,0139298
2590,8953;0,0139474
2591,8596;0,0139621
2592,8237;0,0139808
2593,7881;0,014007
2594,7522;0,0140383
2595,7166;0,0140681
2596,6807;0,0140898
2597,6450;0,014102
2598,6091;0,0141101
2599,5735;0,014124
2600,5376;0,0141521
2601,5020;0,0141966
2602,4661;0,0142509
2603,4304;0,0143031
2604,3945;0,0143424
2605,3589;0,0143649
2606,3230;0,0143761
2607,2874;0,014388
2608,2515;0,0144128
2609,2158;0,0144563
2610,1799;0,0145149
2611,1443;0,014577
2612,1084;0,0146289
2613,0728;0,0146609
2614,0369;0,0146721
2615,0012;0,0146706
2615,9653;0,0146691
2616,9297;0,0146797
2617,8938;0,0147085
2618,8582;0,014754
2619,8223;0,0148089
2620,7866;0,0148646
2621,7507;0,014914
2622,7151;0,0149534
2623,6792;0,0149825
2624,6436;0,0150033
2625,6077;0,0150203
2626,5720;0,0150401
2627,5361;0,0150694
2628,5005;0,0151117
2629,4646;0,0151643
2630,4290;0,0152184
2631,3931;0,0152633
2632,3574;0,0152923
2633,3215;0,0153073
2634,2859;0,0153177
2635,2500;0,0153347
2636,2144;0,015365
2637,1785;0,0154079
2638,1428;0,0154577
2639,1069;0,0155086
2640,0713;0,0155583
2641,0354;0,0156076
2641,9998;0,0156573
2642,9639;0,0157053
2643,9282;0,0157471
2644,8923;0,015779
2645,8567;0,015801
2646,8208;0,0158177
2647,7852;0,0158347
2648,7493;0,0158558
2649,7136;0,0158809
2650,6777;0,0159077
2651,6421;0,0159349
2652,6062;0,0159639
2653,5706;0,0159979
2654,5347;0,016039
2655,4990;0,0160853
2656,4631;0,0161317
2657,4275;0,0161718
2658,3916;0,0162022
2659,3560;0,0162239
2660,3201;0,0162413
2661,2844;0,01626
2662,2485;0,0162826
2663,2129;0,0163084
2664,1770;0,0163341
2665,1414;0,0163565
2666,1055;0,0163752
2667,0698;0,0163927
2668,0339;0,0164135
2668,9983;0,0164414
2669,9624;0,0164772
2670,9268;0,016518
2671,8909;0,016559
2672,8552;0,0165953
2673,8193;0,0166248
2674,7837;0,0166483
2675,7478;0,016669
2676,7122;0,0166902
2677,6763;0,0167139
2678,6406;0,0167412
2679,6047;0,0167724
2680,5691;0,0168081
2681,5332;0,0168491
2682,4976;0,0168955
2683,4617;0,0169458
2684,4260;0,0169972
2685,3901;0,0170469
2686,3545;0,0170931
2687,3186;0,0171361
2688,2830;0,0171775
2689,2471;0,0172189
2690,2114;0,0172609
2691,1755;0,0173026
2692,1399;0,0173426
2693,1040;0,0173795
2694,0684;0,0174124
2695,0325;0,0174417
2695,9968;0,0174688
2696,9609;0,0174963
2697,9253;0,017527
2698,8894;0,0175632
2699,8538;0,0176064
2700,8179;0,0176562
2701,7822;0,0177112
2702,7463;0,017769
2703,7107;0,0178267
2704,6748;0,0178813
2705,6392;0,0179306
2706,6033;0,0179735
2707,5676;0,018011
2708,5317;0,018046
2709,4961;0,0180814
2710,4602;0,0181195
2711,4246;0,018161
2712,3887;0,0182056
2713,3530;0,018253
2714,3171;0,0183034
2715,2815;0,0183568
2716,2456;0,0184123
2717,2100;0,0184674
2718,1741;0,0185188
2719,1384;0,0185641
2720,1025;0,0186028
2721,0669;0,0186362
2722,0310;0,0186652
2722,9954;0,0186904
2723,9595;0,0187117
2724,9238;0,0187309
2725,8879;0,018752
2726,8523;0,0187812
2727,8164;0,0188238
2728,7808;0,0188808
2729,7449;0,0189477
2730,7092;0,0190161
2731,6733;0,019077
2732,6377;0,0191255
2733,6018;0,0191617
2734,5662;0,0191895
2735,5303;0,0192136
2736,4946;0,019236
2737,4587;0,019256
2738,4231;0,0192719
2739,3872;0,0192842
2740,3516;0,019297
2741,3157;0,0193163
2742,2800;0,0193464
2743,2441;0,0193873
2744,2085;0,0194334
2745,1726;0,0194766
2746,1370;0,0195102
2747,1011;0,0195324
2748,0654;0,0195465
2749,0295;0,0195591
2749,9939;0,0195766
2750,9580;0,0196028
2751,9224;0,0196383
2752,8865;0,0196811
2753,8508;0,0197281
2754,8149;0,0197765
2755,7793;0,0198244
2756,7434;0,0198712
2757,7078;0,0199172
2758,6719;0,0199631
2759,6362;0,0200089
2760,6003;0,0200534
2761,5647;0,0200946
2762,5288;0,0201304
2763,4932;0,0201603
2764,4573;0,0201866
2765,4216;0,0202143
2766,3857;0,0202499
2767,3501;0,0202989
2768,3142;0,0203631
2769,2786;0,0204393
2770,2427;0,0205194
2771,2070;0,0205939
2772,1711;0,0206557
2773,1355;0,0207032
2774,0996;0,0207411
2775,0640;0,0207777
2776,0281;0,0208209
2776,9924;0,0208747
2777,9565;0,0209391
2778,9209;0,0210114
2779,8850;0,0210892
2780,8494;0,0211717
2781,8135;0,0212587
2782,7778;0,0213483
2783,7419;0,0214353
2784,7063;0,0215126
2785,6704;0,0215744
2786,6348;0,0216197
2787,5989;0,0216541
2788,5632;0,0216883
2789,5273;0,0217342
2790,4917;0,0217999
2791,4558;0,0218874
2792,4202;0,0219921
2793,3843;0,0221054
2794,3486;0,0222189
2795,3127;0,0223272
2796,2771;0,0224294
2797,2412;0,0225281
2798,2056;0,0226273
2799,1697;0,02273
2800,1340;0,022837
2801,0981;0,0229471
2802,0625;0,0230593
2803,0266;0,0231733
2803,9910;0,0232905
2804,9551;0,023412
2805,9194;0,0235379
2806,8835;0,023667
2807,8479;0,0237975
2808,8120;0,0239292
2809,7764;0,0240639
2810,7405;0,0242048
2811,7048;0,0243541
2812,6689;0,024512
2813,6333;0,0246759
2814,5974;0,0248419
2815,5618;0,0250075
2816,5259;0,0251721
2817,4902;0,0253377
2818,4543;0,0255078
2819,4187;0,0256855
2820,3828;0,0258731
2821,3472;0,0260712
2822,3113;0,0262799
2823,2756;0,0264987
2824,2397;0,0267277
2825,2041;0,0269668
2826,1682;0,0272161
2827,1326;0,0274755
2828,0967;0,0277452
2829,0610;0,0280268
2830,0251;0,0283234
2830,9895;0,0286388
2831,9536;0,0289755
2832,9180;0,0293322
2833,8821;0,029703
2834,8464;0,0300796
2835,8105;0,0304552
2836,7749;0,0308292
2837,7390;0,031209
2838,7034;0,0316077
2839,6675;0,0320395
2840,6318;0,0325143
2841,5959;0,0330346
2842,5603;0,0335954
2843,5244;0,0341861
2844,4888;0,0347921
2845,4529;0,0353958
2846,4172;0,0359758
2847,3813;0,0365074
2848,3457;0,0369653
2849,3098;0,037329
2850,2742;0,037589
2851,2383;0,0377505
2852,2026;0,0378328
2853,1667;0,037862
2854,1311;0,0378631
2855,0952;0,0378532
2856,0596;0,0378411
2857,0237;0,0378312
2857,9880;0,037829
2858,9521;0,0378441
2859,9165;0,0378877
2860,8806;0,0379676
2861,8450;0,0380851
2862,8091;0,0382347
2863,7734;0,0384095
2864,7375;0,0386044
2865,7019;0,0388178
2866,6660;0,0390484
2867,6304;0,03929
2868,5945;0,0395301
2869,5588;0,0397529
2870,5229;0,0399458
2871,4873;0,0401044
2872,4514;0,0402347
2873,4158;0,0403487
2874,3799;0,040458
2875,3442;0,0405688
2876,3083;0,0406805
2877,2727;0,0407886
2878,2368;0,0408889
2879,2012;0,040981
2880,1653;0,0410684
2881,1296;0,0411566
2882,0938;0,0412506
2883,0581;0,0413525
2884,0222;0,0414613
2884,9866;0,0415739
2885,9507;0,0416868
2886,9150;0,0417984
2887,8792;0,0419092
2888,8435;0,0420219
2889,8076;0,0421394
2890,7720;0,0422629
2891,7361;0,0423902
2892,7004;0,0425165
2893,6646;0,0426364
2894,6289;0,0427475
2895,5930;0,0428523
2896,5574;0,0429564
2897,5215;0,0430656
2898,4858;0,043181
2899,4500;0,0432984
2900,4143;0,0434103
2901,3784;0,0435121
2902,3428;0,0436062
2903,3069;0,0437021
2904,2712;0,0438125
2905,2354;0,043946
2906,1997;0,0441034
2907,1638;0,0442795
2908,1282;0,0444685
2909,0923;0,0446711
2910,0566;0,0448956
2911,0208;0,0451526
2911,9851;0,0454467
2912,9492;0,0457685
2913,9136;0,0460946
2914,8777;0,0463932
2915,8420;0,0466351
2916,8062;0,0468019
2917,7705;0,0468885
2918,7346;0,0469005
2919,6990;0,0468476
2920,6631;0,0467392
2921,6274;0,0465825
2922,5916;0,0463838
2923,5559;0,0461489
2924,5200;0,0458839
2925,4844;0,0455943
2926,4485;0,0452853
2927,4128;0,0449626
2928,3770;0,0446345
2929,3413;0,0443106
2930,3054;0,0439992
2931,2698;0,0437025
2932,2339;0,0434146
2933,1982;0,0431238
2934,1624;0,0428186
2935,1267;0,0424936
2936,0908;0,0421518
2937,0552;0,0418018
2938,0193;0,0414511
2938,9836;0,0411014
2939,9478;0,0407481
2940,9121;0,0403834
2941,8762;0,0400023
2942,8406;0,0396061
2943,8047;0,0392026
2944,7690;0,0388025
2945,7332;0,0384156
2946,6975;0,0380472
2947,6616;0,0376974
2948,6260;0,037363
2949,5901;0,03704
2950,5544;0,0367263
2951,5186;0,0364226
2952,4829;0,0361315
2953,4470;0,0358549
2954,4114;0,0355916
2955,3755;0,0353368
2956,3398;0,0350835
2957,3040;0,0348266
2958,2683;0,034566
2959,2324;0,0343069
2960,1968;0,0340581
2961,1609;0,0338264
2962,1252;0,0336127
2963,0894;0,0334105
2964,0537;0,0332086
2965,0178;0,0329961
2965,9822;0,0327682
2966,9463;0,0325277
2967,9106;0,0322832
2968,8748;0,0320437
2969,8391;0,0318141
2970,8032;0,0315931
2971,7676;0,0313759
2972,7317;0,0311586
2973,6960;0,0309416
2974,6602;0,0307299
2975,6245;0,0305293
2976,5886;0,0303427
2977,5530;0,0301679
2978,5171;0,0299981
2979,4814;0,0298269
2980,4456;0,0296519
2981,4099;0,0294773
2982,3740;0,0293123
2983,3384;0,0291677
2984,3025;0,0290501
2985,2668;0,0289591
2986,2310;0,028887
2987,1953;0,0288218
2988,1594;0,0287538
2989,1238;0,0286803
2990,0879;0,0286069
2991,0522;0,0285444
2992,0164;0,0285021
2992,9807;0,0284817
2993,9448;0,0284757
2994,9092;0,0284721
2995,8733;0,0284617
2996,8376;0,0284441
2997,8018;0,0284286
2998,7661;0,0284287
2999,7302;0,0284546
3000,6946;0,0285072
3001,6587;0,0285783
3002,6230;0,0286553
3003,5872;0,0287277
3004,5515;0,0287919
3005,5156;0,02885
3006,4800;0,0289066
3007,4441;0,0289636
3008,4084;0,0290192
3009,3726;0,0290698
3010,3369;0,0291128
3011,3010;0,0291488
3012,2654;0,0291806
3013,2295;0,029211
3014,1938;0,0292408
3015,1580;0,0292705
3016,1223;0,0293019
3017,0864;0,0293409
3018,0508;0,0293954
3019,0149;0,0294714
3019,9792;0,029568
3020,9434;0,0296769
3021,9077;0,0297853
3022,8718;0,0298833
3023,8362;0,0299697
3024,8003;0,0300541
3025,7646;0,0301527
3026,7288;0,0302799
3027,6931;0,0304396
3028,6572;0,0306219
3029,6216;0,0308051
3030,5857;0,0309644
3031,5500;0,0310824
3032,5142;0,0311575
3033,4785;0,0312038
3034,4426;0,0312443
3035,4070;0,031301
3036,3711;0,0313859
3037,3354;0,0314987
3038,2996;0,0316303
3039,2639;0,031769
3040,2280;0,0319065
3041,1924;0,0320415
3042,1565;0,0321786
3043,1208;0,0323257
3044,0850;0,0324893
3045,0493;0,0326709
3046,0134;0,0328652
3046,9778;0,033062
3047,9419;0,0332498
3048,9063;0,0334213
3049,8704;0,0335769
3050,8347;0,0337241
3051,7988;0,0338728
3052,7632;0,03403
3053,7273;0,0341968
3054,6917;0,0343693
3055,6558;0,0345434
3056,6201;0,0347187
3057,5842;0,0349
3058,5486;0,035094
3059,5127;0,0353052
3060,4771;0,0355315
3061,4412;0,0357644
3062,4055;0,0359908
3063,3696;0,0361967
3064,3340;0,0363713
3065,2981;0,0365107
3066,2625;0,0366202
3067,2266;0,036714
3068,1909;0,0368119
3069,1550;0,0369326
3070,1194;0,0370873
3071,0835;0,0372762
3072,0479;0,0374893
3073,0120;0,0377127
3073,9763;0,0379351
3074,9404;0,0381517
3075,9048;0,0383634
3076,8689;0,0385716
3077,8333;0,038774
3078,7974;0,0389636
3079,7617;0,0391336
3080,7258;0,0392833
3081,6902;0,0394207
3082,6543;0,039561
3083,6187;0,0397184
3084,5828;0,0399001
3085,5471;0,0401018
3086,5112;0,0403108
3087,4756;0,0405125
3088,4397;0,0406977
3089,4041;0,0408665
3090,3682;0,041027
3091,3325;0,0411902
3092,2966;0,041364
3093,2610;0,0415507
3094,2251;0,0417478
3095,1895;0,0419519
3096,1536;0,0421612
3097,1179;0,0423756
3098,0820;0,0425935
3099,0464;0,04281
3100,0105;0,0430177
3100,9749;0,0432102
3101,9390;0,0433877
3102,9033;0,0435576
3103,8674;0,0437312
3104,8318;0,0439174
3105,7959;0,0441185
3106,7603;0,0443304
3107,7244;0,0445479
3108,6887;0,0447695
3109,6528;0,0449993
3110,6172;0,045244
3111,5813;0,0455065
3112,5457;0,0457821
3113,5098;0,0460597
3114,4741;0,0463262
3115,4382;0,0465736
3116,4026;0,0468015
3117,3667;0,0470163
3118,3311;0,0472258
3119,2952;0,0474352
3120,2595;0,0476448
3121,2236;0,047852
3122,1880;0,0480538
3123,1521;0,0482493
3124,1165;0,0484401
3125,0806;0,0486304
3126,0449;0,0488259
3127,0090;0,0490337
3127,9734;0,0492597
3128,9375;0,049507
3129,9019;0,0497725
3130,8660;0,0500466
3131,8303;0,0503155
3132,7944;0,0505658
3133,7588;0,0507902
3134,7229;0,0509911
3135,6873;0,0511797
3136,6514;0,0513718
3137,6157;0,0515814
3138,5798;0,0518156
3139,5442;0,0520725
3140,5083;0,052342
3141,4727;0,0526121
3142,4368;0,0528748
3143,4011;0,0531302
3144,3652;0,053385
3145,3296;0,0536465
3146,2937;0,053916
3147,2581;0,0541865
3148,2222;0,0544464
3149,1865;0,0546876
3150,1506;0,0549112
3151,1150;0,055128
3152,0791;0,0553517
3153,0435;0,0555909
3154,0076;0,0558456
3154,9719;0,0561089
3155,9360;0,0563738
3156,9004;0,0566373
3157,8645;0,0569003
3158,8289;0,0571644
3159,7930;0,0574283
3160,7573;0,0576878
3161,7214;0,0579394
3162,6858;0,0581843
3163,6499;0,0584287
3164,6143;0,058681
3165,5784;0,0589469
3166,5427;0,0592264
3167,5068;0,0595133
3168,4712;0,0597991
3169,4353;0,0599825
3170,3997;0,0602521
3171,3638;0,0605171
3172,3281;0,0607826
3173,2922;0,0610518
3174,2566;0,0613235
3175,2207;0,0615923
3176,1851;0,0618518
3177,1492;0,0620985
3178,1135;0,062335
3179,0776;0,0625686
3180,0420;0,0628071
3181,0061;0,0630545
3181,9705;0,0633095
3182,9346;0,0635669
3183,8989;0,063822
3184,8630;0,0640736
3185,8274;0,064324
3186,7915;0,0645762
3187,7559;0,0648314
3188,7200;0,0650882
3189,6843;0,065344
3190,6484;0,0655969
3191,6128;0,0658461
3192,5769;0,0660912
3193,5413;0,0663316
3194,5054;0,0665671
3195,4697;0,0667996
3196,4338;0,0670339
3197,3982;0,0672753
3198,3623;0,0675252
3199,3267;0,0677781
3200,2908;0,068023
3201,2551;0,0682492
3202,2192;0,0684533
3203,1836;0,0686416
3204,1477;0,0688278
3205,1121;0,0690253
3206,0762;0,0692411
3207,0405;0,0694736
3208,0046;0,0697161
3208,9690;0,0699617
3209,9331;0,070207
3210,8975;0,0704517
3211,8616;0,0706952
3212,8259;0,0709342
3213,7900;0,0711632
3214,7544;0,0713775
3215,7185;0,071577
3216,6829;0,0717672
3217,6470;0,0719568
3218,6113;0,0721533
3219,5754;0,0723591
3220,5398;0,0725713
3221,5039;0,0727844
3222,4683;0,0729947
3223,4324;0,0732032
3224,3967;0,0734145
3225,3608;0,0736328
3226,3252;0,0738582
3227,2893;0,0740856
3228,2537;0,0743079
3229,2178;0,0745201
3230,1821;0,074723
3231,1462;0,0749209
3232,1106;0,0751175
3233,0747;0,0753119
3234,0391;0,0754997
3235,0032;0,0756777
3235,9675;0,0758493
3236,9316;0,0760257
3237,8960;0,0762208
3238,8601;0,0764425
3239,8245;0,0766868
3240,7886;0,0769382
3241,7529;0,0771776
3242,7170;0,0773919
3243,6814;0,0775795
3244,6455;0,0777502
3245,6099;0,077919
3246,5740;0,0780984
3247,5383;0,0782934
3248,5024;0,0785018
3249,4668;0,0787177
3250,4309;0,078934
3251,3953;0,0791457
3252,3594;0,0793504
3253,3237;0,0795488
3254,2878;0,0797451
3255,2522;0,0799447
3256,2163;0,0801512
3257,1807;0,0803639
3258,1448;0,0805777
3259,1091;0,0807869
3260,0732;0,0809892
3261,0376;0,0811887
3262,0017;0,0813926
3262,9661;0,0816062
3263,9302;0,0818274
3264,8945;0,0820474
3265,8586;0,0822559
3266,8230;0,0824471
3267,7871;0,0826237
3268,7515;0,0827934
3269,7156;0,0829629
3270,6799;0,0831332
3271,6440;0,0832986
3272,6084;0,083451
3273,5725;0,0835854
3274,5369;0,0837016
3275,5010;0,0838036
3276,4653;0,0838964
3277,4294;0,0839834
3278,3938;0,084067
3279,3579;0,0841493
3280,3223;0,0842327
3281,2864;0,084318
3282,2507;0,0844038
3283,2148;0,0844861
3284,1792;0,0845608
3285,1433;0,0846267
3286,1077;0,0846864
3287,0718;0,0847452
3288,0361;0,0848084
3289,0002;0,0848777
3289,9646;0,0849501
3290,9287;0,0850193
3291,8931;0,0850784
3292,8572;0,0851223
3293,8215;0,0851503
3294,7856;0,0851655
3295,7500;0,0851737
3296,7141;0,0851804
3297,6785;0,0851892
3298,6426;0,0852002
3299,6069;0,0852111
3300,5710;0,0852199
3301,5354;0,0852276
3302,4995;0,0852388
3303,4639;0,0852596
3304,4280;0,0852942
3305,3923;0,0853416
3306,3564;0,0853955
3307,3208;0,0854466
3308,2849;0,0854861
3309,2493;0,0855087
3310,2134;0,0855139
3311,1777;0,0855056
3312,1418;0,0854915
3313,1062;0,0854819
3314,0703;0,085488
3315,0347;0,0855193
3315,9988;0,0855808
3316,9631;0,0856717
3317,9272;0,0857862
3318,8916;0,0859157
3319,8557;0,0860518
3320,8201;0,0861867
3321,7842;0,0863143
3322,7485;0,0864293
3323,7126;0,0865285
3324,6770;0,0866127
3325,6411;0,0866875
3326,6055;0,0867623
3327,5696;0,0868464
3328,5339;0,0869461
3329,4980;0,0870608
3330,4624;0,0871833
3331,4265;0,0873023
3332,3909;0,0874056
3333,3550;0,0874835
3334,3193;0,0875302
3335,2834;0,0875438
3336,2478;0,087525
3337,2119;0,0874759
3338,1763;0,0873992
3339,1404;0,0872991
3340,1047;0,0871824
3341,0688;0,0870583
3342,0332;0,0869372
3342,9973;0,0868265
3343,9617;0,0867272
3344,9258;0,086633
3345,8901;0,0865333
3346,8542;0,0864188
3347,8186;0,0862862
3348,7827;0,0861405
3349,7471;0,0859918
3350,7112;0,0858495
3351,6755;0,0857174
3352,6396;0,0855924
3353,6040;0,0854661
3354,5681;0,0853304
3355,5325;0,0851815
3356,4966;0,0850212
3357,4609;0,0848562
3358,4250;0,0846943
3359,3894;0,0845424
3360,3535;0,0844041
3361,3179;0,0842795
3362,2820;0,084164
3363,2463;0,0840488
3364,2104;0,0839221
3365,1748;0,0837719
3366,1389;0,0835904
3367,1033;0,0833778
3368,0674;0,0831434
3369,0317;0,0829028
3369,9958;0,0826722
3370,9602;0,0824628
3371,9243;0,0822775
3372,8887;0,0821105
3373,8528;0,0819501
3374,8171;0,0817834
3375,7813;0,0816005
3376,7456;0,081398
3377,7097;0,0811795
3378,6741;0,0809536
3379,6382;0,0807307
3380,6025;0,0805194
3381,5667;0,0803243
3382,5310;0,080146
3383,4951;0,079983
3384,4595;0,0798331
3385,4236;0,0796943
3386,3879;0,0795635
3387,3521;0,0794351
3388,3164;0,0793004
3389,2805;0,0791507
3390,2449;0,0789806
3391,2090;0,0787922
3392,1733;0,0785949
3393,1375;0,0784015
3394,1018;0,0782205
3395,0659;0,0780518
3396,0303;0,0778858
3396,9944;0,0777092
3397,9587;0,0775113
3398,9229;0,0772878
3399,8872;0,0770414
3400,8513;0,0767783
3401,8157;0,0765066
3402,7798;0,0762349
3403,7441;0,0759723
3404,7083;0,0757267
3405,6726;0,0755013
3406,6367;0,0752916
3407,6011;0,0750858
3408,5652;0,074869
3409,5295;0,0746297
3410,4937;0,0743649
3411,4580;0,0740815
3412,4221;0,0737929
3413,3865;0,0735139
3414,3506;0,0732548
3415,3149;0,0730184
3416,2791;0,0727996
3417,2434;0,0725856
3418,2075;0,0723597
3419,1719;0,0721055
3420,1360;0,0718144
3421,1003;0,0714893
3422,0645;0,071145
3423,0288;0,0708009
3423,9929;0,0704728
3424,9573;0,0701673
3425,9214;0,0698809
3426,8857;0,069603
3427,8499;0,0693209
3428,8142;0,069024
3429,7783;0,0687076
3430,7427;0,0683736
3431,7068;0,0680287
3432,6711;0,0676815
3433,6353;0,0673404
3434,5996;0,0670117
3435,5637;0,0666995
3436,5281;0,0664054
3437,4922;0,0661289
3438,4565;0,065868
3439,4207;0,0656198
3440,3850;0,0653805
3441,3491;0,065145
3442,3135;0,0649056
3443,2776;0,0646515
3444,2419;0,0643688
3445,2061;0,0640443
3446,1704;0,0636716
3447,1345;0,0632569
3448,0989;0,062819
3449,0630;0,0623825
3450,0273;0,0619673
3450,9915;0,0615835
3451,9558;0,0612325
3452,9199;0,0609104
3453,8843;0,0606112
3454,8484;0,0603285
3455,8127;0,0600559
3456,7769;0,0597873
3457,7412;0,0595169
3458,7053;0,0592384
3459,6697;0,0589456
3460,6338;0,0586335
3461,5981;0,0583006
3462,5623;0,0579496
3463,5266;0,0575867
3464,4907;0,0572182
3465,4551;0,0568486
3466,4192;0,0564802
3467,3835;0,0561158
3468,3477;0,0557605
3469,3120;0,0554208
3470,2761;0,0550995
3471,2405;0,0547919
3472,2046;0,0544872
3473,1689;0,054175
3474,1331;0,0538553
3475,0974;0,0535419
3476,0615;0,0532556
3477,0259;0,0530091
3477,9900;0,0527957
3478,9543;0,0525879
3479,9185;0,0523496
3480,8828;0,0520558
3481,8469;0,0517075
3482,8113;0,0513298
3483,7754;0,0509538
3484,7397;0,0505968
3485,7039;0,0502561
3486,6682;0,0499176
3487,6323;0,0495702
3488,5967;0,0492165
3489,5608;0,0488729
3490,5251;0,0485578
3491,4893;0,0482794
3492,4536;0,0480297
3493,4177;0,0477888
3494,3821;0,0475368
3495,3462;0,0472672
3496,3105;0,0469937
3497,2747;0,0467432
3498,2390;0,0465379
3499,2031;0,0463765
3500,1675;0,0462277
3501,1316;0,046038
3502,0959;0,0457579
3503,0601;0,0453751
3504,0244;0,0449282
3504,9885;0,0444818
3505,9529;0,0440852
3506,9170;0,0437482
3507,8813;0,0434439
3508,8455;0,0431292
3509,8098;0,042771
3510,7739;0,0423657
3511,7383;0,0419385
3512,7024;0,041524
3513,6667;0,0411478
3514,6309;0,0408204
3515,5952;0,0405427
3516,5593;0,0403128
3517,5237;0,0401303
3518,4878;0,0399953
3519,4521;0,0399029
3520,4163;0,0398376
3521,3806;0,0397718
3522,3447;0,0396711
3523,3091;0,0395057
3524,2732;0,0392601
3525,2375;0,0389351
3526,2017;0,0385409
3527,1660;0,038092
3528,1301;0,0376065
3529,0945;0,0371099
3530,0586;0,0366337
3531,0229;0,0362044
3531,9871;0,0358336
3532,9514;0,0355147
3533,9155;0,0352261
3534,8799;0,0349403
3535,8440;0,0346374
3536,8083;0,0343192
3537,7725;0,0340131
3538,7368;0,0337592
3539,7009;0,0335904
3540,6653;0,0335163
3541,6294;0,0335163
3542,5938;0,0335377
3543,5579;0,0335018
3544,5222;0,0333304
3545,4863;0,0329925
3546,4507;0,0325312
3547,4148;0,032036
3548,3792;0,0315822
3549,3433;0,0311947
3550,3076;0,0308534
3551,2717;0,0305186
3552,2361;0,0301608
3553,2002;0,0297815
3554,1646;0,0294118
3555,1287;0,029088
3556,0930;0,0288288
3557,0571;0,0286334
3558,0215;0,0284921
3558,9856;0,0283988
3559,9500;0,0283558
3560,9141;0,0283699
3561,8784;0,0284408
3562,8425;0,0285481
3563,8069;0,0286363
3564,7710;0,0285954
3565,7354;0,0282755
3566,6995;0,0275996
3567,6638;0,0266967
3568,6279;0,0258278
3569,5923;0,0251657
3570,5564;0,0247134
3571,5208;0,0243875
3572,4849;0,0241105
3573,4492;0,0238455
3574,4133;0,02359
3575,3777;0,0233549
3576,3418;0,0231473
3577,3062;0,0229641
3578,2703;0,0227969
3579,2346;0,0226431
3580,1987;0,0225095
3581,1631;0,0224064
3582,1272;0,0223369
3583,0916;0,0222925
3584,0557;0,0222532
3585,0200;0,0221794
3585,9841;0,0220061
3586,9485;0,0216896
3587,9126;0,0212905
3588,8770;0,0209517
3589,8411;0,0207628
3590,8054;0,0206999
3591,7695;0,0206807
3592,7339;0,0206306
3593,6980;0,0205104
3594,6624;0,0203217
3595,6265;0,0200981
3596,5908;0,019874
3597,5549;0,0196504
3598,5193;0,0193935
3599,4834;0,0190686
3600,4478;0,0186782
3601,4119;0,0182695
3602,3762;0,0178997
3603,3403;0,0175941
3604,3047;0,0173351
3605,2688;0,0170791
3606,2332;0,0167768
3607,1973;0,0163987
3608,1616;0,0159681
3609,1257;0,0155666
3610,0901;0,0152858
3611,0542;0,0151662
3612,0186;0,015174
3612,9827;0,015224
3613,9470;0,0152217
3614,9111;0,0151027
3615,8755;0,0148503
3616,8396;0,014493
3617,8040;0,0140909
3618,7681;0,0137246
3619,7324;0,0134816
3620,6965;0,013417
3621,6609;0,0135022
3622,6250;0,0136236
3623,5894;0,0136462
3624,5535;0,0134849
3625,5178;0,0131381
3626,4819;0,0126673
3627,4463;0,0121367
3628,4104;0,011594
3629,3748;0,0111288
3630,3389;0,0108331
3631,3032;0,0106693
3632,2673;0,0104961
3633,2317;0,0102009
3634,1958;0,00977042
3635,1602;0,00927635
3636,1243;0,00881614
3637,0886;0,0084554
3638,0527;0,00820709
3639,0171;0,0080505
3639,9812;0,00796113
3640,9456;0,00792306
3641,9097;0,00792072
3642,8740;0,00792937
3643,8381;0,00792374
3644,8025;0,00790238
3645,7666;0,0078946
3646,7310;0,00789662
3647,6951;0,00774875
3648,6594;0,00721016
3649,6235;0,00636651
3650,5879;0,00562601
3651,5520;0,00518841
3652,5164;0,00493295
3653,4805;0,00467603
3654,4448;0,0043373
3655,4089;0,00395341
3656,3733;0,00361907
3657,3374;0,00340916
3658,3018;0,0033249
3659,2659;0,00330362
3660,2302;0,00328068
3661,1943;0,00324013
3662,1587;0,0032107
3663,1228;0,0032203
3664,0872;0,0032575
3665,0513;0,00328434
3666,0156;0,00328257
3666,9797;0,00328572
3667,9441;0,00334666
3668,9082;0,0034625
3669,8726;0,00356035
3670,8367;0,0035701
3671,8010;0,00346906
3672,7651;0,00327558
3673,7295;0,00303991
3674,6936;0,00281665
3675,6580;0,00264206
3676,6221;0,00255453
3677,5864;0,00257528
3678,5505;0,00265838
3679,5149;0,00272912
3680,4790;0,00275622
3681,4434;0,00276038
3682,4075;0,00276767
3683,3718;0,00276892
3684,3359;0,00272907
3685,3003;0,00263911
3686,2644;0,00256007
3687,2288;0,00259993
3688,1929;0,00280923
3689,1572;0,0031052
3690,1213;0,0033619
3691,0857;0,00353262
3692,0498;0,00362799
3693,0142;0,00366189
3693,9783;0,00365022
3694,9426;0,00361531
3695,9067;0,00357381
3696,8711;0,0035271
3697,8352;0,00346927
3698,7996;0,00340493
3699,7637;0,00335728
3700,7280;0,00335696
3701,6921;0,00342289
3702,6565;0,00355081
3703,6206;0,00371146
3704,5850;0,00385768
3705,5491;0,00394546
3706,5134;0,00395874
3707,4775;0,00391384
3708,4419;0,00382445
3709,4060;0,00364369
3710,3704;0,00327712
3711,3345;0,00273685
3712,2988;0,00222526
3713,2629;0,00194999
3714,2273;0,00194752
3715,1914;0,00212691
3716,1558;0,00238817
3717,1199;0,00268195
3718,0842;0,00300516
3719,0483;0,00336805
3720,0127;0,00376613
3720,9768;0,00417392
3721,9412;0,00455526
3722,9053;0,0048739
3723,8696;0,00509817
3724,8337;0,00520812
3725,7981;0,00520475
3726,7622;0,00510733
3727,7266;0,00493893
3728,6907;0,00472282
3729,6550;0,00449621
3730,6191;0,00431973
3731,5835;0,00425568
3732,5476;0,00430818
3733,5120;0,00437004
3734,4761;0,00428687
3735,4404;0,00404785
3736,4045;0,0038286
3737,3689;0,0037588
3738,3330;0,0037588
3739,2974;0,0036255
3740,2615;0,00319823
3741,2258;0,00246871
3742,1899;0,00161616
3743,1543;0,000946295
3744,1184;0,000715242
3745,0828;0,000943245
3746,0469;0,00140771
3747,0112;0,001818
3747,9753;0,00198529
3748,9397;0,00187005
3749,9038;0,00154297
3750,8682;0,00116257
3751,8323;0,000947999
3752,7966;0,00101577
3753,7607;0,00126981
3754,7251;0,00152262
3755,6892;0,00164945
3756,6536;0,00162761
3757,6177;0,00149891
3758,5820;0,00132743
3759,5461;0,00117885
3760,5105;0,00109899
3761,4746;0,00109212
3762,4390;0,0011284
3763,4031;0,00117158
3764,3674;0,00119607
3765,3315;0,00118735
3766,2959;0,00113813
3767,2600;0,00104866
3768,2244;0,000928727
3769,1885;0,000798745
3770,1528;0,000689362
3771,1169;0,00063117
3772,0813;0,000634164
3773,0454;0,000675585
3774,0098;0,00071523
3774,9739;0,000726131
3775,9382;0,000713049
3776,9023;0,000702706
3777,8667;0,000717705
3778,8308;0,000765576
3779,7952;0,000848033
3780,7593;0,000962806
3781,7236;0,00109177
3782,6877;0,00119889
3783,6521;0,00124425
3784,6162;0,00120365
3785,5806;0,00108497
3786,5447;0,00092837
3787,5090;0,000785837
3788,4731;0,000692141
3789,4375;0,000650639
3790,4016;0,000644674
3791,3660;0,000664009
3792,3301;0,000724502
3793,2944;0,000861929
3794,2585;0,00109825
3795,2229;0,00140512
3796,1870;0,00170247
3797,1514;0,00190203
3798,1155;0,0019597
3799,0798;0,00189226
3800,0439;0,00174953
3801,0083;0,0015761
3801,9724;0,00139575
3802,9368;0,00120403
3803,9009;0,000968397
3804,8652;0,000666263
3805,8293;0,000338344
3806,7937;9,46994E-05
3807,7578;4,90652E-05
3808,7222;0,000222037
3809,6863;0,000506509
3810,6506;0,000742193
3811,6147;0,000831368
3812,5791;0,000803332
3813,5432;0,000789812
3814,5076;0,00092215
3815,4717;0,00122149
3816,4360;0,00158412
3817,4001;0,0018646
3818,3645;0,00195878
3819,3286;0,00183728
3820,2930;0,00155648
3821,2571;0,00125366
3822,2214;0,00107758
3823,1855;0,00107645
3824,1499;0,00117489
3825,1140;0,00125879
3826,0784;0,00126054
3827,0425;0,00118535
3828,0068;0,0010897
3828,9709;0,00103987
3829,9353;0,00107427
3830,8994;0,00118578
3831,8638;0,00132906
3832,8279;0,00144729
3833,7922;0,00150533
3834,7563;0,00151087
3835,7207;0,00150634
3836,6848;0,00152997
3837,6492;0,00157586
3838,6133;0,00159975
3839,5776;0,001563
3840,5417;0,00145844
3841,5061;0,00130616
3842,4702;0,00115209
3843,4346;0,00106612
3844,3987;0,00111442
3845,3630;0,00131011
3846,3271;0,00158096
3847,2915;0,00178628
3848,2556;0,00177615
3849,2200;0,00146106
3850,1841;0,000864321
3851,1484;0,000128756
3852,1125;-0,000545425
3853,0769;-0,000960187
3854,0410;-0,000923144
3855,0054;-0,000400745
3855,9695;0,000358791
3856,9338;0,0010273
3857,8979;0,00141394
3858,8623;0,00150996
3859,8264;0,00143649
3860,7908;0,00135841
3861,7549;0,00138639
3862,7192;0,00151214
3863,6833;0,00163799
3864,6477;0,00167573
3865,6118;0,00160773
3866,5762;0,00147659
3867,5403;0,00135112
3868,5046;0,00129139
3869,4688;0,00131365
3870,4331;0,00137798
3871,3972;0,00142068
3872,3616;0,00140189
3873,3257;0,0013204
3874,2900;0,001197
3875,2542;0,00105975
3876,2185;0,000945425
3877,1826;0,000901813
3878,1470;0,000971808
3879,1111;0,00115576
3880,0754;0,00138494
3881,0396;0,00154824
3882,0039;0,00155935
3882,9680;0,00140443
3883,9324;0,00114138
3884,8965;0,000865987
3885,8608;0,000663652
3886,8250;0,000567925
3887,7893;0,000556484
3888,7534;0,000590091
3889,7178;0,000653311
3890,6819;0,000755962
3891,6462;0,000905949
3892,6104;0,00109218
3893,5747;0,00128194
3894,5388;0,00142636
3895,5032;0,00148806
3896,4673;0,00147403
3897,4316;0,00143407
3898,3958;0,0014192
3899,3601;0,00144019
3900,3242;0,00146709
3901,2886;0,00146207
3902,2527;0,0014014
3903,2170;0,00128059
3904,1812;0,00111895
3905,1455;0,000952268
3906,1096;0,000806973
3907,0740;0,000685919
3908,0381;0,000582452
3909,0024;0,000499816
3909,9666;0,000452911
3910,9309;0,000454416
3911,8950;0,000502363
3912,8594;0,00058103
3913,8235;0,000671847
3914,7878;0,000761519
3915,7520;0,000840994
3916,7163;0,000903797
3917,6804;0,000953574
3918,6448;0,00100875
3919,6089;0,00108847
3920,5732;0,0011919
3921,5374;0,00129617
3922,5017;0,00136904
3923,4658;0,00138548
3924,4302;0,00134399
3925,3943;0,00127257
3926,3586;0,00121192
3927,3228;0,00118863
3928,2871;0,00120296
3929,2512;0,00123281
3930,2156;0,00124312
3931,1797;0,00120244
3932,1440;0,0011065
3933,1082;0,000985224
3934,0725;0,000878442
3935,0366;0,000807357
3936,0010;0,000770423
3936,9651;0,000758134
3937,9294;0,000766353
3938,8936;0,000798014
3939,8579;0,000855091
3940,8220;0,000930011
3941,7864;0,00100687
3942,7505;0,00107371
3943,7148;0,00113296
3944,6790;0,00119519
3945,6433;0,00126397
3946,6074;0,00132572
3947,5718;0,00135162
3948,5359;0,00131238
3949,5002;0,00120005
3950,4644;0,00103932
3951,4287;0,000873945
3952,3928;0,000740904
3953,3572;0,000655597
3954,3213;0,000614248
3955,2856;0,00060453
3956,2498;0,000615127
3957,2141;0,00063952
3958,1782;0,000673245
3959,1426;0,00070854
3960,1067;0,00073241
3961,0710;0,000731586
3962,0352;0,000701523
3962,9995;0,000651754
3963,9636;0,000601633
3964,9280;0,00057013
3965,8921;0,000565579
3966,8564;0,000583291
3967,8206;0,000610471
3968,7849;0,000635062
3969,7490;0,000652683
3970,7134;0,000666983
3971,6775;0,000683394
3972,6418;0,000701608
3973,6060;0,000712961
3974,5703;0,0007053
3975,5344;0,000671757
3976,4988;0,000616714
3977,4629;0,000554154
3978,4272;0,000499769
3979,3914;0,000462311
3980,3557;0,000439768
3981,3198;0,000422518
3982,2842;0,000401491
3983,2483;0,000375718
3984,2126;0,000353861
3985,1768;0,000348571
3986,1411;0,000367811
3987,1052;0,00040886
3988,0696;0,000458489
3989,0337;0,000499858
3989,9980;0,000520313
3990,9622;0,000516842
3991,9265;0,000495231
3992,8906;0,000464684
3993,8550;0,000432406
3994,8191;0,000401788
3995,7834;0,000374263
3996,7476;0,000351908
3997,7119;0,000337882
3998,6760;0,000334321
3999,6404;0,000340005
4000,6045;0,00071255

##### Extended Information
[Comments]
Sample name
Comment
Username
Division
Organization;UNIVERSIDAD INDUSTRIAL DE SANTANDER

[Detailed Information]
Creation date;20/03/2025 12:11 p.m.

Data array type;Linear data array
Horizontal axis;Wavenumber [cm-1]
Vertical axis;Abs
Start;399,193 cm-1
End;4000,6 cm-1
Data interval;0,964233 cm-1
Data points;3736    

[Measurement Information]
Model name;FT/IR-4X1typeA
Serial No.;A035162111

Accessory;ATR PRO 4X
Accessory S/N;A021162126
Incident angle;45 deg

Measurement date;20/03/2025 12:10 p.m.

Light source;Standard
Detector;TGS
Accumulation;40
Resolution;4 cm-1
Zero filling;On
Apodization;Cosine
Gain;Auto (8)
Aperture;Auto (7 mm)
Scan speed;Auto (2 mm/sec)
Filter;Auto (12800 Hz)

