TITLE;
DATA TYPE;INFRARED SPECTRUM
ORIGIN;JASCO
OWNER;
DATE;25/03/20
TIME;13:04:38
SPECTROMETER/DATA SYSTEM;
LOCALE;9226
RESOLUTION;
DELTAX;0,964233
XUNITS;1/CM
YUNITS;ABSORBANCE
FIRSTX;  399,1927
LASTX; 4000,6047
NPOINTS;    3736
FIRSTY;     0,19066
MAXY;     0,25509
MINY;    -0,00502
XYDATA
399,1927;0,190661
400,1569;0,191778
401,1211;0,191773
402,0854;0,190982
403,0496;0,189713
404,0138;0,188276
404,9781;0,187039
405,9423;0,186364
406,9065;0,186454
407,8708;0,187244
408,8350;0,188453
409,7992;0,189771
410,7635;0,191042
411,7277;0,192319
412,6919;0,193772
413,6562;0,195537
414,6204;0,197627
415,5846;0,199912
416,5489;0,202108
417,5131;0,203779
418,4773;0,204532
419,4416;0,204447
420,4058;0,204146
421,3700;0,20418
422,3343;0,204628
423,2985;0,205233
424,2627;0,205643
425,2270;0,205593
426,1912;0,205042
427,1554;0,204211
428,1197;0,203489
429,0839;0,203272
430,0481;0,203813
431,0124;0,205114
431,9766;0,206888
432,9408;0,20862
433,9051;0,209749
434,8693;0,209899
435,8335;0,209071
436,7978;0,207649
437,7620;0,206203
438,7262;0,205199
439,6905;0,204826
440,6547;0,204984
441,6189;0,205379
442,5832;0,205661
443,5474;0,205582
444,5116;0,205094
445,4759;0,204344
446,4401;0,203559
447,4043;0,202928
448,3686;0,202538
449,3328;0,202364
450,2970;0,202307
451,2613;0,202259
452,2255;0,202174
453,1897;0,202092
454,1540;0,202105
455,1182;0,202275
456,0824;0,202557
457,0467;0,202761
458,0109;0,202641
458,9751;0,202071
459,9394;0,201162
460,9036;0,200181
461,8678;0,199389
462,8321;0,198922
463,7963;0,19876
464,7605;0,198747
465,7248;0,198666
466,6890;0,198364
467,6532;0,197868
468,6175;0,197392
469,5817;0,197238
470,5459;0,19763
471,5102;0,198546
472,4744;0,199664
473,4386;0,200513
474,4029;0,200768
475,3671;0,200408
476,3313;0,199657
477,2956;0,198815
478,2598;0,198139
479,2240;0,197801
480,1883;0,197884
481,1525;0,198386
482,1167;0,199215
483,0810;0,200179
484,0452;0,201019
485,0094;0,201517
485,9737;0,201616
486,9379;0,201463
487,9021;0,201319
488,8664;0,201418
489,8306;0,201852
490,7948;0,202533
491,7591;0,203239
492,7233;0,203735
493,6875;0,203896
494,6518;0,203754
495,6160;0,203461
496,5802;0,203198
497,5445;0,203106
498,5087;0,20326
499,4729;0,203656
500,4372;0,204223
501,4014;0,204832
502,3656;0,205345
503,3299;0,205669
504,2941;0,205792
505,2583;0,205773
506,2226;0,205688
507,1868;0,205597
508,1510;0,205533
509,1153;0,205517
510,0795;0,205586
511,0437;0,205802
512,0080;0,206231
512,9722;0,206912
513,9365;0,207833
514,9007;0,208921
515,8649;0,210042
516,8292;0,211016
517,7934;0,211662
518,7576;0,211866
519,7219;0,211647
520,6861;0,211151
521,6503;0,210587
522,6146;0,210148
523,5788;0,209945
524,5430;0,209975
525,5073;0,210126
526,4715;0,210228
527,4357;0,210158
528,4000;0,209894
529,3642;0,209496
530,3284;0,209043
531,2927;0,208588
532,2569;0,208154
533,2211;0,207759
534,1854;0,207427
535,1496;0,207176
536,1138;0,206998
537,0781;0,206843
538,0423;0,20665
539,0065;0,206389
539,9708;0,206099
540,9350;0,205871
541,8992;0,205806
542,8635;0,205957
543,8277;0,2063
544,7919;0,206746
545,7562;0,207185
546,7204;0,207531
547,6846;0,207756
548,6489;0,207883
549,6131;0,207973
550,5773;0,208092
551,5416;0,208291
552,5058;0,208589
553,4700;0,208973
554,4343;0,20939
555,3985;0,209764
556,3627;0,210006
557,3270;0,210028
558,2912;0,209755
559,2554;0,209135
560,2197;0,208164
561,1839;0,206906
562,1481;0,205501
563,1124;0,204136
564,0766;0,202982
565,0408;0,20213
566,0051;0,201553
566,9693;0,201137
567,9335;0,200743
568,8978;0,200294
569,8620;0,199806
570,8262;0,199363
571,7905;0,199048
572,7547;0,198889
573,7189;0,19885
574,6832;0,198855
575,6474;0,198839
576,6116;0,198773
577,5759;0,198668
578,5401;0,198556
579,5043;0,198457
580,4686;0,198371
581,4328;0,19828
582,3970;0,198153
583,3613;0,197965
584,3255;0,19771
585,2897;0,197415
586,2540;0,197144
587,2182;0,196982
588,1824;0,197003
589,1467;0,197221
590,1109;0,19757
591,0751;0,197907
592,0394;0,19807
593,0036;0,197956
593,9678;0,19757
594,9321;0,197009
595,8963;0,1964
596,8605;0,195831
597,8248;0,19532
598,7890;0,194829
599,7532;0,194309
600,7175;0,193741
601,6817;0,193149
602,6459;0,192581
603,6102;0,192073
604,5744;0,191628
605,5386;0,191211
606,5029;0,190765
607,4671;0,190235
608,4313;0,189583
609,3956;0,188814
610,3598;0,187988
611,3240;0,187217
612,2883;0,186633
613,2525;0,186323
614,2167;0,186268
615,1810;0,186304
616,1452;0,18616
617,1094;0,185564
618,0737;0,184389
619,0379;0,182725
620,0021;0,180822
620,9664;0,178962
621,9306;0,177333
622,8948;0,176003
623,8591;0,174936
624,8233;0,174007
625,7875;0,173229
626,7518;0,172547
627,7160;0,171929
628,6802;0,171345
629,6445;0,170778
630,6087;0,170213
631,5729;0,169649
632,5372;0,169091
633,5014;0,16854
634,4656;0,167999
635,4299;0,167478
636,3941;0,166994
637,3583;0,166571
638,3226;0,166222
639,2868;0,165939
640,2510;0,165691
641,2153;0,165438
642,1795;0,165149
643,1437;0,164817
644,1080;0,164456
645,0722;0,164083
646,0364;0,163705
647,0007;0,163316
647,9649;0,162905
648,9291;0,162475
649,8934;0,162051
650,8576;0,161676
651,8218;0,161395
652,7861;0,161237
653,7503;0,161205
654,7145;0,16127
655,6788;0,16137
656,6430;0,161439
657,6072;0,161439
658,5715;0,16137
659,5357;0,161248
660,4999;0,161044
661,4642;0,160651
662,4284;0,159898
663,3926;0,15862
664,3569;0,156787
665,3211;0,154683
666,2853;0,153004
667,2496;0,152548
668,2138;0,153248
669,1780;0,153961
670,1423;0,153961
671,1065;0,153333
672,0707;0,152189
673,0350;0,15057
673,9992;0,148642
674,9634;0,146677
675,9277;0,144898
676,8919;0,143366
677,8561;0,142001
678,8204;0,140704
679,7846;0,139446
680,7488;0,138259
681,7131;0,137186
682,6773;0,136233
683,6415;0,135385
684,6058;0,134634
685,5700;0,133996
686,5342;0,133479
687,4985;0,133057
688,4627;0,132675
689,4269;0,132259
690,3912;0,131774
691,3554;0,13124
692,3196;0,130707
693,2839;0,130215
694,2481;0,129773
695,2123;0,129356
696,1766;0,12893
697,1408;0,128464
698,1050;0,127945
699,0693;0,127377
700,0335;0,126776
700,9977;0,126165
701,9620;0,125567
702,9262;0,124998
703,8904;0,124438
704,8547;0,12387
705,8189;0,123267
706,7831;0,12261
707,7474;0,121904
708,7116;0,121177
709,6758;0,120467
710,6401;0,119797
711,6043;0,119161
712,5685;0,118532
713,5328;0,117885
714,4970;0,117224
715,4612;0,115606
716,4255;0,115231
717,3897;0,114983
718,3539;0,114739
719,3182;0,114305
720,2824;0,113523
721,2466;0,112364
722,2109;0,110953
723,1751;0,109489
724,1393;0,108139
725,1036;0,106981
726,0678;0,10601
727,0320;0,105179
727,9963;0,10444
728,9605;0,103759
729,9247;0,103113
730,8890;0,102475
731,8532;0,101825
732,8174;0,101153
733,7817;0,100478
734,7459;0,0998374
735,7101;0,0992706
736,6744;0,0987936
737,6386;0,098391
738,6028;0,0980231
739,5671;0,097644
740,5313;0,0972196
741,4955;0,096736
742,4598;0,096199
743,4240;0,0956277
744,3882;0,0950473
745,3525;0,0944829
746,3167;0,0939551
747,2809;0,0934752
748,2452;0,0930413
749,2094;0,0926365
750,1736;0,0922325
751,1379;0,091798
752,1021;0,0913117
753,0663;0,0907711
754,0306;0,0901949
754,9948;0,0896141
755,9590;0,0890596
756,9233;0,0885501
757,8875;0,0880893
758,8517;0,0876712
759,8160;0,0872868
760,7802;0,086928
761,7444;0,0865847
762,7087;0,0862424
763,6729;0,085883
764,6371;0,0854941
765,6014;0,0850785
766,5656;0,0846577
767,5298;0,0842637
768,4941;0,0839225
769,4583;0,0836406
770,4225;0,0834019
771,3868;0,083179
772,3510;0,082949
773,3152;0,0827048
774,2795;0,0824559
775,2437;0,0822178
776,2079;0,0819988
777,1722;0,0817915
778,1364;0,0815726
779,1006;0,08131
780,0649;0,0809744
781,0291;0,0805505
781,9933;0,0800446
782,9576;0,0794846
783,9218;0,0789114
784,8860;0,0783642
785,8503;0,0778667
786,8145;0,0774202
787,7787;0,0770101
788,7430;0,0766189
789,7072;0,0762396
790,6714;0,0758795
791,6357;0,0755538
792,5999;0,0752723
793,5641;0,0750311
794,5284;0,0748129
795,4926;0,0745966
796,4568;0,0743687
797,4211;0,0741282
798,3853;0,0738833
799,3495;0,0736438
800,3138;0,0734137
801,2780;0,0731912
802,2422;0,0729727
803,2065;0,0727583
804,1707;0,0725533
805,1349;0,0723648
806,0992;0,0721973
807,0634;0,0720493
808,0276;0,0719142
808,9919;0,0717839
809,9561;0,0716528
810,9203;0,0715184
811,8846;0,0713801
812,8488;0,0712364
813,8130;0,0710835
814,7773;0,0709169
815,7415;0,070735
816,7057;0,0705417
817,6700;0,0703468
818,6342;0,0701626
819,5984;0,069999
820,5627;0,0698597
821,5269;0,0697422
822,4911;0,0696406
823,4554;0,069548
824,4196;0,0694579
825,3839;0,0693629
826,3481;0,0692547
827,3123;0,069126
828,2766;0,0689744
829,2408;0,0688054
830,2050;0,0686299
831,1693;0,0684581
832,1335;0,0682927
833,0977;0,0681269
834,0620;0,0679478
835,0262;0,0677441
835,9904;0,0675124
836,9547;0,0672583
837,9189;0,066994
838,8831;0,066733
839,8474;0,0664861
840,8116;0,066259
841,7758;0,0660513
842,7401;0,0658573
843,7043;0,0656698
844,6685;0,0654851
845,6328;0,065307
846,5970;0,0651465
847,5612;0,0650157
848,5255;0,0649201
849,4897;0,0648551
850,4539;0,0648083
851,4182;0,0647671
852,3824;0,0647239
853,3466;0,0646748
854,3109;0,0646138
855,2751;0,0645298
856,2393;0,0644092
857,2036;0,0642466
858,1678;0,0640527
859,1320;0,0638534
860,0963;0,0636789
861,0605;0,0635484
862,0247;0,063462
862,9890;0,0634045
863,9532;0,0633577
864,9174;0,0633129
865,8817;0,0632757
866,8459;0,0632596
867,8101;0,0632763
868,7744;0,0633273
869,7386;0,0634032
870,7028;0,0634881
871,6671;0,0635671
872,6313;0,0636324
873,5955;0,0636856
874,5598;0,0637381
875,5240;0,0638071
876,4882;0,0639113
877,4525;0,0640638
878,4167;0,0642681
879,3809;0,0645182
880,3452;0,0648044
881,3094;0,0651213
882,2736;0,0654747
883,2379;0,0658823
884,2021;0,0663659
885,1663;0,0669423
886,1306;0,067615
887,0948;0,0683722
888,0590;0,0691924
889,0233;0,0700516
889,9875;0,0709288
890,9517;0,0718066
891,9160;0,0726668
892,8802;0,0734856
893,8444;0,0742305
894,8087;0,074863
895,7729;0,0753453
896,7371;0,0756476
897,7014;0,0757546
898,6656;0,0756665
899,6298;0,0753956
900,5941;0,0749606
901,5583;0,0743824
902,5225;0,0736837
903,4868;0,0728942
904,4510;0,0720564
905,4152;0,0712265
906,3795;0,0704671
907,3437;0,0698317
908,3079;0,069348
909,2722;0,0690098
910,2364;0,068782
911,2007;0,0686191
912,1649;0,0684861
913,1292;0,0683723
914,0934;0,0682901
915,0576;0,0682632
916,0219;0,0683101
916,9861;0,0684339
917,9503;0,0686219
918,9146;0,0688534
919,8788;0,0691082
920,8430;0,0693722
921,8073;0,0696372
922,7715;0,0698975
923,7357;0,0701469
924,7000;0,0703781
925,6642;0,0705843
926,6284;0,0707632
927,5927;0,0709183
928,5569;0,0710602
929,5211;0,0712043
930,4854;0,0713663
931,4496;0,0715573
932,4138;0,0717805
933,3781;0,0720314
934,3423;0,0723028
935,3065;0,0725911
936,2708;0,0729021
937,2350;0,073252
938,1992;0,0736621
939,1635;0,0741504
940,1277;0,0747243
941,0919;0,0753779
942,0562;0,076097
943,0204;0,0768674
943,9846;0,0776838
944,9489;0,0785529
945,9131;0,0794894
946,8773;0,0805076
947,8416;0,0816134
948,8058;0,0828012
949,7700;0,0840572
950,7343;0,0853672
951,6985;0,0867217
952,6627;0,0881184
953,6270;0,0895585
954,5912;0,0910434
955,5554;0,0925729
956,5197;0,0941466
957,4839;0,095766
958,4481;0,0974351
959,4124;0,0991561
960,3766;0,100926
961,3408;0,102732
962,3051;0,104556
963,2693;0,106381
964,2335;0,108197
965,1978;0,110005
966,1620;0,111817
967,1262;0,113655
968,0905;0,115546
969,0547;0,117523
970,0189;0,11962
970,9832;0,121875
971,9474;0,124319
972,9116;0,126975
973,8759;0,129855
974,8401;0,132961
975,8043;0,136288
976,7686;0,139832
977,7328;0,143581
978,6970;0,147509
979,6613;0,151564
980,6255;0,155661
981,5897;0,159687
982,5540;0,163523
983,5182;0,167071
984,4824;0,170268
985,4467;0,173104
986,4109;0,175608
987,3751;0,177833
988,3394;0,17983
989,3036;0,181638
990,2678;0,183278
991,2321;0,184762
992,1963;0,186094
993,1605;0,187288
994,1248;0,188362
995,0890;0,189343
996,0532;0,190261
997,0175;0,191145
997,9817;0,192018
998,9459;0,192895
999,9102;0,193791
1000,8744;0,194721
1001,8386;0,195707
1002,8029;0,19678
1003,7671;0,197975
1004,7313;0,199326
1005,6956;0,200868
1006,6598;0,202631
1007,6240;0,204641
1008,5883;0,206911
1009,5525;0,209439
1010,5167;0,212194
1011,4810;0,215122
1012,4452;0,218154
1013,4094;0,221213
1014,3737;0,224234
1015,3379;0,227168
1016,3021;0,229982
1017,2664;0,232651
1018,2306;0,235152
1019,1948;0,237469
1020,1591;0,239594
1021,1233;0,241541
1022,0875;0,243342
1023,0518;0,245044
1024,0160;0,246687
1024,9802;0,248292
1025,9445;0,249847
1026,9087;0,251314
1027,8729;0,252638
1028,8372;0,253753
1029,8014;0,254588
1030,7656;0,255061
1031,7299;0,255086
1032,6941;0,254585
1033,6583;0,253519
1034,6226;0,251907
1035,5868;0,249848
1036,5510;0,247503
1037,5153;0,245076
1038,4795;0,242767
1039,4437;0,240741
1040,4080;0,239103
1041,3722;0,237888
1042,3364;0,237066
1043,3007;0,236559
1044,2649;0,23626
1045,2291;0,23606
1046,1934;0,235864
1047,1576;0,235602
1048,1218;0,235222
1049,0861;0,234686
1050,0503;0,233951
1051,0145;0,232976
1051,9788;0,231726
1052,9430;0,230188
1053,9072;0,228374
1054,8715;0,22631
1055,8357;0,224017
1056,7999;0,221487
1057,7642;0,218679
1058,7284;0,215536
1059,6926;0,212024
1060,6569;0,208168
1061,6211;0,20406
1062,5853;0,199847
1063,5496;0,195689
1064,5138;0,191721
1065,4780;0,18803
1066,4423;0,184646
1067,4065;0,181557
1068,3707;0,178722
1069,3350;0,17609
1070,2992;0,173602
1071,2634;0,171204
1072,2277;0,168846
1073,1919;0,166489
1074,1561;0,164104
1075,1204;0,161678
1076,0846;0,159217
1077,0488;0,156746
1078,0131;0,154311
1078,9773;0,15197
1079,9415;0,149786
1080,9058;0,14781
1081,8700;0,146078
1082,8342;0,144603
1083,7985;0,143378
1084,7627;0,142384
1085,7269;0,141587
1086,6912;0,140952
1087,6554;0,140445
1088,6196;0,14004
1089,5839;0,13972
1090,5481;0,139479
1091,5123;0,139314
1092,4766;0,139221
1093,4408;0,139198
1094,4050;0,139239
1095,3693;0,139342
1096,3335;0,139502
1097,2977;0,139709
1098,2620;0,139947
1099,2262;0,140194
1100,1904;0,140421
1101,1547;0,140601
1102,1189;0,14071
1103,0831;0,140729
1104,0474;0,14065
1105,0116;0,140471
1105,9758;0,140196
1106,9401;0,139831
1107,9043;0,139374
1108,8685;0,138809
1109,8328;0,138104
1110,7970;0,13722
1111,7612;0,136128
1112,7255;0,134822
1113,6897;0,133337
1114,6539;0,131738
1115,6182;0,130117
1116,5824;0,128562
1117,5466;0,127137
1118,5109;0,125863
1119,4751;0,124709
1120,4393;0,123599
1121,4036;0,122429
1122,3678;0,121097
1123,3320;0,119523
1124,2963;0,11767
1125,2605;0,115542
1126,2247;0,11318
1127,1890;0,110645
1128,1532;0,108004
1129,1174;0,105319
1130,0817;0,102639
1131,0459;0,100003
1132,0101;0,0974473
1132,9744;0,0950095
1133,9386;0,0927355
1134,9028;0,0906752
1135,8671;0,0888736
1136,8313;0,0873602
1137,7955;0,0861435
1138,7598;0,0852127
1139,7240;0,0845456
1140,6882;0,084118
1141,6525;0,0839068
1142,6167;0,0838882
1143,5809;0,0840334
1144,5452;0,0843076
1145,5094;0,084675
1146,4736;0,0851076
1147,4379;0,0855919
1148,4021;0,0861288
1149,3663;0,0867254
1150,3306;0,0873829
1151,2948;0,0880867
1152,2590;0,0888038
1153,2233;0,0894877
1154,1875;0,0900865
1155,1517;0,0905497
1156,1160;0,0908297
1157,0802;0,0908781
1158,0444;0,0906404
1159,0087;0,0900539
1159,9729;0,0890535
1160,9371;0,0875847
1161,9014;0,08562
1162,8656;0,0831735
1163,8298;0,0803068
1164,7941;0,0771239
1165,7583;0,0737566
1166,7225;0,0703451
1167,6868;0,0670187
1168,6510;0,0638801
1169,6152;0,0609974
1170,5795;0,0584027
1171,5437;0,056099
1172,5079;0,05407
1173,4722;0,0522912
1174,4364;0,0507371
1175,4006;0,0493854
1176,3649;0,0482169
1177,3291;0,0472151
1178,2933;0,0463661
1179,2576;0,0456594
1180,2218;0,0450875
1181,1860;0,044644
1182,1503;0,0443218
1183,1145;0,0441111
1184,0787;0,0440007
1185,0430;0,0439803
1186,0072;0,0440434
1186,9714;0,0441874
1187,9357;0,0444126
1188,8999;0,04472
1189,8641;0,0451098
1190,8284;0,0455804
1191,7926;0,0461284
1192,7568;0,0467472
1193,7211;0,0474259
1194,6853;0,0481479
1195,6495;0,0488924
1196,6138;0,0496377
1197,5780;0,0503648
1198,5422;0,0510616
1199,5065;0,051392
1200,4707;0,0520627
1201,4349;0,0527116
1202,3992;0,0533439
1203,3634;0,0539622
1204,3276;0,0545652
1205,2919;0,0551508
1206,2561;0,0557205
1207,2203;0,0562839
1208,1846;0,0568592
1209,1488;0,0574687
1210,1130;0,0581317
1211,0773;0,0588583
1212,0415;0,0596495
1213,0057;0,060502
1213,9700;0,0614132
1214,9342;0,0623834
1215,8984;0,0634109
1216,8627;0,0644832
1217,8269;0,065574
1218,7911;0,0666519
1219,7554;0,0676888
1220,7196;0,068669
1221,6838;0,0695901
1222,6481;0,0704578
1223,6123;0,0712763
1224,5765;0,072044
1225,5408;0,0727544
1226,5050;0,0734016
1227,4692;0,0739845
1228,4335;0,0745074
1229,3977;0,0749762
1230,3619;0,0753948
1231,3262;0,0757637
1232,2904;0,0760816
1233,2546;0,0763488
1234,2189;0,0765684
1235,1831;0,0767463
1236,1473;0,0768891
1237,1116;0,0770032
1238,0758;0,0770926
1239,0400;0,077159
1240,0043;0,0772005
1240,9685;0,0772111
1241,9327;0,0771818
1242,8970;0,0771025
1243,8612;0,0769657
1244,8254;0,0767686
1245,7897;0,0765153
1246,7539;0,0762155
1247,7181;0,0758823
1248,6824;0,07553
1249,6466;0,0751707
1250,6108;0,074813
1251,5751;0,0744618
1252,5393;0,0741193
1253,5035;0,0737877
1254,4678;0,0734696
1255,4320;0,0731662
1256,3962;0,0728732
1257,3605;0,0725787
1258,3247;0,0722636
1259,2889;0,0719075
1260,2532;0,0714971
1261,2174;0,0710315
1262,1816;0,0705208
1263,1459;0,0699792
1264,1101;0,0694176
1265,0743;0,0688387
1266,0386;0,0682369
1267,0028;0,0676012
1267,9670;0,0669179
1268,9313;0,0661739
1269,8955;0,0653595
1270,8597;0,0644734
1271,8240;0,0635259
1272,7882;0,06254
1273,7524;0,0615482
1274,7167;0,0605851
1275,6809;0,0596782
1276,6451;0,0588406
1277,6094;0,0580666
1278,5736;0,0573344
1279,5378;0,0566153
1280,5021;0,0558884
1281,4663;0,0551521
1282,4305;0,0544276
1283,3948;0,0537495
1284,3590;0,0531502
1285,3232;0,0526452
1286,2875;0,0522267
1287,2517;0,0518708
1288,2159;0,051552
1289,1802;0,0512594
1290,1444;0,0510032
1291,1086;0,0508091
1292,0729;0,0507051
1293,0371;0,0507084
1294,0013;0,0508203
1294,9656;0,0510284
1295,9298;0,0513144
1296,8940;0,0516621
1297,8583;0,0520618
1298,8225;0,05251
1299,7867;0,0530076
1300,7510;0,0535569
1301,7152;0,0541656
1302,6794;0,0548393
1303,6437;0,0555794
1304,6079;0,0563827
1305,5721;0,0572395
1306,5364;0,0581387
1307,5006;0,0590741
1308,4648;0,0600472
1309,4291;0,0610607
1310,3933;0,0621074
1311,3575;0,0631608
1312,3218;0,0641763
1313,2860;0,0651045
1314,2502;0,0659039
1315,2145;0,0665438
1316,1787;0,0669947
1317,1429;0,067221
1318,1072;0,0671913
1319,0714;0,0669048
1320,0356;0,0664134
1320,9999;0,0658139
1321,9641;0,0652119
1322,9283;0,0646841
1323,8926;0,0642631
1324,8568;0,0639443
1325,8210;0,0637045
1326,7853;0,0635185
1327,7495;0,0633646
1328,7137;0,0632238
1329,6780;0,0630756
1330,6422;0,0629024
1331,6064;0,0627033
1332,5707;0,0625016
1333,5349;0,0623464
1334,4991;0,0622879
1335,4634;0,0623431
1336,4276;0,0624583
1337,3918;0,0624886
1338,3561;0,0622336
1339,3203;0,0615544
1340,2845;0,0604952
1341,2488;0,0592709
1342,2130;0,0581249
1343,1772;0,0572092
1344,1415;0,0565679
1345,1057;0,0561765
1346,0699;0,0559825
1347,0342;0,0559295
1347,9984;0,0559744
1348,9626;0,0560964
1349,9269;0,0562938
1350,8911;0,0565727
1351,8553;0,0569328
1352,8196;0,05736
1353,7838;0,0578289
1354,7480;0,0583168
1355,7123;0,0588208
1356,6765;0,0593667
1357,6407;0,0599988
1358,6050;0,0607574
1359,5692;0,0616463
1360,5334;0,0625929
1361,4977;0,0634375
1362,4619;0,0640157
1363,4261;0,0642979
1364,3904;0,0644134
1365,3546;0,0645264
1366,3188;0,0647234
1367,2831;0,065
1368,2473;0,0653022
1369,2115;0,0655738
1370,1758;0,0657838
1371,1400;0,0659238
1372,1042;0,0659796
1373,0685;0,065906
1374,0327;0,0656396
1374,9969;0,0651559
1375,9612;0,0645001
1376,9254;0,0637378
1377,8896;0,0628923
1378,8539;0,061948
1379,8181;0,0609061
1380,7823;0,0598252
1381,7466;0,0588062
1382,7108;0,0579342
1383,6750;0,0572318
1384,6393;0,0566528
1385,6035;0,0561039
1386,5677;0,0554892
1387,5320;0,0547907
1388,4962;0,0541055
1389,4604;0,0535592
1390,4247;0,053207
1391,3889;0,0530463
1392,3531;0,053076
1393,3174;0,0532995
1394,2816;0,0536685
1395,2458;0,0540489
1396,2101;0,0542785
1397,1743;0,0542745
1398,1385;0,0540864
1399,1028;0,0538566
1400,0670;0,0537308
1401,0313;0,0537849
1401,9955;0,0540092
1402,9597;0,0543392
1403,9240;0,0547009
1404,8882;0,0550499
1405,8524;0,0553945
1406,8167;0,0557828
1407,7809;0,0562545
1408,7451;0,0568086
1409,7094;0,0574187
1410,6736;0,0580657
1411,6378;0,0587527
1412,6021;0,0594907
1413,5663;0,060271
1414,5305;0,0610575
1415,4948;0,0618043
1416,4590;0,0624586
1417,4232;0,0629338
1418,3875;0,0631433
1419,3517;0,0631465
1420,3159;0,0631521
1421,2802;0,0632712
1422,2444;0,0633957
1423,2086;0,0633318
1424,1729;0,0629664
1425,1371;0,062323
1426,1013;0,0615078
1427,0656;0,0606179
1428,0298;0,0596908
1428,9940;0,0587212
1429,9583;0,0577138
1430,9225;0,0567017
1431,8867;0,0557019
1432,8510;0,0546715
1433,8152;0,0535347
1434,7794;0,0522482
1435,7437;0,0508579
1436,7079;0,049549
1437,6721;0,048603
1438,6364;0,0481761
1439,6006;0,0481593
1440,5648;0,0483182
1441,5291;0,0484932
1442,4933;0,0486624
1443,4575;0,0488884
1444,4218;0,0492305
1445,3860;0,0496919
1446,3502;0,0502249
1447,3145;0,0507774
1448,2787;0,051338
1449,2429;0,0519325
1450,2072;0,0525631
1451,1714;0,0531523
1452,1356;0,053573
1453,0999;0,05375
1454,0641;0,05375
1455,0283;0,0537459
1455,9926;0,0537501
1456,9568;0,0534276
1457,9210;0,0527101
1458,8853;0,0521483
1459,8495;0,0520169
1460,8137;0,0520481
1461,7780;0,051903
1462,7422;0,0514265
1463,7064;0,0506264
1464,6707;0,0496044
1465,6349;0,0485331
1466,5991;0,0475692
1467,5634;0,0467129
1468,5276;0,0458315
1469,4918;0,0448184
1470,4561;0,0436722
1471,4203;0,0424143
1472,3845;0,0409623
1473,3488;0,0392421
1474,3130;0,0374468
1475,2772;0,0358959
1476,2415;0,0347174
1477,2057;0,0338492
1478,1699;0,0331882
1479,1342;0,0326576
1480,0984;0,0322073
1481,0626;0,0318117
1482,0269;0,0314795
1482,9911;0,0312547
1483,9553;0,0311987
1484,9196;0,0313717
1485,8838;0,031825
1486,8480;0,0325536
1487,8123;0,0333788
1488,7765;0,0339202
1489,7407;0,0339296
1490,7050;0,0336187
1491,6692;0,0333715
1492,6334;0,0333568
1493,5977;0,0335667
1494,5619;0,0340052
1495,5261;0,034737
1496,4904;0,0357827
1497,4546;0,0370233
1498,4188;0,0382929
1499,3831;0,0394949
1500,3473;0,0405227
1501,3115;0,0412038
1502,2758;0,0414163
1503,2400;0,0412604
1504,2042;0,0411881
1505,1685;0,0419166
1506,1327;0,0437018
1507,0969;0,0453851
1508,0612;0,0456768
1509,0254;0,0449779
1509,9896;0,0440946
1510,9539;0,0432575
1511,9181;0,0424541
1512,8823;0,0417048
1513,8466;0,0410607
1514,8108;0,0405088
1515,7750;0,0399316
1516,7393;0,0391838
1517,7035;0,0382112
1518,6677;0,0370914
1519,6320;0,0359808
1520,5962;0,0350327
1521,5604;0,0343449
1522,5247;0,0339355
1523,4889;0,0337291
1524,4531;0,0335857
1525,4174;0,0333855
1526,3816;0,0331031
1527,3458;0,0328017
1528,3101;0,0325577
1529,2743;0,0324068
1530,2385;0,0323678
1531,2028;0,0324781
1532,1670;0,0327561
1533,1312;0,0331241
1534,0955;0,0334212
1535,0597;0,0334973
1536,0239;0,0332763
1536,9882;0,0328294
1537,9524;0,0324846
1538,9166;0,0327859
1539,8809;0,0339666
1540,8451;0,0352892
1541,8093;0,0358737
1542,7736;0,0358584
1543,7378;0,0356819
1544,7020;0,0355101
1545,6663;0,0354023
1546,6305;0,0354174
1547,5947;0,0355734
1548,5590;0,0358172
1549,5232;0,0360597
1550,4874;0,0362372
1551,4517;0,03634
1552,4159;0,0363821
1553,3801;0,0363398
1554,3444;0,0361442
1555,3086;0,0357672
1556,2728;0,0353114
1557,2371;0,0349054
1558,2013;0,0344163
1559,1655;0,0338687
1560,1298;0,0340168
1561,0940;0,0351577
1562,0582;0,0367436
1563,0225;0,0381847
1563,9867;0,0392121
1564,9509;0,0398294
1565,9152;0,040193
1566,8794;0,0405083
1567,8436;0,0409326
1568,8079;0,0415076
1569,7721;0,0421759
1570,7363;0,0428463
1571,7006;0,0434266
1572,6648;0,0438665
1573,6290;0,0442301
1574,5933;0,0446953
1575,5575;0,0454038
1576,5217;0,0463099
1577,4860;0,0472872
1578,4502;0,0482829
1579,4144;0,0492589
1580,3787;0,0501624
1581,3429;0,0509859
1582,3071;0,051776
1583,2714;0,052586
1584,2356;0,0534364
1585,1998;0,054318
1586,1641;0,0552112
1587,1283;0,0560953
1588,0925;0,0569453
1589,0568;0,0577294
1590,0210;0,0584129
1590,9852;0,0589649
1591,9495;0,0593558
1592,9137;0,0595527
1593,8779;0,0595258
1594,8422;0,0592714
1595,8064;0,0588336
1596,7706;0,058297
1597,7349;0,0577528
1598,6991;0,0572624
1599,6633;0,0568414
1600,6276;0,0564685
1601,5918;0,0561106
1602,5560;0,0557517
1603,5203;0,0554038
1604,4845;0,0550895
1605,4487;0,0548135
1606,4130;0,0545502
1607,3772;0,0542604
1608,3414;0,0539252
1609,3057;0,0535705
1610,2699;0,0532432
1611,2341;0,0529516
1612,1984;0,0526442
1613,1626;0,0522677
1614,1268;0,0518383
1615,0911;0,0514462
1616,0553;0,0511983
1617,0195;0,0511911
1617,9838;0,0514783
1618,9480;0,0519743
1619,9122;0,0524783
1620,8765;0,0528236
1621,8407;0,0529615
1622,8049;0,0529347
1623,7692;0,0528237
1624,7334;0,05271
1625,6976;0,0526413
1626,6619;0,0526182
1627,6261;0,0526222
1628,5903;0,0526369
1629,5546;0,0526295
1630,5188;0,052532
1631,4830;0,0522791
1632,4473;0,0518997
1633,4115;0,0515703
1634,3757;0,0515011
1635,3400;0,05167
1636,3042;0,0518399
1637,2684;0,0519586
1638,2327;0,0521301
1639,1969;0,0523284
1640,1611;0,0524292
1641,1254;0,0523434
1642,0896;0,0520707
1643,0538;0,0517131
1644,0181;0,0514604
1644,9823;0,0514744
1645,9465;0,0516771
1646,9108;0,0517592
1647,8750;0,0515021
1648,8392;0,0508582
1649,8035;0,0498179
1650,7677;0,048469
1651,7319;0,0470549
1652,6962;0,0457795
1653,6604;0,0447763
1654,6246;0,044427
1655,5889;0,044821
1656,5531;0,0454522
1657,5173;0,0458073
1658,4816;0,0456878
1659,4458;0,0451581
1660,4100;0,0443915
1661,3743;0,04354
1662,3385;0,0427106
1663,3027;0,042006
1664,2670;0,0414864
1665,2312;0,0411096
1666,1954;0,0407793
1667,1597;0,0404193
1668,1239;0,0399694
1669,0881;0,0393563
1670,0524;0,0385557
1671,0166;0,0376533
1671,9808;0,0367342
1672,9451;0,0357935
1673,9093;0,034832
1674,8735;0,0339763
1675,8378;0,0334547
1676,8020;0,0334139
1677,7662;0,0337494
1678,7305;0,0341486
1679,6947;0,0342876
1680,6589;0,0339816
1681,6232;0,0332027
1682,5874;0,0319986
1683,5516;0,0305023
1684,5159;0,0291418
1685,4801;0,0284415
1686,4443;0,0284194
1687,4086;0,0286437
1688,3728;0,0286951
1689,3370;0,0283883
1690,3013;0,0277534
1691,2655;0,0269416
1692,2297;0,0261414
1693,1940;0,0255293
1694,1582;0,0252262
1695,1224;0,0252262
1696,0867;0,0253328
1697,0509;0,025213
1698,0151;0,024632
1698,9794;0,0237174
1699,9436;0,0229479
1700,9078;0,0227737
1701,8721;0,0232526
1702,8363;0,0240762
1703,8005;0,0248481
1704,7648;0,0253067
1705,7290;0,0254091
1706,6932;0,0253085
1707,6575;0,025241
1708,6217;0,0253706
1709,5859;0,0257171
1710,5502;0,0262076
1711,5144;0,026764
1712,4786;0,0273489
1713,4429;0,0279557
1714,4071;0,0285483
1715,3713;0,0289621
1716,3356;0,0289106
1717,2998;0,0283389
1718,2640;0,027713
1719,2283;0,0275439
1720,1925;0,0278766
1721,1567;0,0284349
1722,1210;0,0289428
1723,0852;0,0292693
1724,0494;0,0294383
1725,0137;0,02958
1725,9779;0,0298486
1726,9421;0,0303279
1727,9064;0,0309783
1728,8706;0,031656
1729,8348;0,0321837
1730,7991;0,0324185
1731,7633;0,0322801
1732,7275;0,0317679
1733,6918;0,0310473
1734,6560;0,0304607
1735,6202;0,0302368
1736,5845;0,0302742
1737,5487;0,0303179
1738,5129;0,0302109
1739,4772;0,029971
1740,4414;0,0297195
1741,4056;0,0295584
1742,3699;0,0294899
1743,3341;0,0294298
1744,2983;0,0292841
1745,2626;0,0290056
1746,2268;0,0285852
1747,1910;0,0279856
1748,1553;0,0270859
1749,1195;0,0257504
1750,0837;0,0240371
1751,0480;0,0222757
1752,0122;0,0208205
1752,9764;0,0197923
1753,9407;0,0190937
1754,9049;0,0185638
1755,8691;0,0180841
1756,8334;0,0176024
1757,7976;0,0171053
1758,7618;0,0165821
1759,7261;0,0160087
1760,6903;0,015371
1761,6545;0,0147048
1762,6188;0,0141033
1763,5830;0,0136618
1764,5472;0,013409
1765,5115;0,0132973
1766,4757;0,0132468
1767,4399;0,013191
1768,4042;0,0130934
1769,3684;0,0129384
1770,3326;0,0127123
1771,2969;0,0124038
1772,2611;0,0120479
1773,2253;0,0117558
1774,1896;0,0116364
1775,1538;0,0116894
1776,1180;0,0118176
1777,0823;0,0119183
1778,0465;0,0119412
1779,0107;0,0118843
1779,9750;0,0117616
1780,9392;0,0115835
1781,9034;0,0113587
1782,8677;0,0111072
1783,8319;0,010872
1784,7961;0,0107123
1785,7604;0,0106743
1786,7246;0,0107585
1787,6888;0,010919
1788,6531;0,0111015
1789,6173;0,0112754
1790,5815;0,0114216
1791,5458;0,0115019
1792,5100;0,0114918
1793,4742;0,0114445
1794,4385;0,0114351
1795,4027;0,0114625
1796,3669;0,0114697
1797,3312;0,0114231
1798,2954;0,0113386
1799,2596;0,0112445
1800,2239;0,0111362
1801,1881;0,0109828
1802,1523;0,010772
1803,1166;0,0105354
1804,0808;0,0103328
1805,0450;0,0102216
1806,0093;0,0102339
1806,9735;0,0103617
1807,9377;0,0105522
1808,9020;0,0107187
1809,8662;0,0107749
1810,8304;0,0106834
1811,7947;0,0104783
1812,7589;0,0102353
1813,7231;0,0100182
1814,6874;0,00985431
1815,6516;0,00974182
1816,6158;0,00966694
1817,5801;0,00961797
1818,5443;0,0095956
1819,5085;0,00961302
1820,4728;0,00968409
1821,4370;0,00981048
1822,4012;0,00997522
1823,3655;0,0101443
1824,3297;0,0102814
1825,2939;0,0103718
1826,2582;0,010427
1827,2224;0,0104602
1828,1866;0,0104555
1829,1509;0,0103703
1830,1151;0,010184
1831,0793;0,00994758
1832,0436;0,00975342
1833,0078;0,00965767
1833,9720;0,0096537
1834,9363;0,00970453
1835,9005;0,00977388
1836,8647;0,00983649
1837,8290;0,00987911
1838,7932;0,00989743
1839,7574;0,00989223
1840,7217;0,00987753
1841,6859;0,00988821
1842,6501;0,00995529
1843,6144;0,0100605
1844,5786;0,0101408
1845,5428;0,0101523
1846,5071;0,0100901
1847,4713;0,00995323
1848,4355;0,00973902
1849,3998;0,00946937
1850,3640;0,00919793
1851,3282;0,00898476
1852,2925;0,00886221
1853,2567;0,00882308
1854,2209;0,00883656
1855,1852;0,00887386
1856,1494;0,0089206
1857,1136;0,00897279
1858,0779;0,00902373
1859,0421;0,00906116
1860,0063;0,00907882
1860,9706;0,00909104
1861,9348;0,00913286
1862,8990;0,0092427
1863,8633;0,00944201
1864,8275;0,00972571
1865,7917;0,010056
1866,7560;0,0103486
1867,7202;0,0104795
1868,6844;0,0103611
1869,6487;0,0100375
1870,6129;0,00965253
1871,5771;0,00932052
1872,5414;0,00906698
1873,5056;0,00886873
1874,4698;0,00870649
1875,4341;0,0085805
1876,3983;0,00850119
1877,3625;0,0084735
1878,3268;0,00849166
1879,2910;0,00854091
1880,2552;0,0086044
1881,2195;0,00866832
1882,1837;0,00872372
1883,1479;0,00876655
1884,1122;0,00879695
1885,0764;0,00881759
1886,0406;0,00883115
1887,0049;0,00883693
1887,9691;0,00882936
1888,9333;0,0088048
1889,8976;0,0087752
1890,8618;0,00876991
1891,8260;0,00881434
1892,7903;0,00890422
1893,7545;0,00899894
1894,7188;0,00903818
1895,6830;0,00897443
1896,6472;0,00880544
1897,6115;0,0085809
1898,5757;0,00837302
1899,5399;0,00823435
1900,5042;0,00817412
1901,4684;0,00816436
1902,4326;0,00816797
1903,3969;0,00816976
1904,3611;0,00818839
1905,3253;0,00825963
1906,2896;0,00840327
1907,2538;0,00859658
1908,2180;0,00877348
1909,1823;0,00885636
1910,1465;0,00880457
1911,1107;0,0086406
1912,0750;0,00843023
1913,0392;0,00823991
1914,0034;0,00811078
1914,9677;0,00805802
1915,9319;0,00807892
1916,8961;0,00815962
1917,8604;0,00828241
1918,8246;0,00843008
1919,7888;0,00857884
1920,7531;0,00868848
1921,7173;0,00870752
1922,6815;0,00859657
1923,6458;0,00835658
1924,6100;0,00803994
1925,5742;0,00772955
1926,5385;0,00749848
1927,5027;0,00738161
1928,4669;0,00737222
1929,4312;0,00743254
1930,3954;0,00751023
1931,3596;0,0075576
1932,3239;0,00754511
1933,2881;0,00746682
1934,2523;0,00733804
1935,2166;0,00718944
1936,1808;0,00705952
1937,1450;0,00698556
1938,1093;0,0069945
1939,0735;0,00709471
1940,0377;0,00726715
1941,0020;0,00745782
1941,9662;0,00758689
1942,9304;0,00758658
1943,8947;0,00744549
1944,8589;0,00721482
1945,8231;0,00696999
1946,7874;0,00676575
1947,7516;0,00661444
1948,7158;0,00649046
1949,6801;0,00635341
1950,6443;0,00617849
1951,6085;0,00597656
1952,5728;0,00578992
1953,5370;0,00566556
1954,5012;0,00562361
1955,4655;0,00564187
1956,4297;0,00566601
1957,3939;0,00563776
1958,3582;0,00552248
1959,3224;0,00532164
1960,2866;0,00506732
1961,2509;0,00480644
1962,2151;0,00458478
1963,1793;0,00443614
1964,1436;0,00437341
1965,1078;0,00437692
1966,0720;0,00438629
1967,0363;0,00431422
1968,0005;0,00409011
1968,9647;0,00370758
1969,9290;0,00323537
1970,8932;0,00278121
1971,8574;0,0024362
1972,8217;0,00223634
1973,7859;0,00216259
1974,7501;0,00217594
1975,7144;0,00226493
1976,6786;0,0024588
1977,6428;0,00279073
1978,6071;0,00324461
1979,5713;0,00374137
1980,5355;0,00417925
1981,4998;0,00448875
1982,4640;0,00465977
1983,4282;0,00473011
1984,3925;0,00475261
1985,3567;0,004766
1986,3209;0,00478714
1987,2852;0,00482447
1988,2494;0,0048951
1989,2136;0,00502557
1990,1779;0,00523139
1991,1421;0,00549169
1992,1063;0,00574384
1993,0706;0,00590896
1994,0348;0,00593023
1994,9990;0,00579591
1995,9633;0,00553802
1996,9275;0,00521669
1997,8917;0,00490104
1998,8560;0,00465046
1999,8202;0,00449742
2000,7844;0,00443573
2001,7487;0,00442033
2002,7129;0,00438262
2003,6771;0,00425974
2004,6414;0,00402951
2005,6056;0,00373298
2006,5698;0,00346572
2007,5341;0,00332861
2008,4983;0,00336464
2009,4625;0,0035277
2010,4268;0,00370896
2011,3910;0,00380321
2012,3552;0,00377027
2013,3195;0,00365582
2014,2837;0,00356148
2015,2479;0,00358158
2016,2122;0,00374339
2017,1764;0,00399034
2018,1406;0,00422185
2019,1049;0,00435911
2020,0691;0,00438571
2021,0333;0,00433768
2021,9976;0,0042603
2022,9618;0,00416841
2023,9260;0,00403855
2024,8903;0,00383625
2025,8545;0,00355694
2026,8187;0,003249
2027,7830;0,00300136
2028,7472;0,00290422
2029,7114;0,0030078
2030,6757;0,00330194
2031,6399;0,00372388
2032,6041;0,00418521
2033,5684;0,00460424
2034,5326;0,00493001
2035,4968;0,00515217
2036,4611;0,00529495
2037,4253;0,00540425
2038,3895;0,00552837
2039,3538;0,00569876
2040,3180;0,00591512
2041,2822;0,00614285
2042,2465;0,00632959
2043,2107;0,00643574
2044,1749;0,00646206
2045,1392;0,00645496
2046,1034;0,00648251
2047,0676;0,00659201
2048,0320;0,0067768
2048,9961;0,00698106
2049,9604;0,00714255
2050,9246;0,00723807
2051,8889;0,00729736
2052,8530;0,00738028
2053,8174;0,00753633
2054,7815;0,0077703
2055,7458;0,00803762
2056,7100;0,00827081
2057,6743;0,00842065
2058,6384;0,00848297
2059,6028;0,0084948
2060,5669;0,00850708
2061,5313;0,00855465
2062,4954;0,00864118
2063,4597;0,00874367
2064,4238;0,00882907
2065,3882;0,00887134
2066,3523;0,00886088
2067,3167;0,00880538
2068,2808;0,00872563
2069,2451;0,00864865
2070,2092;0,00859888
2071,1736;0,00858883
2072,1377;0,00861244
2073,1021;0,00864876
2074,0662;0,00867409
2075,0305;0,00867718
2075,9946;0,00866676
2076,9590;0,0086663
2077,9231;0,0086983
2078,8875;0,0087686
2079,8516;0,00886154
2080,8159;0,00894959
2081,7800;0,00901194
2082,7444;0,00904989
2083,7085;0,00908858
2084,6729;0,00916174
2085,6370;0,0092886
2086,6013;0,00945585
2087,5654;0,00961819
2088,5298;0,00971949
2089,4939;0,00972391
2090,4583;0,00963818
2091,4224;0,00950987
2092,3867;0,00940178
2093,3508;0,00935719
2094,3152;0,00937687
2095,2793;0,00942221
2096,2437;0,00944293
2097,2078;0,00941019
2098,1721;0,00933261
2099,1362;0,00924574
2100,1006;0,00918854
2101,0647;0,00917423
2102,0291;0,00920026
2102,9932;0,00924954
2103,9575;0,0093073
2104,9216;0,00936774
2105,8860;0,00943089
2106,8501;0,00949537
2107,8145;0,00955465
2108,7786;0,00959927
2109,7429;0,00962204
2110,7070;0,00962171
2111,6714;0,00960334
2112,6355;0,00957673
2113,5999;0,00955463
2114,5640;0,00955043
2115,5283;0,00957447
2116,4924;0,00962973
2117,4568;0,00970953
2118,4209;0,00979963
2119,3853;0,00988404
2120,3494;0,00995019
2121,3137;0,00998985
2122,2778;0,00999607
2123,2422;0,00996075
2124,2063;0,00987748
2125,1707;0,00974847
2126,1348;0,00958939
2127,0991;0,00942575
2128,0632;0,00928188
2129,0276;0,00917066
2129,9917;0,00909304
2130,9561;0,00904765
2131,9202;0,00904073
2132,8845;0,00908425
2133,8486;0,00917972
2134,8130;0,00930065
2135,7771;0,00939419
2136,7415;0,00940856
2137,7056;0,00932824
2138,6699;0,00918671
2139,6340;0,00904391
2140,5984;0,00894485
2141,5625;0,00889168
2142,5269;0,00885135
2143,4910;0,00879227
2144,4553;0,00871844
2145,4194;0,00867057
2146,3838;0,00869038
2147,3479;0,00877696
2148,3123;0,00887324
2149,2764;0,00889735
2150,2407;0,00879639
2151,2048;0,00858144
2152,1692;0,00831675
2153,1333;0,00807134
2154,0977;0,00786861
2155,0618;0,00767005
2156,0261;0,00740812
2156,9902;0,00705459
2157,9546;0,00667966
2158,9187;0,00643977
2159,8831;0,00647795
2160,8472;0,00681822
2161,8115;0,00734976
2162,7756;0,00789757
2163,7400;0,00831003
2164,7041;0,0085142
2165,6685;0,00852519
2166,6326;0,00841479
2167,5969;0,0082602
2168,5610;0,00810509
2169,5254;0,0079551
2170,4895;0,00780375
2171,4539;0,00766381
2172,4180;0,00757817
2173,3823;0,00760009
2174,3464;0,00775536
2175,3108;0,00801493
2176,2749;0,00830117
2177,2393;0,00852572
2178,2034;0,00863265
2179,1677;0,00862023
2180,1318;0,00853269
2181,0962;0,00843248
2182,0603;0,0083702
2183,0247;0,00836604
2183,9888;0,00840789
2184,9531;0,00846217
2185,9172;0,00849061
2186,8816;0,00846794
2187,8457;0,00839711
2188,8101;0,00831591
2189,7742;0,00828797
2190,7385;0,00837597
2191,7026;0,00860679
2192,6670;0,00894672
2193,6311;0,00930363
2194,5955;0,00956007
2195,5596;0,00962366
2196,5239;0,00946958
2197,4880;0,00915269
2198,4524;0,0087827
2199,4165;0,00847577
2200,3809;0,00830793
2201,3450;0,00829298
2202,3093;0,00839242
2203,2734;0,00854668
2204,2378;0,00870666
2205,2019;0,00884828
2206,1663;0,00896694
2207,1304;0,00906252
2208,0947;0,0091301
2209,0588;0,00916346
2210,0232;0,00916618
2210,9873;0,00915759
2211,9517;0,0091654
2212,9158;0,00920804
2213,8801;0,00927966
2214,8442;0,00934981
2215,8086;0,00937977
2216,7727;0,00934542
2217,7371;0,00925242
2218,7012;0,00913497
2219,6655;0,00903995
2220,6296;0,00900637
2221,5940;0,0090511
2222,5581;0,00916615
2223,5225;0,00932616
2224,4866;0,00949964
2225,4509;0,00965783
2226,4150;0,0097781
2227,3794;0,00984298
2228,3435;0,00984299
2229,3079;0,00978085
2230,2720;0,00967835
2231,2363;0,00957728
2232,2004;0,00952713
2233,1648;0,00956121
2234,1289;0,00967432
2235,0933;0,00981911
2236,0574;0,00992862
2237,0217;0,0099541
2237,9858;0,00989407
2238,9502;0,00979395
2239,9143;0,00971641
2240,8787;0,00970316
2241,8428;0,00975511
2242,8071;0,00984226
2243,7712;0,00993178
2244,7356;0,0100098
2245,6997;0,0100813
2246,6641;0,0101521
2247,6282;0,0102141
2248,5925;0,0102482
2249,5566;0,0102437
2250,5210;0,0102153
2251,4851;0,0102015
2252,4495;0,010243
2253,4136;0,0103559
2254,3779;0,0105192
2255,3420;0,0106853
2256,3064;0,0108039
2257,2705;0,0108445
2258,2349;0,010806
2259,1990;0,010713
2260,1633;0,0106059
2261,1274;0,0105286
2262,0918;0,0105143
2263,0559;0,0105726
2264,0203;0,0106824
2264,9844;0,0107979
2265,9487;0,0108695
2266,9128;0,0108689
2267,8772;0,010804
2268,8413;0,0107147
2269,8057;0,0106508
2270,7698;0,0106467
2271,7341;0,010706
2272,6982;0,0108037
2273,6626;0,0109015
2274,6267;0,0109661
2275,5911;0,0109832
2276,5552;0,0109613
2277,5195;0,0109257
2278,4836;0,0109074
2279,4480;0,0109307
2280,4121;0,0110067
2281,3765;0,0111329
2282,3406;0,0113004
2283,3049;0,011501
2284,2690;0,0117311
2285,2334;0,0119904
2286,1975;0,012278
2287,1619;0,0125907
2288,1260;0,012925
2289,0903;0,0132794
2290,0544;0,013655
2291,0188;0,0140519
2291,9829;0,0144648
2292,9473;0,0148831
2293,9114;0,0152959
2294,8757;0,015697
2295,8398;0,016087
2296,8042;0,0164673
2297,7683;0,0168325
2298,7327;0,0171686
2299,6968;0,0174601
2300,6611;0,0177046
2301,6252;0,017923
2302,5896;0,0181577
2303,5537;0,0184579
2304,5181;0,0188578
2305,4822;0,0193574
2306,4465;0,0199131
2307,4106;0,0204436
2308,3750;0,0208503
2309,3391;0,0210476
2310,3035;0,0209943
2311,2676;0,020714
2312,2319;0,020291
2313,1960;0,0198404
2314,1604;0,0194623
2315,1245;0,0192082
2316,0889;0,0190749
2317,0530;0,0190259
2318,0173;0,0190202
2318,9814;0,0190331
2319,9458;0,0190581
2320,9099;0,0190971
2321,8743;0,01915
2322,8384;0,0192056
2323,8027;0,0192366
2324,7668;0,0191986
2325,7312;0,0190424
2326,6953;0,0187353
2327,6597;0,0182764
2328,6238;0,017699
2329,5881;0,0170608
2330,5522;0,01643
2331,5166;0,0158676
2332,4807;0,0154059
2333,4451;0,0150394
2334,4092;0,0147421
2335,3735;0,0145018
2336,3376;0,0143461
2337,3020;0,0143369
2338,2661;0,0145337
2339,2305;0,0149442
2340,1946;0,01549
2341,1589;0,0160077
2342,1230;0,016309
2343,0874;0,0163324
2344,0515;0,0163148
2345,0159;0,0166901
2345,9800;0,0176729
2346,9443;0,0190234
2347,9084;0,0202435
2348,8728;0,0209036
2349,8369;0,0208336
2350,8013;0,0201524
2351,7654;0,0191822
2352,7297;0,0182793
2353,6938;0,0176651
2354,6582;0,0173824
2355,6223;0,0173824
2356,5867;0,0175845
2357,5508;0,0178547
2358,5151;0,0180144
2359,4792;0,017937
2360,4436;0,0176395
2361,4077;0,0172521
2362,3721;0,0168983
2363,3362;0,0166172
2364,3005;0,0163811
2365,2646;0,0161519
2366,2290;0,0159122
2367,1931;0,0156591
2368,1575;0,0153929
2369,1216;0,0151206
2370,0859;0,0148635
2371,0500;0,0146565
2372,0144;0,0145364
2372,9785;0,0145295
2373,9429;0,0146457
2374,9070;0,0148774
2375,8713;0,0152
2376,8354;0,0155725
2377,7998;0,0159392
2378,7639;0,0162336
2379,7283;0,0163864
2380,6924;0,0163391
2381,6567;0,0160585
2382,6208;0,0155498
2383,5852;0,0148605
2384,5493;0,0140728
2385,5137;0,0132843
2386,4778;0,0125826
2387,4421;0,0120241
2388,4063;0,0116247
2389,3706;0,0113651
2390,3347;0,0112077
2391,2991;0,0111146
2392,2632;0,0110595
2393,2275;0,0110297
2394,1917;0,0110207
2395,1560;0,0110283
2396,1201;0,011046
2397,0845;0,0110652
2398,0486;0,0110809
2399,0129;0,0110902
2399,9771;0,0110941
2400,9414;0,0110949
2401,9055;0,0110939
2402,8699;0,0110918
2403,8340;0,0110904
2404,7983;0,0110939
2405,7625;0,0111074
2406,7268;0,0111324
2407,6909;0,011165
2408,6553;0,0111955
2409,6194;0,0112137
2410,5837;0,0112157
2411,5479;0,0112075
2412,5122;0,0112024
2413,4763;0,0112129
2414,4407;0,0112435
2415,4048;0,0112872
2416,3691;0,0113302
2417,3333;0,0113597
2418,2976;0,0113706
2419,2617;0,0113666
2420,2261;0,0113568
2421,1902;0,0113497
2422,1545;0,0113504
2423,1187;0,0113599
2424,0830;0,0113767
2425,0471;0,0113983
2426,0115;0,0114222
2426,9756;0,0114465
2427,9399;0,0114717
2428,9041;0,0115014
2429,8684;0,0115409
2430,8325;0,0115942
2431,7969;0,0116595
2432,7610;0,0117268
2433,7253;0,0117816
2434,6895;0,0118105
2435,6538;0,011808
2436,6179;0,0117801
2437,5823;0,0117411
2438,5464;0,0117082
2439,5107;0,0116949
2440,4749;0,0117075
2441,4392;0,011745
2442,4033;0,0118012
2443,3677;0,0118671
2444,3318;0,0119324
2445,2961;0,0119875
2446,2603;0,0120257
2447,2246;0,0120459
2448,1887;0,0120529
2449,1531;0,0120553
2450,1172;0,0120613
2451,0815;0,012074
2452,0457;0,0120906
2453,0100;0,0121059
2453,9741;0,0121165
2454,9385;0,012124
2455,9026;0,012134
2456,8669;0,012151
2457,8311;0,0121748
2458,7954;0,0121997
2459,7595;0,012218
2460,7239;0,0122254
2461,6880;0,0122237
2462,6523;0,0122191
2463,6165;0,0122184
2464,5808;0,0122251
2465,5449;0,0122388
2466,5093;0,0122563
2467,4734;0,0122749
2468,4377;0,0122929
2469,4019;0,0123087
2470,3662;0,0123192
2471,3303;0,0123204
2472,2947;0,0123109
2473,2588;0,0122954
2474,2231;0,0122855
2475,1873;0,0122959
2476,1516;0,012335
2477,1157;0,0123985
2478,0801;0,0124679
2479,0442;0,0125187
2480,0085;0,0125339
2480,9727;0,0125148
2481,9370;0,0124821
2482,9011;0,0124646
2483,8655;0,0124831
2484,8296;0,0125389
2485,7939;0,0126134
2486,7581;0,0126796
2487,7224;0,0127177
2488,6865;0,0127247
2489,6509;0,0127128
2490,6150;0,0126995
2491,5793;0,0126965
2492,5435;0,0127037
2493,5078;0,0127115
2494,4719;0,0127078
2495,4363;0,0126868
2496,4004;0,0126525
2497,3647;0,0126181
2498,3289;0,0126007
2499,2932;0,0126136
2500,2573;0,01266
2501,2217;0,01273
2502,1858;0,0128034
2503,1501;0,0128578
2504,1143;0,0128786
2505,0786;0,0128657
2506,0427;0,0128348
2507,0071;0,0128101
2507,9712;0,0128131
2508,9355;0,0128529
2509,8997;0,0129216
2510,8640;0,0129984
2511,8281;0,013059
2512,7925;0,0130862
2513,7566;0,0130768
2514,7209;0,0130413
2515,6851;0,0129972
2516,6494;0,0129607
2517,6135;0,0129401
2518,5779;0,0129353
2519,5420;0,0129423
2520,5063;0,0129574
2521,4705;0,0129802
2522,4348;0,0130105
2523,3989;0,013046
2524,3633;0,01308
2525,3274;0,0131052
2526,2917;0,0131176
2527,2559;0,0131191
2528,2202;0,0131164
2529,1843;0,0131158
2530,1487;0,0131204
2531,1128;0,0131291
2532,0771;0,01314
2533,0413;0,0131525
2534,0056;0,0131673
2534,9697;0,0131842
2535,9341;0,0132009
2536,8982;0,0132139
2537,8625;0,0132216
2538,8267;0,0132253
2539,7910;0,0132279
2540,7551;0,0132305
2541,7195;0,0132304
2542,6836;0,013224
2543,6479;0,0132108
2544,6121;0,0131966
2545,5764;0,0131916
2546,5405;0,0132043
2547,5049;0,0132369
2548,4690;0,0132833
2549,4333;0,0133325
2550,3975;0,0133732
2551,3618;0,0133973
2552,3259;0,0134006
2553,2903;0,0133826
2554,2544;0,013347
2555,2188;0,0133017
2556,1829;0,013258
2557,1472;0,013228
2558,1113;0,0132203
2559,0757;0,013237
2560,0398;0,0132732
2561,0042;0,0133192
2561,9683;0,0133633
2562,9326;0,0133953
2563,8967;0,0134095
2564,8611;0,0134059
2565,8252;0,0133898
2566,7896;0,0133694
2567,7537;0,013351
2568,7180;0,0133369
2569,6821;0,0133261
2570,6465;0,0133183
2571,6106;0,0133169
2572,5750;0,0133289
2573,5391;0,0133591
2574,5034;0,0134051
2575,4675;0,0134554
2576,4319;0,0134952
2577,3960;0,0135143
2578,3604;0,0135136
2579,3245;0,0135032
2580,2888;0,013496
2581,2529;0,0134996
2582,2173;0,0135137
2583,1814;0,0135328
2584,1458;0,0135521
2585,1099;0,0135712
2586,0742;0,0135934
2587,0383;0,0136212
2588,0027;0,013653
2588,9668;0,0136821
2589,9312;0,0136997
2590,8953;0,0137009
2591,8596;0,0136878
2592,8237;0,0136696
2593,7881;0,0136591
2594,7522;0,0136665
2595,7166;0,0136945
2596,6807;0,0137372
2597,6450;0,013784
2598,6091;0,0138247
2599,5735;0,013855
2600,5376;0,0138773
2601,5020;0,0138978
2602,4661;0,0139211
2603,4304;0,0139475
2604,3945;0,0139733
2605,3589;0,0139944
2606,3230;0,0140109
2607,2874;0,0140284
2608,2515;0,0140552
2609,2158;0,0140976
2610,1799;0,0141542
2611,1443;0,0142146
2612,1084;0,014263
2613,0728;0,0142856
2614,0369;0,0142784
2615,0012;0,0142503
2615,9653;0,0142196
2616,9297;0,0142052
2617,8938;0,0142181
2618,8582;0,0142563
2619,8223;0,0143082
2620,7866;0,0143598
2621,7507;0,0144017
2622,7151;0,0144325
2623,6792;0,0144564
2624,6436;0,0144783
2625,6077;0,0145009
2626,5720;0,0145244
2627,5361;0,0145486
2628,5005;0,014574
2629,4646;0,0146013
2630,4290;0,0146301
2631,3931;0,0146584
2632,3574;0,0146836
2633,3215;0,0147055
2634,2859;0,0147267
2635,2500;0,0147516
2636,2144;0,0147833
2637,1785;0,0148218
2638,1428;0,0148638
2639,1069;0,0149059
2640,0713;0,0149462
2641,0354;0,0149851
2641,9998;0,0150233
2642,9639;0,0150601
2643,9282;0,0150929
2644,8923;0,0151193
2645,8567;0,015139
2646,8208;0,0151551
2647,7852;0,0151723
2648,7493;0,0151938
2649,7136;0,01522
2650,6777;0,0152486
2651,6421;0,0152775
2652,6062;0,0153067
2653,5706;0,015339
2654,5347;0,015377
2655,4990;0,0154206
2656,4631;0,0154657
2657,4275;0,0155062
2658,3916;0,0155373
2659,3560;0,015559
2660,3201;0,0155754
2661,2844;0,0155926
2662,2485;0,0156141
2663,2129;0,0156397
2664,1770;0,0156662
2665,1414;0,0156909
2666,1055;0,015714
2667,0698;0,0157396
2668,0339;0,0157721
2668,9983;0,0158134
2669,9624;0,0158603
2670,9268;0,0159064
2671,8909;0,0159451
2672,8552;0,0159731
2673,8193;0,0159921
2674,7837;0,0160071
2675,7478;0,0160237
2676,7122;0,0160455
2677,6763;0,0160734
2678,6406;0,0161063
2679,6047;0,0161427
2680,5691;0,0161812
2681,5332;0,0162201
2682,4976;0,0162574
2683,4617;0,0162907
2684,4260;0,0163186
2685,3901;0,0163419
2686,3545;0,0163632
2687,3186;0,0163861
2688,2830;0,0164134
2689,2471;0,0164458
2690,2114;0,0164822
2691,1755;0,0165207
2692,1399;0,0165595
2693,1040;0,0165973
2694,0684;0,016633
2695,0325;0,0166654
2695,9968;0,0166936
2696,9609;0,0167177
2697,9253;0,0167395
2698,8894;0,016762
2699,8538;0,0167891
2700,8179;0,0168237
2701,7822;0,0168664
2702,7463;0,0169146
2703,7107;0,0169631
2704,6748;0,017006
2705,6392;0,01704
2706,6033;0,0170671
2707,5676;0,0170936
2708,5317;0,0171274
2709,4961;0,0171729
2710,4602;0,0172281
2711,4246;0,017285
2712,3887;0,0173349
2713,3530;0,0173729
2714,3171;0,0174011
2715,2815;0,0174259
2716,2456;0,0174537
2717,2100;0,0174871
2718,1741;0,0175239
2719,1384;0,0175604
2720,1025;0,0175935
2721,0669;0,0176228
2722,0310;0,0176488
2722,9954;0,0176718
2723,9595;0,0176913
2724,9238;0,0177072
2725,8879;0,0177216
2726,8523;0,0177394
2727,8164;0,017766
2728,7808;0,0178045
2729,7449;0,0178529
2730,7092;0,0179048
2731,6733;0,0179521
2732,6377;0,0179887
2733,6018;0,0180139
2734,5662;0,0180318
2735,5303;0,0180488
2736,4946;0,0180695
2737,4587;0,018094
2738,4231;0,018119
2739,3872;0,0181411
2740,3516;0,0181604
2741,3157;0,0181807
2742,2800;0,0182072
2743,2441;0,0182422
2744,2085;0,0182823
2745,1726;0,0183199
2746,1370;0,0183478
2747,1011;0,0183635
2748,0654;0,0183715
2749,0295;0,0183804
2749,9939;0,0183989
2750,9580;0,018431
2751,9224;0,018475
2752,8865;0,0185245
2753,8508;0,0185719
2754,8149;0,0186117
2755,7793;0,0186418
2756,7434;0,0186644
2757,7078;0,0186843
2758,6719;0,0187067
2759,6362;0,0187351
2760,6003;0,0187699
2761,5647;0,0188086
2762,5288;0,0188475
2763,4932;0,0188838
2764,4573;0,0189176
2765,4216;0,0189512
2766,3857;0,0189884
2767,3501;0,0190316
2768,3142;0,0190803
2769,2786;0,0191306
2770,2427;0,0191776
2771,2070;0,0192174
2772,1711;0,0192502
2773,1355;0,01928
2774,0996;0,0193127
2775,0640;0,0193529
2776,0281;0,0194011
2776,9924;0,0194541
2777,9565;0,0195071
2778,9209;0,0195576
2779,8850;0,0196069
2780,8494;0,0196593
2781,8135;0,0197185
2782,7778;0,0197853
2783,7419;0,0198561
2784,7063;0,0199252
2785,6704;0,0199876
2786,6348;0,0200414
2787,5989;0,020088
2788,5632;0,0201318
2789,5273;0,0201781
2790,4917;0,0202316
2791,4558;0,0202951
2792,4202;0,0203693
2793,3843;0,0204519
2794,3486;0,0205386
2795,3127;0,0206254
2796,2771;0,0207104
2797,2412;0,0207945
2798,2056;0,0208804
2799,1697;0,0209701
2800,1340;0,0210624
2801,0981;0,0211544
2802,0625;0,0212428
2803,0266;0,0213273
2803,9910;0,0214107
2804,9551;0,0214966
2805,9194;0,0215869
2806,8835;0,0216804
2807,8479;0,0217746
2808,8120;0,0218687
2809,7764;0,0219654
2810,7405;0,0220698
2811,7048;0,0221862
2812,6689;0,0223156
2813,6333;0,0224559
2814,5974;0,0226034
2815,5618;0,0227555
2816,5259;0,0229108
2817,4902;0,0230682
2818,4543;0,0232251
2819,4187;0,0233778
2820,3828;0,0235234
2821,3472;0,0236625
2822,3113;0,0238001
2823,2756;0,0239438
2824,2397;0,0241009
2825,2041;0,0242752
2826,1682;0,0244663
2827,1326;0,0246707
2828,0967;0,0248843
2829,0610;0,0251047
2830,0251;0,0253322
2830,9895;0,0255687
2831,9536;0,0258159
2832,9180;0,026073
2833,8821;0,0263366
2834,8464;0,0266029
2835,8105;0,0268701
2836,7749;0,0271411
2837,7390;0,0274238
2838,7034;0,0277283
2839,6675;0,0280643
2840,6318;0,028438
2841,5959;0,0288517
2842,5603;0,0293035
2843,5244;0,0297877
2844,4888;0,030293
2845,4529;0,0308007
2846,4172;0,0312852
2847,3813;0,0317159
2848,3457;0,0320644
2849,3098;0,0323119
2850,2742;0,0324556
2851,2383;0,0325098
2852,2026;0,0325015
2853,1667;0,0324619
2854,1311;0,0324164
2855,0952;0,0323789
2856,0596;0,0323516
2857,0237;0,0323303
2857,9880;0,0323115
2858,9521;0,032298
2859,9165;0,0322992
2860,8806;0,0323268
2861,8450;0,0323895
2862,8091;0,0324894
2863,7734;0,0326222
2864,7375;0,0327807
2865,7019;0,0329568
2866,6660;0,0331425
2867,6304;0,0333285
2868,5945;0,0335028
2869,5588;0,0336533
2870,5229;0,0337712
2871,4873;0,0338558
2872,4514;0,0339153
2873,4158;0,0339641
2874,3799;0,034016
2875,3442;0,0340788
2876,3083;0,0341528
2877,2727;0,0342327
2878,2368;0,0343125
2879,2012;0,0343893
2880,1653;0,0344638
2881,1296;0,0345385
2882,0938;0,0346157
2883,0581;0,0346957
2884,0222;0,0347779
2884,9866;0,0348612
2885,9507;0,0349451
2886,9150;0,0350302
2887,8792;0,035117
2888,8435;0,0352067
2889,8076;0,0353004
2890,7720;0,0353986
2891,7361;0,0355005
2892,7004;0,0356039
2893,6646;0,035705
2894,6289;0,0358009
2895,5930;0,0358909
2896,5574;0,035977
2897,5215;0,0360622
2898,4858;0,0361479
2899,4500;0,0362327
2900,4143;0,0363133
2901,3784;0,0363871
2902,3428;0,0364558
2903,3069;0,036526
2904,2712;0,0366074
2905,2354;0,0367091
2906,1997;0,0368364
2907,1638;0,0369905
2908,1282;0,0371708
2909,0923;0,0373774
2910,0566;0,037612
2911,0208;0,0378751
2911,9851;0,0381609
2912,9492;0,0384539
2913,9136;0,0387288
2914,8777;0,0389565
2915,8420;0,0391125
2916,8062;0,0391845
2917,7705;0,0391746
2918,7346;0,0390964
2919,6990;0,0389682
2920,6631;0,0388064
2921,6274;0,0386221
2922,5916;0,0384214
2923,5559;0,0382068
2924,5200;0,037979
2925,4844;0,0377383
2926,4485;0,037485
2927,4128;0,0372212
2928,3770;0,0369517
2929,3413;0,0366834
2930,3054;0,0364231
2931,2698;0,0361737
2932,2339;0,0359322
2933,1982;0,0356911
2934,1624;0,035443
2935,1267;0,0351842
2936,0908;0,0349174
2937,0552;0,0346486
2938,0193;0,0343833
2938,9836;0,0341229
2939,9478;0,0338634
2940,9121;0,0335982
2941,8762;0,033321
2942,8406;0,0330295
2943,8047;0,0327258
2944,7690;0,0324174
2945,7332;0,0321147
2946,6975;0,031829
2947,6616;0,0315686
2948,6260;0,0313352
2949,5901;0,0311228
2950,5544;0,030919
2951,5186;0,0307107
2952,4829;0,0304904
2953,4470;0,0302591
2954,4114;0,0300262
2955,3755;0,0298036
2956,3398;0,0295996
2957,3040;0,0294161
2958,2683;0,0292493
2959,2324;0,0290938
2960,1968;0,0289465
2961,1609;0,0288062
2962,1252;0,0286708
2963,0894;0,0285351
2964,0537;0,0283905
2965,0178;0,0282297
2965,9822;0,0280509
2966,9463;0,0278611
2967,9106;0,0276733
2968,8748;0,0275003
2969,8391;0,0273483
2970,8032;0,027214
2971,7676;0,0270866
2972,7317;0,0269536
2973,6960;0,0268075
2974,6602;0,0266487
2975,6245;0,0264849
2976,5886;0,0263255
2977,5530;0,0261767
2978,5171;0,0260382
2979,4814;0,025905
2980,4456;0,0257724
2981,4099;0,0256418
2982,3740;0,0255216
2983,3384;0,0254237
2984,3025;0,0253553
2985,2668;0,0253136
2986,2310;0,0252859
2987,1953;0,0252561
2988,1594;0,0252141
2989,1238;0,025161
2990,0879;0,0251078
2991,0522;0,0250674
2992,0164;0,0250456
2992,9807;0,0250377
2993,9448;0,0250315
2994,9092;0,0250156
2995,8733;0,0249872
2996,8376;0,0249546
2997,8018;0,0249341
2998,7661;0,0249418
2999,7302;0,0249853
3000,6946;0,02506
3001,6587;0,0251502
3002,6230;0,0252358
3003,5872;0,0253016
3004,5515;0,0253438
3005,5156;0,0253711
3006,4800;0,0253994
3007,4441;0,025443
3008,4084;0,0255079
3009,3726;0,0255891
3010,3369;0,0256747
3011,3010;0,0257514
3012,2654;0,0258098
3013,2295;0,0258473
3014,1938;0,0258673
3015,1580;0,0258773
3016,1223;0,0258871
3017,0864;0,0259066
3018,0508;0,0259441
3019,0149;0,0260039
3019,9792;0,0260838
3020,9434;0,0261756
3021,9077;0,0262682
3022,8718;0,0263525
3023,8362;0,0264278
3024,8003;0,0265034
3025,7646;0,0265958
3026,7288;0,026721
3027,6931;0,0268848
3028,6572;0,0270774
3029,6216;0,027275
3030,5857;0,0274482
3031,5500;0,0275742
3032,5142;0,0276465
3033,4785;0,0276762
3034,4426;0,0276853
3035,4070;0,0276972
3036,3711;0,0277284
3037,3354;0,0277866
3038,2996;0,0278711
3039,2639;0,0279765
3040,2280;0,0280953
3041,1924;0,0282213
3042,1565;0,0283517
3043,1208;0,0284882
3044,0850;0,0286347
3045,0493;0,0287924
3046,0134;0,0289562
3046,9778;0,0291147
3047,9419;0,0292565
3048,9063;0,0293775
3049,8704;0,0294858
3050,8347;0,0295975
3051,7988;0,0297271
3052,7632;0,0298779
3053,7273;0,0300398
3054,6917;0,0301956
3055,6558;0,0303319
3056,6201;0,0304484
3057,5842;0,0305577
3058,5486;0,0306784
3059,5127;0,0308245
3060,4771;0,0309983
3061,4412;0,0311897
3062,4055;0,0313811
3063,3696;0,0315536
3064,3340;0,0316938
3065,2981;0,0317976
3066,2625;0,0318718
3067,2266;0,0319316
3068,1909;0,0319953
3069,1550;0,032078
3070,1194;0,0321867
3071,0835;0,0323196
3072,0479;0,0324687
3073,0120;0,0326251
3073,9763;0,032783
3074,9404;0,032941
3075,9048;0,0330996
3076,8689;0,033258
3077,8333;0,0334117
3078,7974;0,0335545
3079,7617;0,0336817
3080,7258;0,0337947
3081,6902;0,0339007
3082,6543;0,0340103
3083,6187;0,0341312
3084,5828;0,0342638
3085,5471;0,0344014
3086,5112;0,0345337
3087,4756;0,0346544
3088,4397;0,034766
3089,4041;0,0348794
3090,3682;0,0350081
3091,3325;0,0351597
3092,2966;0,0353314
3093,2610;0,0355117
3094,2251;0,0356874
3095,1895;0,0358525
3096,1536;0,0360107
3097,1179;0,0361709
3098,0820;0,0363387
3099,0464;0,0365098
3100,0105;0,0366722
3100,9749;0,036814
3101,9390;0,0369325
3102,9033;0,0370371
3103,8674;0,0371442
3104,8318;0,0372668
3105,7959;0,037408
3106,7603;0,0375611
3107,7244;0,0377173
3108,6887;0,0378733
3109,6528;0,0380346
3110,6172;0,0382115
3111,5813;0,0384115
3112,5457;0,0386323
3113,5098;0,0388617
3114,4741;0,0390831
3115,4382;0,0392834
3116,4026;0,0394589
3117,3667;0,039615
3118,3311;0,0397614
3119,2952;0,0399068
3120,2595;0,040055
3121,2236;0,0402052
3122,1880;0,0403538
3123,1521;0,0404969
3124,1165;0,0406322
3125,0806;0,0407605
3126,0449;0,0408864
3127,0090;0,0410192
3127,9734;0,0411702
3128,9375;0,0413483
3129,9019;0,0415544
3130,8660;0,041778
3131,8303;0,0419999
3132,7944;0,0421999
3133,7588;0,0423664
3134,7229;0,0425017
3135,6873;0,0426207
3136,6514;0,0427429
3137,6157;0,0428843
3138,5798;0,043051
3139,5442;0,0432393
3140,5083;0,0434392
3141,4727;0,0436397
3142,4368;0,0438338
3143,4011;0,0440205
3144,3652;0,0442038
3145,3296;0,0443892
3146,2937;0,0445795
3147,2581;0,0447726
3148,2222;0,044963
3149,1865;0,0451453
3150,1506;0,0453184
3151,1150;0,0454864
3152,0791;0,0456562
3153,0435;0,0458333
3154,0076;0,0460189
3154,9719;0,0462114
3155,9360;0,0464084
3156,9004;0,0466093
3157,8645;0,0468141
3158,8289;0,0470218
3159,7930;0,0472296
3160,7573;0,047434
3161,7214;0,0476342
3162,6858;0,0478328
3163,6499;0,0480347
3164,6143;0,0482431
3165,5784;0,0484571
3166,5427;0,0486727
3167,5068;0,0488851
3168,4712;0,0490918
3169,4353;0,0491071
3170,3997;0,0493077
3171,3638;0,0495111
3172,3281;0,0497182
3173,2922;0,0499287
3174,2566;0,0501409
3175,2207;0,0503513
3176,1851;0,050555
3177,1492;0,0507478
3178,1135;0,0509288
3179,0776;0,0511023
3180,0420;0,0512753
3181,0061;0,0514534
3181,9705;0,0516373
3182,9346;0,0518234
3183,8989;0,0520076
3184,8630;0,0521897
3185,8274;0,052374
3186,7915;0,0525659
3187,7559;0,0527671
3188,7200;0,0529737
3189,6843;0,0531796
3190,6484;0,0533811
3191,6128;0,05358
3192,5769;0,0537812
3193,5413;0,0539874
3194,5054;0,0541956
3195,4697;0,0543978
3196,4338;0,0545862
3197,3982;0,0547578
3198,3623;0,0549167
3199,3267;0,05507
3200,2908;0,0552238
3201,2551;0,0553803
3202,2192;0,055539
3203,1836;0,0556998
3204,1477;0,0558644
3205,1121;0,0560354
3206,0762;0,056214
3207,0405;0,0563978
3208,0046;0,0565825
3208,9690;0,0567638
3209,9331;0,0569404
3210,8975;0,0571146
3211,8616;0,0572905
3212,8259;0,0574713
3213,7900;0,057657
3214,7544;0,0578443
3215,7185;0,0580279
3216,6829;0,0582029
3217,6470;0,0583664
3218,6113;0,0585192
3219,5754;0,0586652
3220,5398;0,0588107
3221,5039;0,0589619
3222,4683;0,0591237
3223,4324;0,0592971
3224,3967;0,05948
3225,3608;0,0596674
3226,3252;0,059854
3227,2893;0,0600352
3228,2537;0,0602093
3229,2178;0,0603774
3230,1821;0,0605422
3231,1462;0,0607058
3232,1106;0,0608676
3233,0747;0,0610245
3234,0391;0,061172
3235,0032;0,0613083
3235,9675;0,0614362
3236,9316;0,0615644
3237,8960;0,0617047
3238,8601;0,0618669
3239,8245;0,0620545
3240,7886;0,062262
3241,7529;0,0624769
3242,7170;0,0626841
3243,6814;0,0628714
3244,6455;0,063034
3245,6099;0,0631761
3246,5740;0,0633088
3247,5383;0,0634452
3248,5024;0,0635962
3249,4668;0,0637674
3250,4309;0,0639585
3251,3953;0,0641635
3252,3594;0,064373
3253,3237;0,0645772
3254,2878;0,0647698
3255,2522;0,06495
3256,2163;0,0651221
3257,1807;0,0652925
3258,1448;0,0654659
3259,1091;0,0656432
3260,0732;0,0658228
3261,0376;0,0660024
3262,0017;0,0661809
3262,9661;0,0663585
3263,9302;0,0665348
3264,8945;0,0667081
3265,8586;0,0668763
3266,8230;0,0670374
3267,7871;0,0671931
3268,7515;0,0673464
3269,7156;0,0674994
3270,6799;0,0676508
3271,6440;0,0677944
3272,6084;0,067922
3273,5725;0,068027
3274,5369;0,0681082
3275,5010;0,0681702
3276,4653;0,0682209
3277,4294;0,0682688
3278,3938;0,0683197
3279,3579;0,0683764
3280,3223;0,0684385
3281,2864;0,0685033
3282,2507;0,0685662
3283,2148;0,0686224
3284,1792;0,0686688
3285,1433;0,0687056
3286,1077;0,0687367
3287,0718;0,0687676
3288,0361;0,0688027
3289,0002;0,0688417
3289,9646;0,0688799
3290,9287;0,0689101
3291,8931;0,0689272
3292,8572;0,0689304
3293,8215;0,0689242
3294,7856;0,0689146
3295,7500;0,0689055
3296,7141;0,0688968
3297,6785;0,0688848
3298,6426;0,0688654
3299,6069;0,068837
3300,5710;0,0688024
3301,5354;0,0687689
3302,4995;0,0687464
3303,4639;0,0687437
3304,4280;0,0687651
3305,3923;0,0688076
3306,3564;0,0688608
3307,3208;0,0689097
3308,2849;0,0689395
3309,2493;0,0689412
3310,2134;0,0689136
3311,1777;0,0688637
3312,1418;0,068804
3313,1062;0,0687493
3314,0703;0,0687146
3315,0347;0,0687113
3315,9988;0,0687449
3316,9631;0,0688133
3317,9272;0,0689077
3318,8916;0,0690161
3319,8557;0,0691288
3320,8201;0,069241
3321,7842;0,0693521
3322,7485;0,0694628
3323,7126;0,0695706
3324,6770;0,06967
3325,6411;0,0697553
3326,6055;0,0698249
3327,5696;0,0698836
3328,5339;0,0699409
3329,4980;0,070006
3330,4624;0,0700829
3331,4265;0,0701681
3332,3909;0,0702506
3333,3550;0,0703153
3334,3193;0,070346
3335,2834;0,0703312
3336,2478;0,0702675
3337,2119;0,0701626
3338,1763;0,0700319
3339,1404;0,0698926
3340,1047;0,0697565
3341,0688;0,069627
3342,0332;0,0695005
3342,9973;0,0693712
3343,9617;0,0692361
3344,9258;0,0690956
3345,8901;0,0689512
3346,8542;0,0688022
3347,8186;0,068646
3348,7827;0,0684812
3349,7471;0,0683113
3350,7112;0,0681443
3351,6755;0,0679882
3352,6396;0,0678454
3353,6040;0,0677099
3354,5681;0,0675706
3355,5325;0,0674185
3356,4966;0,0672523
3357,4609;0,0670789
3358,4250;0,0669083
3359,3894;0,0667483
3360,3535;0,0666011
3361,3179;0,0664634
3362,2820;0,0663288
3363,2463;0,0661901
3364,2104;0,0660393
3365,1748;0,065869
3366,1389;0,0656741
3367,1033;0,0654556
3368,0674;0,0652214
3369,0317;0,0649844
3369,9958;0,0647571
3370,9602;0,0645464
3371,9243;0,0643512
3372,8887;0,0641646
3373,8528;0,0639779
3374,8171;0,063785
3375,7813;0,0635849
3376,7456;0,0633819
3377,7097;0,0631839
3378,6741;0,062999
3379,6382;0,0628328
3380,6025;0,0626847
3381,5667;0,0625471
3382,5310;0,0624073
3383,4951;0,0622529
3384,4595;0,0620786
3385,4236;0,061891
3386,3879;0,0617064
3387,3521;0,061543
3388,3164;0,0614103
3389,2805;0,0613036
3390,2449;0,061205
3391,2090;0,061092
3392,1733;0,0609483
3393,1375;0,0607718
3394,1018;0,0605724
3395,0659;0,0603642
3396,0303;0,060156
3396,9944;0,0599487
3397,9587;0,0597382
3398,9229;0,0595201
3399,8872;0,0592929
3400,8513;0,0590577
3401,8157;0,0588166
3402,7798;0,0585725
3403,7441;0,0583296
3404,7083;0,058094
3405,6726;0,0578716
3406,6367;0,0576653
3407,6011;0,0574719
3408,5652;0,0572827
3409,5295;0,0570867
3410,4937;0,0568747
3411,4580;0,056643
3412,4221;0,0563948
3413,3865;0,0561405
3414,3506;0,0558946
3415,3149;0,0556718
3416,2791;0,0554816
3417,2434;0,0553212
3418,2075;0,0551726
3419,1719;0,0550062
3420,1360;0,0547922
3421,1003;0,0545155
3422,0645;0,0541836
3423,0288;0,0538223
3423,9929;0,0534628
3424,9573;0,0531286
3425,9214;0,0528287
3426,8857;0,052559
3427,8499;0,0523066
3428,8142;0,0520571
3429,7783;0,0517996
3430,7427;0,0515293
3431,7068;0,0512462
3432,6711;0,0509529
3433,6353;0,0506537
3434,5996;0,0503548
3435,5637;0,0500649
3436,5281;0,0497937
3437,4922;0,0495489
3438,4565;0,0493337
3439,4207;0,0491451
3440,3850;0,0489758
3441,3491;0,0488173
3442,3135;0,0486606
3443,2776;0,0484951
3444,2419;0,0483047
3445,2061;0,0480682
3446,1704;0,0477664
3447,1345;0,0473959
3448,0989;0,0469771
3449,0630;0,0465479
3450,0273;0,0461457
3450,9915;0,0457919
3451,9558;0,0454876
3452,9199;0,0452192
3453,8843;0,0449694
3454,8484;0,044727
3455,8127;0,0444917
3456,7769;0,04427
3457,7412;0,0440662
3458,7053;0,0438743
3459,6697;0,0436774
3460,6338;0,0434562
3461,5981;0,0431991
3462,5623;0,0429094
3463,5266;0,0426014
3464,4907;0,0422902
3465,4551;0,0419821
3466,4192;0,0416734
3467,3835;0,0413585
3468,3477;0,041039
3469,3120;0,0407263
3470,2761;0,0404346
3471,2405;0,04017
3472,2046;0,0399254
3473,1689;0,0396868
3474,1331;0,0394467
3475,0974;0,0392146
3476,0615;0,0390136
3477,0259;0,0388629
3477,9900;0,0387593
3478,9543;0,0386701
3479,9185;0,038544
3480,8828;0,0383371
3481,8469;0,0380397
3482,8113;0,0376826
3483,7754;0,0373163
3484,7397;0,0369797
3485,7039;0,036681
3486,6682;0,0364019
3487,6323;0,0361157
3488,5967;0,0358101
3489,5608;0,0354975
3490,5251;0,0352066
3491,4893;0,0349619
3492,4536;0,0347668
3493,4177;0,0346011
3494,3821;0,0344349
3495,3462;0,034252
3496,3105;0,034068
3497,2747;0,0339245
3498,2390;0,0338602
3499,2031;0,033877
3500,1675;0,0339233
3501,1316;0,0339059
3502,0959;0,0337345
3503,0601;0,0333844
3504,0244;0,0329227
3504,9885;0,0324659
3505,9529;0,0321036
3506,9170;0,0318513
3507,8813;0,031654
3508,8455;0,0314244
3509,8098;0,0310977
3510,7739;0,0306716
3511,7383;0,0302045
3512,7024;0,0297715
3513,6667;0,0294216
3514,6309;0,0291634
3515,5952;0,0289784
3516,5593;0,0288459
3517,5237;0,0287605
3518,4878;0,0287338
3519,4521;0,0287778
3520,4163;0,0288848
3521,3806;0,0290162
3522,3447;0,0291097
3523,3091;0,0291045
3524,2732;0,0289666
3525,2375;0,0286954
3526,2017;0,0283109
3527,1660;0,027838
3528,1301;0,0273041
3529,0945;0,0267492
3530,0586;0,0262293
3531,0229;0,0258
3531,9871;0,0254947
3532,9514;0,0253073
3533,9155;0,0251902
3534,8799;0,0250667
3535,8440;0,0248652
3536,8083;0,0245616
3537,7725;0,0242024
3538,7368;0,0238855
3539,7009;0,0237106
3540,6653;0,0237356
3541,6294;0,0239504
3542,5938;0,0242672
3543,5579;0,0245285
3544,5222;0,0245617
3545,4863;0,0242784
3546,4507;0,0237438
3547,4148;0,0231332
3548,3792;0,0226101
3549,3433;0,022242
3550,3076;0,0219946
3551,2717;0,0217749
3552,2361;0,0214946
3553,2002;0,0211274
3554,1646;0,0207231
3555,1287;0,0203634
3556,0930;0,0201064
3557,0571;0,019965
3558,0215;0,0199204
3558,9856;0,0199483
3559,9500;0,0200405
3560,9141;0,0202111
3561,8784;0,0204797
3562,8425;0,0208438
3563,8069;0,0212427
3564,7710;0,0215095
3565,7354;0,021377
3566,6995;0,0206614
3567,6638;0,0195183
3568,6279;0,0183643
3569,5923;0,0175102
3570,5564;0,0169967
3571,5208;0,0167081
3572,4849;0,0165192
3573,4492;0,0163558
3574,4133;0,0161924
3575,3777;0,0160307
3576,3418;0,0158796
3577,3062;0,0157418
3578,2703;0,0156147
3579,2346;0,0155007
3580,1987;0,0154154
3581,1631;0,0153832
3582,1272;0,0154234
3583,0916;0,0155405
3584,0557;0,0157126
3585,0200;0,015862
3585,9841;0,0158347
3586,9485;0,0154942
3587,9126;0,0149115
3588,8770;0,0143585
3589,8411;0,0140523
3590,8054;0,0140063
3591,7695;0,0141054
3592,7339;0,0142176
3593,6980;0,0142474
3594,6624;0,0141588
3595,6265;0,0139817
3596,5908;0,0137732
3597,5549;0,0135545
3598,5193;0,0132941
3599,4834;0,0129503
3600,4478;0,012529
3601,4119;0,0120982
3602,3762;0,0117392
3603,3403;0,011486
3604,3047;0,0113119
3605,2688;0,0111546
3606,2332;0,0109443
3607,1973;0,0106368
3608,1616;0,0102583
3609,1257;0,00991548
3610,0901;0,00972783
3611,0542;0,00974119
3612,0186;0,00990054
3612,9827;0,0100886
3613,9470;0,010188
3614,9111;0,0101273
3615,8755;0,00989124
3616,8396;0,0095034
3617,8040;0,00900831
3618,7681;0,00848119
3619,7324;0,00805219
3620,6965;0,00786216
3621,6609;0,00794161
3622,6250;0,00816092
3623,5894;0,00831872
3624,5535;0,008268
3625,5178;0,00798057
3626,4819;0,00751693
3627,4463;0,00693462
3628,4104;0,00628566
3629,3748;0,00574426
3630,3389;0,005517
3631,3032;0,00557438
3632,2673;0,00568192
3633,2317;0,00563226
3634,1958;0,00537376
3635,1602;0,00499372
3636,1243;0,00462819
3637,0886;0,00437083
3638,0527;0,00423601
3639,0171;0,00418521
3639,9812;0,00417622
3640,9456;0,00418923
3641,9097;0,0042176
3642,8740;0,00424752
3643,8381;0,00426032
3644,8025;0,00426146
3645,7666;0,00428782
3646,7310;0,00431055
3647,6951;0,0040615
3648,6594;0,00319543
3649,6235;0,00193774
3650,5879;0,000987732
3651,5520;0,000633181
3652,5164;0,00062414
3653,4805;0,000619884
3654,4448;0,000454945
3655,4089;0,000159494
3656,3733;-0,000125231
3657,3374;-0,000263888
3658,3018;-0,000227388
3659,2659;-0,000102977
3660,2302;-4,66945E-06
3661,1943;2,06103E-05
3662,1587;7,87097E-06
3663,1228;1,38556E-05
3664,0872;4,71836E-05
3665,0513;6,50801E-05
3666,0156;2,82651E-05
3666,9797;-4,73593E-05
3667,9441;-0,000114533
3668,9082;-0,000164252
3669,8726;-0,000224586
3670,8367;-0,000304663
3671,8010;-0,000406718
3672,7651;-0,000545306
3673,7295;-0,000720832
3674,6936;-0,00092059
3675,6580;-0,00111143
3676,6221;-0,00119095
3677,5864;-0,00106937
3678,5505;-0,00080507
3679,5149;-0,000541296
3680,4790;-0,000362286
3681,4434;-0,000258537
3682,4075;-0,000192669
3683,3718;-0,000168417
3684,3359;-0,000230444
3685,3003;-0,000399008
3686,2644;-0,000609335
3687,2288;-0,000737246
3688,1929;-0,000718646
3689,1572;-0,000610325
3690,1213;-0,000469873
3691,0857;-0,000280606
3692,0498;-4,43109E-05
3693,0142;0,000183562
3693,9783;0,00035322
3694,9426;0,000454161
3695,9067;0,000498765
3696,8711;0,000496598
3697,8352;0,000448742
3698,7996;0,000359206
3699,7637;0,000245015
3700,7280;0,000136752
3701,6921;7,66121E-05
3702,6565;0,000108029
3703,6206;0,000243184
3704,5850;0,000437198
3705,5491;0,000611729
3706,5134;0,000709319
3707,4775;0,000721578
3708,4419;0,000653459
3709,4060;0,000447516
3710,3704;4,79E-07
3711,3345;-0,000636215
3712,2988;-0,0011699
3713,2629;-0,00134217
3714,2273;-0,00115602
3715,1914;-0,00078405
3716,1558;-0,000387108
3717,1199;-2,86015E-05
3718,0842;0,000314717
3719,0483;0,000696158
3720,0127;0,00114267
3720,9768;0,00162861
3721,9412;0,00208457
3722,9053;0,00242575
3723,8696;0,00258418
3724,8337;0,0025398
3725,7981;0,0023327
3726,7622;0,00203559
3727,7266;0,00170949
3728,6907;0,00139558
3729,6550;0,00114766
3730,6191;0,00105513
3731,5835;0,00120458
3732,5476;0,00156836
3733,5120;0,00190508
3734,4761;0,00188645
3735,4404;0,00147612
3736,4045;0,00103383
3737,3689;0,000877796
3738,3330;0,000948994
3739,2974;0,000934951
3740,2615;0,000548864
3741,2258;-0,000289279
3742,1899;-0,00139781
3743,1543;-0,00240287
3744,1184;-0,0029325
3745,0828;-0,00284986
3746,0469;-0,00234926
3747,0112;-0,00180904
3747,9753;-0,00154248
3748,9397;-0,00167295
3749,9038;-0,00214317
3750,8682;-0,00270658
3751,8323;-0,00297172
3752,7966;-0,00271863
3753,7607;-0,00210676
3754,7251;-0,0014677
3755,6892;-0,00104286
3756,6536;-0,00091204
3757,6177;-0,00103812
3758,5820;-0,0013132
3759,5461;-0,00158923
3760,5105;-0,00174278
3761,4746;-0,0017428
3762,4390;-0,00164442
3763,4031;-0,00153015
3764,3674;-0,00146559
3765,3315;-0,00148691
3766,2959;-0,00160224
3767,2600;-0,0017953
3768,2244;-0,00203127
3769,1885;-0,00226193
3770,1528;-0,00242782
3771,1169;-0,00247428
3772,0813;-0,00238574
3773,0454;-0,00220729
3774,0098;-0,00202149
3774,9739;-0,0018988
3775,9382;-0,00186389
3776,9023;-0,00189923
3777,8667;-0,00196788
3778,8308;-0,00202082
3779,7952;-0,00200035
3780,7593;-0,00187223
3781,7236;-0,00166134
3782,6877;-0,00144474
3783,6521;-0,00131126
3784,6162;-0,00131848
3785,5806;-0,00146303
3786,5447;-0,00168135
3787,5090;-0,00188532
3788,4731;-0,00201197
3789,4375;-0,00205062
3790,4016;-0,00203045
3791,3660;-0,0019829
3792,3301;-0,00190851
3793,2944;-0,00177593
3794,2585;-0,00155816
3795,2229;-0,00127921
3796,1870;-0,00102547
3797,1514;-0,000904199
3798,1155;-0,000981537
3799,0798;-0,00124811
3800,0439;-0,00162779
3801,0083;-0,00200838
3801,9724;-0,00228689
3802,9368;-0,00244135
3803,9009;-0,00255885
3804,8652;-0,00275213
3805,8293;-0,00303764
3806,7937;-0,00329008
3807,7578;-0,00332026
3808,7222;-0,00304082
3809,6863;-0,00257062
3810,6506;-0,00215452
3811,6147;-0,00198256
3812,5791;-0,00206996
3813,5432;-0,00226386
3814,5076;-0,00235896
3815,4717;-0,00224187
3816,4360;-0,00195631
3817,4001;-0,00165655
3818,3645;-0,00150906
3819,3286;-0,00160554
3820,2930;-0,00190022
3821,2571;-0,00219751
3822,2214;-0,00227035
3823,1855;-0,00205345
3824,1499;-0,00168456
3825,1140;-0,00136751
3826,0784;-0,00123384
3827,0425;-0,00129661
3828,0068;-0,00147832
3828,9709;-0,00167147
3829,9353;-0,00179668
3830,8994;-0,0018325
3831,8638;-0,00180918
3832,8279;-0,00177686
3833,7922;-0,00176681
3834,7563;-0,00176684
3835,7207;-0,00173022
3836,6848;-0,00162018
3837,6492;-0,00145404
3838,6133;-0,00129238
3839,5776;-0,00119063
3840,5417;-0,00117945
3841,5061;-0,00126961
3842,4702;-0,00143437
3843,4346;-0,0015893
3844,3987;-0,00162
3845,3630;-0,00146062
3846,3271;-0,00116352
3847,2915;-0,000896572
3848,2556;-0,000865613
3849,2200;-0,00121219
3850,1841;-0,00194007
3851,1484;-0,00291732
3852,1125;-0,00395601
3853,0769;-0,00479815
3854,0410;-0,00502193
3855,0054;-0,00440223
3855,9695;-0,00325755
3856,9338;-0,00211784
3857,8979;-0,0013257
3858,8623;-0,000946409
3859,8264;-0,000850122
3860,7908;-0,000843631
3861,7549;-0,00080313
3862,7192;-0,000740574
3863,6833;-0,000742108
3864,6477;-0,000851072
3865,6118;-0,00103278
3866,5762;-0,00121636
3867,5403;-0,00133415
3868,5046;-0,00135008
3869,4688;-0,00128812
3870,4331;-0,0012271
3871,3972;-0,00124011
3872,3616;-0,0013367
3873,3257;-0,0014714
3874,2900;-0,00159204
3875,2542;-0,00166669
3876,2185;-0,00167438
3877,1826;-0,00159017
3878,1470;-0,00139381
3879,1111;-0,00110673
3880,0754;-0,000817235
3881,0396;-0,000649971
3882,0039;-0,000698734
3882,9680;-0,000979753
3883,9324;-0,00142147
3884,8965;-0,00188219
3885,8608;-0,00220588
3886,8250;-0,00230532
3887,7893;-0,00220523
3888,7534;-0,00200122
3889,7178;-0,00178601
3890,6819;-0,00161005
3891,6462;-0,0014734
3892,6104;-0,00133347
3893,5747;-0,00115588
3894,5388;-0,000969319
3895,5032;-0,000838626
3896,4673;-0,000790662
3897,4316;-0,000787151
3898,3958;-0,000767409
3899,3601;-0,000707309
3900,3242;-0,000638637
3901,2886;-0,000625718
3902,2527;-0,000732899
3903,2170;-0,000985321
3904,1812;-0,00133371
3905,1455;-0,00167615
3906,1096;-0,0019344
3907,0740;-0,00209823
3908,0381;-0,00219821
3909,0024;-0,00225718
3909,9666;-0,0022701
3910,9309;-0,00221696
3911,8950;-0,00208641
3912,8594;-0,00189017
3913,8235;-0,00166331
3914,7878;-0,00145743
3915,7520;-0,00132839
3916,7163;-0,00130789
3917,6804;-0,00136529
3918,6448;-0,00140883
3919,6089;-0,00134954
3920,5732;-0,00117055
3921,5374;-0,000936406
3922,5017;-0,000752494
3923,4658;-0,000705692
3924,4302;-0,000807958
3925,3943;-0,000980552
3926,3586;-0,00110687
3927,3228;-0,00111114
3928,2871;-0,000996673
3929,2512;-0,000835992
3930,2156;-0,00073718
3931,1797;-0,000790632
3932,1440;-0,00100924
3933,1082;-0,00131609
3934,0725;-0,00160318
3935,0366;-0,00179863
3936,0010;-0,00188278
3936,9651;-0,00186553
3937,9294;-0,00176451
3938,8936;-0,00160151
3939,8579;-0,00141024
3940,8220;-0,00123715
3941,7864;-0,0011218
3942,7505;-0,00106736
3943,7148;-0,00103373
3944,6790;-0,000971687
3945,6433;-0,0008668
3946,6074;-0,000757909
3947,5718;-0,000720321
3948,5359;-0,000821374
3949,5002;-0,00107017
3950,4644;-0,00140156
3951,4287;-0,00171538
3952,3928;-0,00193573
3953,3572;-0,00204038
3954,3213;-0,00205113
3955,2856;-0,00200658
3956,2498;-0,00193838
3957,2141;-0,00186239
3958,1782;-0,00178568
3959,1426;-0,00171984
3960,1067;-0,00168675
3961,0710;-0,00170963
3962,0352;-0,00179563
3962,9995;-0,00192527
3963,9636;-0,00205975
3964,9280;-0,00215977
3965,8921;-0,00220417
3966,8564;-0,00219507
3967,8206;-0,00215061
3968,7849;-0,00209145
3969,7490;-0,00203016
3970,7134;-0,0019702
3971,6775;-0,00191379
3972,6418;-0,00187037
3973,6060;-0,00185727
3974,5703;-0,00189047
3975,5344;-0,00197238
3976,4988;-0,00208667
3977,4629;-0,00220501
3978,4272;-0,00230104
3979,3914;-0,00236243
3980,3557;-0,00239393
3981,3198;-0,0024105
3982,2842;-0,00242511
3983,2483;-0,00243947
3984,2126;-0,0024438
3985,1768;-0,00242549
3986,1411;-0,00237977
3987,1052;-0,00231539
3988,0696;-0,00225183
3989,0337;-0,00220918
3989,9980;-0,00219914
3990,9622;-0,00222063
3991,9265;-0,00226343
3992,8906;-0,0023159
3993,8550;-0,00237072
3994,8191;-0,00242506
3995,7834;-0,00247688
3996,7476;-0,00252192
3997,7119;-0,00255443
3998,6760;-0,00257077
3999,6404;-0,00257203
4000,6045;-0,00204314

##### Extended Information
[Comments]
Sample name
Comment
Username
Division
Organization;UNIVERSIDAD INDUSTRIAL DE SANTANDER

[Detailed Information]
Creation date;20/03/2025 1:04 p.m.

Data array type;Linear data array
Horizontal axis;Wavenumber [cm-1]
Vertical axis;Abs
Start;399,193 cm-1
End;4000,6 cm-1
Data interval;0,964233 cm-1
Data points;3736    

[Measurement Information]
Model name;FT/IR-4X1typeA
Serial No.;A035162111

Accessory;ATR PRO 4X
Accessory S/N;A021162126
Incident angle;45 deg

Measurement date;20/03/2025 1:03 p.m.

Light source;Standard
Detector;TGS
Accumulation;40
Resolution;4 cm-1
Zero filling;On
Apodization;Cosine
Gain;Auto (8)
Aperture;Auto (7 mm)
Scan speed;Auto (2 mm/sec)
Filter;Auto (12800 Hz)

