TITLE;
DATA TYPE;INFRARED SPECTRUM
ORIGIN;JASCO
OWNER;
DATE;25/03/20
TIME;12:21:33
SPECTROMETER/DATA SYSTEM;
LOCALE;9226
RESOLUTION;
DELTAX;0,964233
XUNITS;1/CM
YUNITS;ABSORBANCE
FIRSTX;  399,1927
LASTX; 4000,6047
NPOINTS;    3736
FIRSTY;     0,19648
MAXY;     0,25518
MINY;    -0,00286
XYDATA
399,1927;0,196483
400,1569;0,198324
401,1211;0,199815
402,0854;0,200666
403,0496;0,200729
404,0138;0,200115
404,9781;0,199229
405,9423;0,198668
406,9065;0,198934
407,8708;0,20017
408,8350;0,202094
409,7992;0,204177
410,7635;0,205908
411,7277;0,207013
412,6919;0,207541
413,6562;0,20777
414,6204;0,20806
415,5846;0,208753
416,5489;0,210127
417,5131;0,212261
418,4773;0,214739
419,4416;0,216654
420,4058;0,217338
421,3700;0,216924
422,3343;0,215979
423,2985;0,215021
424,2627;0,214366
425,2270;0,214133
426,1912;0,214267
427,1554;0,214591
428,1197;0,214936
429,0839;0,21524
430,0481;0,215575
431,0124;0,216081
431,9766;0,216833
432,9408;0,217741
433,9051;0,218545
434,8693;0,218941
435,8335;0,21876
436,7978;0,218087
437,7620;0,217197
438,7262;0,216387
439,6905;0,215819
440,6547;0,215488
441,6189;0,215287
442,5832;0,215092
443,5474;0,214815
444,5116;0,214405
445,4759;0,213834
446,4401;0,2131
447,4043;0,212258
448,3686;0,211422
449,3328;0,210732
450,2970;0,210285
451,2613;0,210078
452,2255;0,210026
453,1897;0,210037
454,1540;0,210085
455,1182;0,210219
456,0824;0,21049
457,0467;0,210844
458,0109;0,211083
458,9751;0,210974
459,9394;0,210432
460,9036;0,209588
461,8678;0,208672
462,8321;0,207879
463,7963;0,207292
464,7605;0,206875
465,7248;0,20653
466,6890;0,206195
467,6532;0,205913
468,6175;0,205831
469,5817;0,206111
470,5459;0,206806
471,5102;0,207764
472,4744;0,208648
473,4386;0,209108
474,4029;0,208999
475,3671;0,208425
476,3313;0,207629
477,2956;0,206848
478,2598;0,206253
479,2240;0,205951
480,1883;0,206001
481,1525;0,206419
482,1167;0,207144
483,0810;0,208021
484,0452;0,208821
485,0094;0,209346
485,9737;0,209561
486,9379;0,209615
487,9021;0,209748
488,8664;0,210138
489,8306;0,210802
490,7948;0,211582
491,7591;0,21224
492,7233;0,212594
493,6875;0,212616
494,6518;0,212421
495,6160;0,212172
496,5802;0,211993
497,5445;0,211948
498,5087;0,212061
499,4729;0,212338
500,4372;0,212761
501,4014;0,213263
502,3656;0,213731
503,3299;0,214055
504,2941;0,214198
505,2583;0,214223
506,2226;0,214248
507,1868;0,214373
508,1510;0,214617
509,1153;0,214927
510,0795;0,215228
511,0437;0,21549
512,0080;0,215756
512,9722;0,216115
513,9365;0,216644
514,9007;0,217362
515,8649;0,218204
516,8292;0,219029
517,7934;0,219659
518,7576;0,219953
519,7219;0,219874
520,6861;0,219505
521,6503;0,219003
522,6146;0,218538
523,5788;0,218241
524,5430;0,218155
525,5073;0,21821
526,4715;0,218252
527,4357;0,218135
528,4000;0,217813
529,3642;0,217352
530,3284;0,216874
531,2927;0,216483
532,2569;0,216214
533,2211;0,216036
534,1854;0,215889
535,1496;0,215725
536,1138;0,21553
537,0781;0,215317
538,0423;0,215106
539,0065;0,214918
539,9708;0,21479
540,9350;0,21477
541,8992;0,21491
542,8635;0,215227
543,8277;0,215677
544,7919;0,216155
545,7562;0,216534
546,7204;0,216723
547,6846;0,216709
548,6489;0,216567
549,6131;0,216411
550,5773;0,216351
551,5416;0,216453
552,5058;0,216731
553,4700;0,217147
554,4343;0,217623
555,3985;0,218054
556,3627;0,21832
557,3270;0,218313
558,2912;0,217957
559,2554;0,217233
560,2197;0,216183
561,1839;0,214908
562,1481;0,213543
563,1124;0,212236
564,0766;0,211109
565,0408;0,210233
566,0051;0,209609
566,9693;0,20918
567,9335;0,208854
568,8978;0,208549
569,8620;0,208224
570,8262;0,207889
571,7905;0,207586
572,7547;0,207361
573,7189;0,207237
574,6832;0,207211
575,6474;0,207255
576,6116;0,207332
577,5759;0,207398
578,5401;0,207415
579,5043;0,207341
580,4686;0,207146
581,4328;0,206817
582,3970;0,206367
583,3613;0,205841
584,3255;0,205307
585,2897;0,20484
586,2540;0,204507
587,2182;0,204353
588,1824;0,204381
589,1467;0,204548
590,1109;0,204754
591,0751;0,204868
592,0394;0,204777
593,0036;0,204437
593,9678;0,203898
594,9321;0,203265
595,8963;0,202638
596,8605;0,202063
597,8248;0,201525
598,7890;0,200986
599,7532;0,200423
600,7175;0,199858
601,6817;0,199337
602,6459;0,198891
603,6102;0,198497
604,5744;0,198088
605,5386;0,19758
606,5029;0,196921
607,4671;0,196113
608,4313;0,195209
609,3956;0,194289
610,3598;0,19344
611,3240;0,192735
612,2883;0,192219
613,2525;0,191893
614,2167;0,191692
615,1810;0,191476
616,1452;0,19106
617,1094;0,190282
618,0737;0,189093
619,0379;0,187582
620,0021;0,185939
620,9664;0,184355
621,9306;0,182951
622,8948;0,181767
623,8591;0,18078
624,8233;0,17991
625,7875;0,179178
626,7518;0,178551
627,7160;0,178
628,6802;0,177492
629,6445;0,176995
630,6087;0,176482
631,5729;0,175939
632,5372;0,175367
633,5014;0,174779
634,4656;0,1742
635,4299;0,17366
636,3941;0,173184
637,3583;0,172777
638,3226;0,172422
639,2868;0,172081
640,2510;0,171715
641,2153;0,171307
642,1795;0,170873
643,1437;0,170448
644,1080;0,17007
645,0722;0,169751
646,0364;0,169467
647,0007;0,169172
647,9649;0,168819
648,9291;0,168389
649,8934;0,167905
650,8576;0,167426
651,8218;0,167024
652,7861;0,166756
653,7503;0,166645
654,7145;0,166668
655,6788;0,166772
656,6430;0,166894
657,6072;0,167004
658,5715;0,167098
659,5357;0,167173
660,4999;0,167173
661,4642;0,166979
662,4284;0,166451
663,3926;0,165493
664,3569;0,164134
665,3211;0,16263
666,2853;0,161502
667,2496;0,16124
668,2138;0,161598
669,1780;0,161622
670,1423;0,160932
671,1065;0,159804
672,0707;0,15841
673,0350;0,15677
673,9992;0,154963
674,9634;0,153139
675,9277;0,151427
676,8919;0,149866
677,8561;0,14842
678,8204;0,14706
679,7846;0,145801
680,7488;0,144683
681,7131;0,143719
682,6773;0,142871
683,6415;0,14208
684,6058;0,141312
685,5700;0,140575
686,5342;0,139903
687,4985;0,13931
688,4627;0,138786
689,4269;0,138287
690,3912;0,137782
691,3554;0,137267
692,3196;0,136762
693,2839;0,136289
694,2481;0,135852
695,2123;0,13544
696,1766;0,135032
697,1408;0,134604
698,1050;0,134134
699,0693;0,133611
700,0335;0,133032
700,9977;0,132411
701,9620;0,131772
702,9262;0,131144
703,8904;0,130533
704,8547;0,12994
705,8189;0,129349
706,7831;0,128735
707,7474;0,128081
708,7116;0,127392
709,6758;0,126689
710,6401;0,125994
711,6043;0,125317
712,5685;0,124649
713,5328;0,123973
714,4970;0,123284
715,4612;0,121875
716,4255;0,121339
717,3897;0,120854
718,3539;0,12033
719,3182;0,119635
720,2824;0,118667
721,2466;0,117429
722,2109;0,116037
723,1751;0,114656
724,1393;0,11342
725,1036;0,112383
726,0678;0,111522
727,0320;0,110778
727,9963;0,110087
728,9605;0,10941
729,9247;0,108733
730,8890;0,108051
731,8532;0,107367
732,8174;0,106689
733,7817;0,106033
734,7459;0,105419
735,7101;0,104861
736,6744;0,104357
737,6386;0,103888
738,6028;0,10343
739,5671;0,102965
740,5313;0,10249
741,4955;0,102013
742,4598;0,101544
743,4240;0,101084
744,3882;0,100626
745,3525;0,100158
746,3167;0,099672
747,2809;0,0991671
748,2452;0,0986481
749,2094;0,0981217
750,1736;0,0975919
751,1379;0,0970593
752,1021;0,0965244
753,0663;0,0959912
754,0306;0,0954684
754,9948;0,0949669
755,9590;0,0944963
756,9233;0,0940617
757,8875;0,0936643
758,8517;0,0933019
759,8160;0,0929684
760,7802;0,0926521
761,7444;0,092334
762,7087;0,0919918
763,6729;0,0916098
764,6371;0,0911894
765,6014;0,0907536
766,5656;0,0903386
767,5298;0,0899768
768,4941;0,0896789
769,4583;0,0894289
770,4225;0,0891947
771,3868;0,0889488
772,3510;0,0886847
773,3152;0,0884184
774,2795;0,0881735
775,2437;0,0879623
776,2079;0,0877733
777,1722;0,0875748
778,1364;0,0873297
779,1006;0,0870115
780,0649;0,0866116
781,0291;0,0861358
781,9933;0,0855952
782,9576;0,0849992
783,9218;0,0843557
784,8860;0,083677
785,8503;0,0829855
786,8145;0,0823148
787,7787;0,0817022
788,7430;0,0811759
789,7072;0,0807441
790,6714;0,0803908
791,6357;0,0800829
792,5999;0,079785
793,5641;0,0794738
794,5284;0,0791461
795,4926;0,0788142
796,4568;0,0784948
797,4211;0,0781982
798,3853;0,0779245
799,3495;0,0776668
800,3138;0,0774187
801,2780;0,0771788
802,2422;0,076951
803,2065;0,0767416
804,1707;0,076556
805,1349;0,0763964
806,0992;0,0762598
807,0634;0,076137
808,0276;0,0760129
808,9919;0,0758711
809,9561;0,0757029
810,9203;0,0755136
811,8846;0,0753232
812,8488;0,0751556
813,8130;0,075025
814,7773;0,0749264
815,7415;0,0748388
816,7057;0,0747401
817,6700;0,0746224
818,6342;0,0744971
819,5984;0,0743866
820,5627;0,0743079
821,5269;0,0742614
822,4911;0,074232
823,4554;0,0742006
824,4196;0,0741561
825,3839;0,0740993
826,3481;0,0740367
827,3123;0,0739712
828,2766;0,073897
829,2408;0,0738034
830,2050;0,073681
831,1693;0,073527
832,1335;0,0733441
833,0977;0,0731362
834,0620;0,0729053
835,0262;0,0726519
835,9904;0,0723786
836,9547;0,0720925
837,9189;0,0718038
838,8831;0,0715216
839,8474;0,0712509
840,8116;0,0709909
841,7758;0,0707383
842,7401;0,0704901
843,7043;0,0702465
844,6685;0,0700122
845,6328;0,0697949
846,5970;0,0696041
847,5612;0,0694474
848,5255;0,0693285
849,4897;0,0692448
850,4539;0,0691882
851,4182;0,0691477
852,3824;0,0691119
853,3466;0,0690711
854,3109;0,0690179
855,2751;0,0689473
856,2393;0,0688574
857,2036;0,0687513
858,1678;0,0686381
859,1320;0,0685309
860,0963;0,0684425
861,0605;0,0683804
862,0247;0,0683452
862,9890;0,0683329
863,9532;0,0683399
864,9174;0,0683684
865,8817;0,0684259
866,8459;0,0685209
867,8101;0,0686562
868,7744;0,0688226
869,7386;0,068999
870,7028;0,0691577
871,6671;0,0692754
872,6313;0,0693433
873,5955;0,0693721
874,5598;0,069389
875,5240;0,0694256
876,4882;0,0695046
877,4525;0,0696316
878,4167;0,0697979
879,3809;0,0699926
880,3452;0,0702157
881,3094;0,0704842
882,2736;0,0708264
883,2379;0,0712675
884,2021;0,0718166
885,1663;0,0724622
886,1306;0,0731793
887,0948;0,0739425
888,0590;0,0747368
889,0233;0,0755597
889,9875;0,0764145
890,9517;0,0772981
891,9160;0,0781921
892,8802;0,0790606
893,8444;0,079856
894,8087;0,0805299
895,7729;0,0810433
896,7371;0,0813743
897,7014;0,0815189
898,6656;0,0814878
899,6298;0,081301
900,5941;0,0809818
901,5583;0,0805524
902,5225;0,0800333
903,4868;0,079445
904,4510;0,0788129
905,4152;0,0781728
906,3795;0,0775718
907,3437;0,0770625
908,3079;0,0766896
909,2722;0,0764756
910,2364;0,0764126
911,2007;0,0764673
912,1649;0,0765979
913,1292;0,0767731
914,0934;0,0769841
915,0576;0,0772418
916,0219;0,077563
916,9861;0,0779535
917,9503;0,0783991
918,9146;0,0788686
919,8788;0,079326
920,8430;0,0797445
921,8073;0,0801142
922,7715;0,080441
923,7357;0,080738
924,7000;0,0810146
925,6642;0,0812693
926,6284;0,0814903
927,5927;0,0816625
928,5569;0,0817779
929,5211;0,0818427
930,4854;0,0818762
931,4496;0,0819025
932,4138;0,0819415
933,3781;0,0820036
934,3423;0,0820939
935,3065;0,0822196
936,2708;0,0823962
937,2350;0,0826462
938,1992;0,0829906
939,1635;0,083441
940,1277;0,0839947
941,0919;0,0846384
942,0562;0,0853552
943,0204;0,0861308
943,9846;0,0869572
944,9489;0,0878309
945,9131;0,0887517
946,8773;0,0897213
947,8416;0,090744
948,8058;0,0918275
949,7700;0,0929827
950,7343;0,0942219
951,6985;0,0955547
952,6627;0,0969832
953,6270;0,0984991
954,5912;0,100085
955,5554;0,101723
956,5197;0,1034
957,4839;0,105116
958,4481;0,106883
959,4124;0,108713
960,3766;0,110613
961,3408;0,112575
962,3051;0,114584
963,2693;0,116623
964,2335;0,118685
965,1978;0,120773
966,1620;0,122901
967,1262;0,125085
968,0905;0,127346
969,0547;0,129712
970,0189;0,132214
970,9832;0,134892
971,9474;0,137779
972,9116;0,140899
973,8759;0,144263
974,8401;0,147869
975,8043;0,151704
976,7686;0,155749
977,7328;0,159969
978,6970;0,164306
979,6613;0,16868
980,6255;0,172989
981,5897;0,177125
982,5540;0,18099
983,5182;0,184515
984,4824;0,187662
985,4467;0,190431
986,4109;0,192848
987,3751;0,194955
988,3394;0,196799
989,3036;0,198421
990,2678;0,199845
991,2321;0,201085
992,1963;0,202147
993,1605;0,203042
994,1248;0,203791
995,0890;0,204428
996,0532;0,204985
997,0175;0,205484
997,9817;0,205931
998,9459;0,206318
999,9102;0,20665
1000,8744;0,206956
1001,8386;0,207294
1002,8029;0,207744
1003,7671;0,208381
1004,7313;0,209259
1005,6956;0,210408
1006,6598;0,211834
1007,6240;0,213535
1008,5883;0,215499
1009,5525;0,217707
1010,5167;0,220118
1011,4810;0,222672
1012,4452;0,225295
1013,4094;0,227915
1014,3737;0,230473
1015,3379;0,23293
1016,3021;0,235259
1017,2664;0,237448
1018,2306;0,239485
1019,1948;0,241366
1020,1591;0,243098
1021,1233;0,244701
1022,0875;0,246202
1023,0518;0,247628
1024,0160;0,248995
1024,9802;0,2503
1025,9445;0,251524
1026,9087;0,252638
1027,8729;0,253608
1028,8372;0,254392
1029,8014;0,254939
1030,7656;0,255178
1031,7299;0,255029
1032,6941;0,254418
1033,6583;0,253312
1034,6226;0,251745
1035,5868;0,249823
1036,5510;0,247706
1037,5153;0,245578
1038,4795;0,243607
1039,4437;0,241915
1040,4080;0,240563
1041,3722;0,239556
1042,3364;0,238845
1043,3007;0,238344
1044,2649;0,237953
1045,2291;0,237574
1046,1934;0,237127
1047,1576;0,236561
1048,1218;0,235845
1049,0861;0,234956
1050,0503;0,233871
1051,0145;0,232558
1051,9788;0,230989
1052,9430;0,229153
1053,9072;0,227061
1054,8715;0,224742
1055,8357;0,222219
1056,7999;0,219494
1057,7642;0,216535
1058,7284;0,213298
1059,6926;0,209762
1060,6569;0,205957
1061,6211;0,201981
1062,5853;0,197978
1063,5496;0,194098
1064,5138;0,190452
1065,4780;0,187089
1066,4423;0,183999
1067,4065;0,18114
1068,3707;0,178463
1069,3350;0,175933
1070,2992;0,173524
1071,2634;0,171208
1072,2277;0,168941
1073,1919;0,166669
1074,1561;0,16434
1075,1204;0,161921
1076,0846;0,159416
1077,0488;0,156861
1078,0131;0,154319
1078,9773;0,151855
1079,9415;0,149527
1080,9058;0,147377
1081,8700;0,145425
1082,8342;0,143686
1083,7985;0,14216
1084,7627;0,140846
1085,7269;0,139735
1086,6912;0,13881
1087,6554;0,138053
1088,6196;0,137446
1089,5839;0,136972
1090,5481;0,136624
1091,5123;0,136397
1092,4766;0,136288
1093,4408;0,136295
1094,4050;0,136407
1095,3693;0,136611
1096,3335;0,136881
1097,2977;0,137192
1098,2620;0,137512
1099,2262;0,137815
1100,1904;0,138077
1101,1547;0,138278
1102,1189;0,1384
1103,0831;0,13843
1104,0474;0,138355
1105,0116;0,138174
1105,9758;0,137897
1106,9401;0,137542
1107,9043;0,137119
1108,8685;0,136618
1109,8328;0,136006
1110,7970;0,135229
1111,7612;0,134237
1112,7255;0,133012
1113,6897;0,131579
1114,6539;0,13001
1115,6182;0,1284
1116,5824;0,126842
1117,5466;0,125403
1118,5109;0,124103
1119,4751;0,122918
1120,4393;0,121785
1121,4036;0,120621
1122,3678;0,11934
1123,3320;0,117877
1124,2963;0,116197
1125,2605;0,1143
1126,2247;0,112215
1127,1890;0,109984
1128,1532;0,107653
1129,1174;0,105264
1130,0817;0,102854
1131,0459;0,100458
1132,0101;0,0981123
1132,9744;0,0958587
1133,9386;0,0937445
1134,9028;0,0918184
1135,8671;0,0901232
1136,8313;0,088688
1137,7955;0,0875225
1138,7598;0,0866177
1139,7240;0,0859521
1140,6882;0,0855004
1141,6525;0,0852384
1142,6167;0,0851429
1143,5809;0,0851884
1144,5452;0,0853453
1145,5094;0,0855831
1146,4736;0,0858782
1147,4379;0,0862214
1148,4021;0,0866177
1149,3663;0,0870782
1150,3306;0,0876068
1151,2948;0,0881892
1152,2590;0,0887898
1153,2233;0,0893586
1154,1875;0,089842
1155,1517;0,0901917
1156,1160;0,0903662
1157,0802;0,0903249
1158,0444;0,0900199
1159,0087;0,0893911
1159,9729;0,0883715
1160,9371;0,0869011
1161,9014;0,0849474
1162,8656;0,0825225
1163,8298;0,0796896
1164,7941;0,0765575
1165,7583;0,0732624
1166,7225;0,0699465
1167,6868;0,0667372
1168,6510;0,0637322
1169,6152;0,0609929
1170,5795;0,0585441
1171,5437;0,0563808
1172,5079;0,0544799
1173,4722;0,0528121
1174,4364;0,0513516
1175,4006;0,0500798
1176,3649;0,0489837
1177,3291;0,0480507
1178,2933;0,0472652
1179,2576;0,0466082
1180,2218;0,046061
1181,1860;0,0456095
1182,1503;0,0452462
1183,1145;0,0449692
1184,0787;0,0447783
1185,0430;0,0446725
1186,0072;0,0446493
1186,9714;0,0447061
1187,9357;0,0448428
1188,8999;0,0450626
1189,8641;0,0453705
1190,8284;0,0457717
1191,7926;0,0462678
1192,7568;0,046856
1193,7211;0,0475281
1194,6853;0,0482714
1195,6495;0,0490697
1196,6138;0,049905
1197,5780;0,0507586
1198,5422;0,0516138
1199,5065;0,0521913
1200,4707;0,0530464
1201,4349;0,0538798
1202,3992;0,0546889
1203,3634;0,0554713
1204,3276;0,056223
1205,2919;0,0569394
1206,2561;0,0576195
1207,2203;0,058271
1208,1846;0,0589127
1209,1488;0,059572
1210,1130;0,0602784
1211,0773;0,0610543
1212,0415;0,0619099
1213,0057;0,0628428
1213,9700;0,0638419
1214,9342;0,0648928
1215,8984;0,065981
1216,8627;0,0670893
1217,8269;0,068197
1218,7911;0,069284
1219,7554;0,0703336
1220,7196;0,0713367
1221,6838;0,0722921
1222,6481;0,0732026
1223,6123;0,0740695
1224,5765;0,0748888
1225,5408;0,0756522
1226,5050;0,0763521
1227,4692;0,0769864
1228,4335;0,0775595
1229,3977;0,0780794
1230,3619;0,0785522
1231,3262;0,0789792
1232,2904;0,0793567
1233,2546;0,0796796
1234,2189;0,079946
1235,1831;0,0801584
1236,1473;0,0803239
1237,1116;0,080451
1238,0758;0,080547
1239,0400;0,0806162
1240,0043;0,0806597
1240,9685;0,0806744
1241,9327;0,0806546
1242,8970;0,080592
1243,8612;0,0804775
1244,8254;0,0803033
1245,7897;0,0800657
1246,7539;0,0797675
1247,7181;0,0794179
1248,6824;0,0790314
1249,6466;0,0786243
1250,6108;0,0782115
1251,5751;0,0778037
1252,5393;0,0774067
1253,5035;0,0770224
1254,4678;0,0766497
1255,4320;0,0762849
1256,3962;0,0759214
1257,3605;0,0755491
1258,3247;0,0751548
1259,2889;0,0747247
1260,2532;0,0742471
1261,2174;0,0737164
1262,1816;0,0731343
1263,1459;0,0725087
1264,1101;0,0718505
1265,0743;0,0711699
1266,0386;0,0704723
1267,0028;0,0697561
1267,9670;0,0690123
1268,9313;0,0682289
1269,8955;0,0673961
1270,8597;0,0665112
1271,8240;0,065581
1272,7882;0,0646209
1273,7524;0,0636512
1274,7167;0,0626943
1275,6809;0,0617708
1276,6451;0,0608956
1277,6094;0,0600736
1278,5736;0,0592979
1279,5378;0,0585521
1280,5021;0,0578194
1281,4663;0,0570926
1282,4305;0,0563796
1283,3948;0,0556999
1284,3590;0,0550763
1285,3232;0,0545246
1286,2875;0,0540494
1287,2517;0,0536466
1288,2159;0,0533094
1289,1802;0,0530352
1290,1444;0,052828
1291,1086;0,0526969
1292,0729;0,0526523
1293,0371;0,0527013
1294,0013;0,0528457
1294,9656;0,05308
1295,9298;0,0533938
1296,8940;0,0537749
1297,8583;0,0542146
1298,8225;0,0547112
1299,7867;0,0552695
1300,7510;0,055897
1301,7152;0,0566022
1302,6794;0,0573864
1303,6437;0,0582421
1304,6079;0,0591574
1305,5721;0,0601177
1306,5364;0,0611114
1307,5006;0,0621339
1308,4648;0,0631876
1309,4291;0,0642752
1310,3933;0,0653897
1311,3575;0,0665052
1312,3218;0,0675764
1313,2860;0,068549
1314,2502;0,0693728
1315,2145;0,070009
1316,1787;0,0704272
1317,1429;0,0706023
1318,1072;0,0705224
1319,0714;0,0702052
1320,0356;0,0697101
1320,9999;0,0691269
1321,9641;0,0685459
1322,9283;0,0680311
1323,8926;0,06761
1324,8568;0,0672811
1325,8210;0,0670268
1326,7853;0,0668258
1327,7495;0,0666566
1328,7137;0,0664982
1329,6780;0,0663282
1330,6422;0,0661269
1331,6064;0,0658873
1332,5707;0,0656198
1333,5349;0,0653536
1334,4991;0,0651201
1335,4634;0,0649297
1336,4276;0,064749
1337,3918;0,06449
1338,3561;0,0640363
1339,3203;0,0633191
1340,2845;0,062388
1341,2488;0,0613923
1342,2130;0,060485
1343,1772;0,0597515
1344,1415;0,0592095
1345,1057;0,058841
1346,0699;0,0586184
1347,0342;0,0585157
1347,9984;0,0585139
1348,9626;0,0586032
1349,9269;0,0587803
1350,8911;0,059042
1351,8553;0,0593798
1352,8196;0,0597776
1353,7838;0,0602159
1354,7480;0,0606796
1355,7123;0,061168
1356,6765;0,0616968
1357,6407;0,0622912
1358,6050;0,0629732
1359,5692;0,0637437
1360,5334;0,0645555
1361,4977;0,0653025
1362,4619;0,0658723
1363,4261;0,0662398
1364,3904;0,0664857
1365,3546;0,0667137
1366,3188;0,0669752
1367,2831;0,067262
1368,2473;0,0675348
1369,2115;0,0677541
1370,1758;0,0678977
1371,1400;0,0679568
1372,1042;0,0679177
1373,0685;0,067746
1374,0327;0,0674001
1374,9969;0,0668723
1375,9612;0,0662041
1376,9254;0,0654439
1377,8896;0,0646013
1378,8539;0,0636584
1379,8181;0,0626178
1380,7823;0,0615331
1381,7466;0,0604891
1382,7108;0,0595495
1383,6750;0,0587217
1384,6393;0,0579615
1385,6035;0,0572048
1386,5677;0,0564111
1387,5320;0,055612
1388,4962;0,0549069
1389,4604;0,0543791
1390,4247;0,0540346
1391,3889;0,053838
1392,3531;0,0537724
1393,3174;0,0538443
1394,2816;0,0540371
1395,2458;0,0542755
1396,2101;0,0544556
1397,1743;0,0545174
1398,1385;0,0544858
1399,1028;0,0544471
1400,0670;0,0544902
1401,0313;0,0546582
1401,9955;0,05494
1402,9597;0,0552941
1403,9240;0,0556785
1404,8882;0,0560712
1405,8524;0,056479
1406,8167;0,0569277
1407,7809;0,0574357
1408,7451;0,0579997
1409,7094;0,0586088
1410,6736;0,0592601
1411,6378;0,0599581
1412,6021;0,0606973
1413,5663;0,0614491
1414,5305;0,0621699
1415,4948;0,0628263
1416,4590;0,0634002
1417,4232;0,0638593
1418,3875;0,0641582
1419,3517;0,0643251
1420,3159;0,0644742
1421,2802;0,0646544
1422,2444;0,0647747
1423,2086;0,0647008
1424,1729;0,0643684
1425,1371;0,0638127
1426,1013;0,0631179
1427,0656;0,0623462
1428,0298;0,0615101
1428,9940;0,0606
1429,9583;0,0596332
1430,9225;0,0586602
1431,8867;0,0577088
1432,8510;0,0567393
1433,8152;0,0556742
1434,7794;0,0544677
1435,7437;0,0531708
1436,7079;0,0519723
1437,6721;0,0511317
1438,6364;0,0507693
1439,6006;0,0507654
1440,5648;0,0509028
1441,5291;0,0510398
1442,4933;0,0511588
1443,4575;0,0513167
1444,4218;0,0515697
1445,3860;0,0519268
1446,3502;0,0523549
1447,3145;0,0528164
1448,2787;0,0533032
1449,2429;0,0538318
1450,2072;0,054393
1451,1714;0,0549117
1452,1356;0,0552749
1453,0999;0,0554121
1454,0641;0,0553658
1455,0283;0,0552635
1455,9926;0,0551199
1456,9568;0,0547131
1457,9210;0,0540525
1458,8853;0,0535857
1459,8495;0,0534902
1460,8137;0,0535115
1461,7780;0,0533515
1462,7422;0,0528663
1463,7064;0,0520526
1464,6707;0,0510066
1465,6349;0,0499059
1466,5991;0,0489101
1467,5634;0,0480198
1468,5276;0,0470996
1469,4918;0,0460209
1470,4561;0,0447393
1471,4203;0,0432515
1472,3845;0,0415353
1473,3488;0,0396461
1474,3130;0,0378335
1475,2772;0,0363494
1476,2415;0,0352334
1477,2057;0,0343817
1478,1699;0,0336868
1479,1342;0,0330855
1480,0984;0,0325493
1481,0626;0,0320735
1482,0269;0,0316767
1482,9911;0,0313944
1483,9553;0,0312633
1484,9196;0,0313113
1485,8838;0,0315599
1486,8480;0,0320001
1487,8123;0,0325151
1488,7765;0,0328602
1489,7407;0,0328875
1490,7050;0,0327538
1491,6692;0,0327098
1492,6334;0,0328435
1493,5977;0,0331295
1494,5619;0,0335701
1495,5261;0,0342259
1496,4904;0,0351299
1497,4546;0,0362082
1498,4188;0,0373449
1499,3831;0,0384637
1500,3473;0,0394677
1501,3115;0,0402037
1502,2758;0,0405564
1503,2400;0,0405781
1504,2042;0,0405785
1505,1685;0,0410464
1506,1327;0,0421201
1507,0969;0,0429887
1508,0612;0,0429002
1509,0254;0,0422665
1509,9896;0,0416156
1510,9539;0,0410163
1511,9181;0,0404002
1512,8823;0,0397626
1513,8466;0,0391445
1514,8108;0,0385536
1515,7750;0,0379281
1516,7393;0,0371845
1517,7035;0,0362939
1518,6677;0,03531
1519,6320;0,0343348
1520,5962;0,0334708
1521,5604;0,0327911
1522,5247;0,0323199
1523,4889;0,032011
1524,4531;0,0317656
1525,4174;0,0315015
1526,3816;0,0312108
1527,3458;0,0309466
1528,3101;0,0307564
1529,2743;0,0306444
1530,2385;0,0306033
1531,2028;0,0306569
1532,1670;0,0308407
1533,1312;0,0311375
1534,0955;0,0314574
1535,0597;0,0316817
1536,0239;0,0317211
1536,9882;0,0315983
1537,9524;0,0315372
1538,9166;0,0319076
1539,8809;0,0327964
1540,8451;0,0335806
1541,8093;0,033705
1542,7736;0,0334508
1543,7378;0,0331988
1544,7020;0,0330372
1545,6663;0,0329677
1546,6305;0,0330066
1547,5947;0,0331509
1548,5590;0,0333535
1549,5232;0,0335505
1550,4874;0,0337073
1551,4517;0,0338334
1552,4159;0,0339476
1553,3801;0,0340223
1554,3444;0,033982
1555,3086;0,0337745
1556,2728;0,033441
1557,2371;0,0330355
1558,2013;0,0324542
1559,1655;0,0318429
1560,1298;0,0319238
1561,0940;0,0329123
1562,0582;0,0343021
1563,0225;0,0355798
1563,9867;0,0365128
1564,9509;0,0370973
1565,9152;0,0374585
1566,8794;0,0377677
1567,8436;0,0381683
1568,8079;0,038716
1569,7721;0,0393777
1570,7363;0,0400729
1571,7006;0,0407101
1572,6648;0,0412356
1573,6290;0,0416959
1574,5933;0,0422336
1575,5575;0,0429613
1576,5217;0,0438377
1577,4860;0,0447581
1578,4502;0,0456837
1579,4144;0,0465931
1580,3787;0,0474539
1581,3429;0,0482684
1582,3071;0,0490802
1583,2714;0,0499346
1584,2356;0,0508465
1585,1998;0,0518043
1586,1641;0,0527869
1587,1283;0,0537718
1588,0925;0,0547313
1589,0568;0,0556308
1590,0210;0,0564336
1590,9852;0,0571086
1591,9495;0,0576282
1592,9137;0,0579632
1593,8779;0,0580875
1594,8422;0,0579981
1595,8064;0,057733
1596,7706;0,0573662
1597,7349;0,0569781
1598,6991;0,0566248
1599,6633;0,056325
1600,6276;0,0560664
1601,5918;0,0558274
1602,5560;0,0555981
1603,5203;0,0553887
1604,4845;0,0552153
1605,4487;0,055078
1606,4130;0,0549547
1607,3772;0,0548165
1608,3414;0,0546549
1609,3057;0,0544968
1610,2699;0,05438
1611,2341;0,0543049
1612,1984;0,054223
1613,1626;0,0540897
1614,1268;0,0539242
1615,0911;0,0538076
1616,0553;0,0538256
1617,0195;0,054035
1617,9838;0,0544514
1618,9480;0,0549963
1619,9122;0,055517
1620,8765;0,0558939
1621,8407;0,0560993
1622,8049;0,0561719
1623,7692;0,0561737
1624,7334;0,0561649
1625,6976;0,0561835
1626,6619;0,0562367
1627,6261;0,0563182
1628,5903;0,0564188
1629,5546;0,0565086
1630,5188;0,056524
1631,4830;0,0564014
1632,4473;0,0561513
1633,4115;0,0558982
1634,3757;0,0557925
1635,3400;0,0558179
1636,3042;0,0558253
1637,2684;0,0558222
1638,2327;0,0559047
1639,1969;0,0560387
1640,1611;0,0561116
1641,1254;0,0560464
1642,0896;0,0558397
1643,0538;0,055567
1644,0181;0,0553699
1644,9823;0,0553686
1645,9465;0,055507
1646,9108;0,0555632
1647,8750;0,0553817
1648,8392;0,0549121
1649,8035;0,0541099
1650,7677;0,0529908
1651,7319;0,0516814
1652,6962;0,0503178
1653,6604;0,0491287
1654,6246;0,0485939
1655,5889;0,0487963
1656,5531;0,0492463
1657,5173;0,0494703
1658,4816;0,0492823
1659,4458;0,0487261
1660,4100;0,0479448
1661,3743;0,0470777
1662,3385;0,0462376
1663,3027;0,0455267
1664,2670;0,0449909
1665,2312;0,0445745
1666,1954;0,0441706
1667,1597;0,0436892
1668,1239;0,0430679
1669,0881;0,0422692
1670,0524;0,0413297
1671,0166;0,0403635
1671,9808;0,0394339
1672,9451;0,0384964
1673,9093;0,0375124
1674,8735;0,0365713
1675,8378;0,0358784
1676,8020;0,0355896
1677,7662;0,0356459
1678,7305;0,0357951
1679,6947;0,0357596
1680,6589;0,0353664
1681,6232;0,0345612
1682,5874;0,0333482
1683,5516;0,0318269
1684,5159;0,0303913
1685,4801;0,0295292
1686,4443;0,0292763
1687,4086;0,0292724
1688,3728;0,029166
1689,3370;0,0288017
1690,3013;0,0282007
1691,2655;0,0274784
1692,2297;0,0267759
1693,1940;0,0262222
1694,1582;0,0259042
1695,1224;0,0258126
1696,0867;0,0257912
1697,0509;0,0255754
1698,0151;0,0249773
1698,9794;0,0241035
1699,9436;0,0233555
1700,9078;0,023118
1701,8721;0,0234493
1702,8363;0,0240964
1703,8005;0,0247275
1704,7648;0,0251228
1705,7290;0,0252459
1706,6932;0,0252242
1707,6575;0,0252502
1708,6217;0,0254534
1709,5859;0,0258428
1710,5502;0,0263511
1711,5144;0,0269072
1712,4786;0,0274734
1713,4429;0,028041
1714,4071;0,0285887
1715,3713;0,029011
1716,3356;0,0291144
1717,2998;0,0288626
1718,2640;0,0285858
1719,2283;0,0286433
1720,1925;0,0290556
1721,1567;0,029613
1722,1210;0,0301126
1723,0852;0,0304641
1724,0494;0,0306919
1725,0137;0,0308961
1725,9779;0,0311901
1726,9421;0,0316319
1727,9064;0,0321865
1728,8706;0,0327402
1729,8348;0,0331539
1730,7991;0,0333138
1731,7633;0,0331555
1732,7275;0,0326841
1733,6918;0,0320485
1734,6560;0,0315382
1735,6202;0,0313333
1736,5845;0,0313306
1737,5487;0,0312989
1738,5129;0,0310905
1739,4772;0,0307115
1740,4414;0,0302745
1741,4056;0,0298981
1742,3699;0,0296208
1743,3341;0,0293893
1744,2983;0,0291162
1745,2626;0,0287379
1746,2268;0,0282203
1747,1910;0,0275155
1748,1553;0,0265285
1749,1195;0,025181
1750,0837;0,0235666
1751,0480;0,0219769
1752,0122;0,0206824
1752,9764;0,0197421
1753,9407;0,0190421
1754,9049;0,0184354
1755,8691;0,0178312
1756,8334;0,0172087
1757,7976;0,0165831
1758,7618;0,0159611
1759,7261;0,015325
1760,6903;0,0146572
1761,6545;0,0139807
1762,6188;0,0133655
1763,5830;0,0128818
1764,5472;0,012545
1765,5115;0,0123132
1766,4757;0,012128
1767,4399;0,0119511
1768,4042;0,0117707
1769,3684;0,0115819
1770,3326;0,011362
1771,2969;0,0110742
1772,2611;0,0107239
1773,2253;0,0104019
1774,1896;0,0102144
1775,1538;0,0101752
1776,1180;0,0102077
1777,0823;0,0102234
1778,0465;0,0101764
1779,0107;0,0100635
1779,9750;0,00989818
1780,9392;0,00969285
1781,9034;0,00945949
1782,8677;0,00922073
1783,8319;0,00901722
1784,7961;0,008898
1785,7604;0,00889201
1786,7246;0,00898331
1787,6888;0,00911862
1788,6531;0,00924458
1789,6173;0,00933808
1790,5815;0,0093974
1791,5458;0,00941344
1792,5100;0,00938414
1793,4742;0,0093522
1794,4385;0,0093635
1795,4027;0,0094019
1796,3669;0,00941191
1797,3312;0,00936116
1798,2954;0,00926097
1799,2596;0,00913931
1800,2239;0,00900778
1801,1881;0,00886077
1802,1523;0,00869939
1803,1166;0,00854398
1804,0808;0,00842541
1805,0450;0,00837111
1806,0093;0,00839433
1806,9735;0,00848618
1807,9377;0,0086113
1808,9020;0,00871263
1809,8662;0,00873253
1810,8304;0,00864526
1811,7947;0,00847353
1812,7589;0,00826838
1813,7231;0,00807403
1814,6874;0,0079126
1815,6516;0,00779124
1816,6158;0,00771239
1817,5801;0,00767762
1818,5443;0,00768751
1819,5085;0,00773987
1820,4728;0,00782753
1821,4370;0,00793907
1822,4012;0,00806043
1823,3655;0,00817529
1824,3297;0,00826866
1825,2939;0,00833458
1826,2582;0,00837613
1827,2224;0,00839202
1828,1866;0,00836406
1829,1509;0,00826484
1830,1151;0,00809169
1831,0793;0,0078926
1832,0436;0,00773579
1833,0078;0,00765445
1833,9720;0,00763709
1834,9363;0,00765867
1835,9005;0,00770233
1836,8647;0,00775814
1837,8290;0,00781382
1838,7932;0,00785101
1839,7574;0,007851
1840,7217;0,00781158
1841,6859;0,00775903
1842,6501;0,00773111
1843,6144;0,00773946
1844,5786;0,00776189
1845,5428;0,00777534
1846,5071;0,00776687
1847,4713;0,00771672
1848,4355;0,00760556
1849,3998;0,00743909
1850,3640;0,00725352
1851,3282;0,00709588
1852,2925;0,0069973
1853,2567;0,00696186
1854,2209;0,00697482
1855,1852;0,00701819
1856,1494;0,00707819
1857,1136;0,00714361
1858,0779;0,00719989
1859,0421;0,00723178
1860,0063;0,00723491
1860,9706;0,00722599
1861,9348;0,00723888
1862,8990;0,0073072
1863,8633;0,00744711
1864,8275;0,00765176
1865,7917;0,00788976
1866,7560;0,00809744
1867,7202;0,00818415
1868,6844;0,00808791
1869,6487;0,00784297
1870,6129;0,00755417
1871,5771;0,00730119
1872,5414;0,00709909
1873,5056;0,00693205
1874,4698;0,00679297
1875,4341;0,00669087
1876,3983;0,0066374
1877,3625;0,00663146
1878,3268;0,00665885
1879,2910;0,00670221
1880,2552;0,00675272
1881,2195;0,00681233
1882,1837;0,00688563
1883,1479;0,00696909
1884,1122;0,00704761
1885,0764;0,00710135
1886,0406;0,00711684
1887,0049;0,00709356
1887,9691;0,00704225
1888,9333;0,00697975
1889,8976;0,00692567
1890,8618;0,00689819
1891,8260;0,00690547
1892,7903;0,00693894
1893,7545;0,0069748
1894,7188;0,00698256
1895,6830;0,00693871
1896,6472;0,00684161
1897,6115;0,0067161
1898,5757;0,00660016
1899,5399;0,00652302
1900,5042;0,00649094
1901,4684;0,00648819
1902,4326;0,00649163
1903,3969;0,00648926
1904,3611;0,00648942
1905,3253;0,00651289
1906,2896;0,00657404
1907,2538;0,00666476
1908,2180;0,00675275
1909,1823;0,00679793
1910,1465;0,00677759
1911,1107;0,00669882
1912,0750;0,00658731
1913,0392;0,00646777
1914,0034;0,00635735
1914,9677;0,00627238
1915,9319;0,00623366
1916,8961;0,00626096
1917,8604;0,00636062
1918,8246;0,00651517
1919,7888;0,00668141
1920,7531;0,00680014
1921,7173;0,00681617
1922,6815;0,0067014
1923,6458;0,00647124
1924,6100;0,00618302
1925,5742;0,00591211
1926,5385;0,00572073
1927,5027;0,00564079
1928,4669;0,00567351
1929,4312;0,00579333
1930,3954;0,00595282
1931,3596;0,00609415
1932,3239;0,00616593
1933,2881;0,00614095
1934,2523;0,00602574
1935,2166;0,00585793
1936,1808;0,005692
1937,1450;0,00557972
1938,1093;0,00555488
1939,0735;0,00562695
1940,0377;0,00577841
1941,0020;0,00596109
1941,9662;0,00610134
1942,9304;0,00612853
1943,8947;0,00601519
1944,8589;0,00579261
1945,8231;0,00552774
1946,7874;0,00528557
1947,7516;0,00510249
1948,7158;0,00497883
1949,6801;0,00489019
1950,6443;0,00481158
1951,6085;0,00473857
1952,5728;0,004688
1953,5370;0,00467537
1954,5012;0,0046861
1955,4655;0,00466564
1956,4297;0,00454211
1957,3939;0,00427112
1958,3582;0,00387514
1959,3224;0,00344952
1960,2866;0,00312484
1961,2509;0,00300267
1962,2151;0,00310297
1963,1793;0,00335439
1964,1436;0,00362573
1965,1078;0,00377471
1966,0720;0,00369553
1967,0363;0,00335614
1968,0005;0,0028121
1968,9647;0,0021846
1969,9290;0,00161207
1970,8932;0,00120431
1971,8574;0,00101801
1972,8217;0,00105381
1973,7859;0,00126878
1974,7501;0,00159911
1975,7144;0,00198957
1976,6786;0,00240932
1977,6428;0,00284403
1978,6071;0,00327179
1979,5713;0,00364769
1980,5355;0,00391264
1981,4998;0,00401882
1982,4640;0,00395459
1983,4282;0,0037559
1984,3925;0,00349969
1985,3567;0,0032803
1986,3209;0,00317811
1987,2852;0,00323526
1988,2494;0,00344859
1989,2136;0,003778
1990,1779;0,0041623
1991,1421;0,00453731
1992,1063;0,00485338
1993,0706;0,0050854
1994,0348;0,00522877
1994,9990;0,00528683
1995,9633;0,00526303
1996,9275;0,00516476
1997,8917;0,00501238
1998,8560;0,0048413
1999,8202;0,00468909
2000,7844;0,00457285
2001,7487;0,00447425
2002,7129;0,00434833
2003,6771;0,00415584
2004,6414;0,00390112
2005,6056;0,00364762
2006,5698;0,00349277
2007,5341;0,00350766
2008,4983;0,0036828
2009,4625;0,00392316
2010,4268;0,00409795
2011,3910;0,00411026
2012,3552;0,0039435
2013,3195;0,00366521
2014,2837;0,00339311
2015,2479;0,00324141
2016,2122;0,00327042
2017,1764;0,00346317
2018,1406;0,00374238
2019,1049;0,00401621
2020,0691;0,00422157
2021,0333;0,00433922
2021,9976;0,00437872
2022,9618;0,00435036
2023,9260;0,00424629
2024,8903;0,00404457
2025,8545;0,00373381
2026,8187;0,00334038
2027,7830;0,00293754
2028,7472;0,0026278
2029,7114;0,00250711
2030,6757;0,00262879
2031,6399;0,00298389
2032,6041;0,00350417
2033,5684;0,00408642
2034,5326;0,0046277
2035,4968;0,00505872
2036,4611;0,00536015
2037,4253;0,0055588
2038,3895;0,0057044
2039,3538;0,00583965
2040,3180;0,0059765
2041,2822;0,00609041
2042,2465;0,00613895
2043,2107;0,00609627
2044,1749;0,00598324
2045,1392;0,00587204
2046,1034;0,00585696
2047,0676;0,00600154
2048,0320;0,00629288
2048,9961;0,00664083
2049,9604;0,00692916
2050,9246;0,0070813
2051,8889;0,00709565
2052,8530;0,00703648
2053,8174;0,00699375
2054,7815;0,00703324
2055,7458;0,00716376
2056,7100;0,00733709
2057,6743;0,00748194
2058,6384;0,00754891
2059,6028;0,00753762
2060,5669;0,00749193
2061,5313;0,00747001
2062,4954;0,00750918
2063,4597;0,00760592
2064,4238;0,00772071
2065,3882;0,00780301
2066,3523;0,0078197
2067,3167;0,00777041
2068,2808;0,00768343
2069,2451;0,00759843
2070,2092;0,00754792
2071,1736;0,007546
2072,1377;0,00758636
2073,1021;0,00764922
2074,0662;0,00771031
2075,0305;0,00774876
2075,9946;0,00775198
2076,9590;0,00771863
2077,9231;0,00766002
2078,8875;0,00759863
2079,8516;0,00756234
2080,8159;0,00757482
2081,7800;0,00764586
2082,7444;0,00776707
2083,7085;0,0079157
2084,6729;0,0080642
2085,6370;0,00819079
2086,6013;0,0082842
2087,5654;0,00834246
2088,5298;0,00836849
2089,4939;0,00836763
2090,4583;0,00834863
2091,4224;0,00832546
2092,3867;0,00831492
2093,3508;0,00832843
2094,3152;0,00836194
2095,2793;0,00839294
2096,2437;0,0083909
2097,2078;0,00833757
2098,1721;0,00824366
2099,1362;0,00814795
2100,1006;0,00809894
2101,0647;0,00812098
2102,0291;0,0082087
2102,9932;0,00832348
2103,9575;0,00841815
2104,9216;0,00846277
2105,8860;0,00845714
2106,8501;0,00842363
2107,8145;0,00838852
2108,7786;0,00836641
2109,7429;0,00835785
2110,7070;0,008358
2111,6714;0,00836578
2112,6355;0,00838417
2113,5999;0,0084121
2114,5640;0,00843723
2115,5283;0,00843887
2116,4924;0,00840212
2117,4568;0,00833332
2118,4209;0,00826403
2119,3853;0,00823677
2120,3494;0,00827876
2121,3137;0,00837986
2122,2778;0,00849096
2123,2422;0,0085474
2124,2063;0,00850512
2125,1707;0,00836782
2126,1348;0,008187
2127,0991;0,00803341
2128,0632;0,00795672
2129,0276;0,00795857
2129,9917;0,00799533
2130,9561;0,00800768
2131,9202;0,00795673
2132,8845;0,00784352
2133,8486;0,00770079
2134,8130;0,00756551
2135,7771;0,00745542
2136,7415;0,00736823
2137,7056;0,00729992
2138,6699;0,00726022
2139,6340;0,00726768
2140,5984;0,00732875
2141,5625;0,00742211
2142,5269;0,00750564
2143,4910;0,0075432
2144,4553;0,00752953
2145,4194;0,00749255
2146,3838;0,00747162
2147,3479;0,00749108
2148,3123;0,00754972
2149,2764;0,00762951
2150,2407;0,00770748
2151,2048;0,0077554
2152,1692;0,00773031
2153,1333;0,0075753
2154,0977;0,00724586
2155,0618;0,00675514
2156,0261;0,00620828
2156,9902;0,00578565
2157,9546;0,005653
2158,9187;0,00584283
2159,8831;0,00621789
2160,8472;0,00657269
2161,8115;0,00677709
2162,7756;0,00683394
2163,7400;0,00683415
2164,7041;0,00687279
2165,6685;0,0069855
2166,6326;0,00713299
2167,5969;0,00723153
2168,5610;0,00720491
2169,5254;0,00702773
2170,4895;0,00674204
2171,4539;0,00644521
2172,4180;0,00625475
2173,3823;0,0062606
2174,3464;0,0064819
2175,3108;0,0068514
2176,2749;0,00724143
2177,2393;0,00752115
2178,2034;0,00761291
2179,1677;0,0075179
2180,1318;0,00730287
2181,0962;0,00706164
2182,0603;0,00687405
2183,0247;0,00678212
2183,9888;0,00678921
2184,9531;0,00687271
2185,9172;0,00699605
2186,8816;0,00711571
2187,8457;0,00718957
2188,8101;0,00719243
2189,7742;0,00713322
2190,7385;0,00705952
2191,7026;0,0070389
2192,6670;0,00712305
2193,6311;0,00731542
2194,5955;0,00756396
2195,5596;0,0077854
2196,5239;0,00790693
2197,4880;0,00790051
2198,4524;0,00779153
2199,4165;0,00764139
2200,3809;0,00751823
2201,3450;0,00747246
2202,3093;0,00752447
2203,2734;0,00766235
2204,2378;0,00784522
2205,2019;0,00801207
2206,1663;0,00809944
2207,1304;0,00806601
2208,0947;0,00791425
2209,0588;0,00769496
2210,0232;0,00748834
2210,9873;0,00736918
2211,9517;0,00737477
2212,9158;0,00749222
2213,8801;0,00766923
2214,8442;0,007839
2215,8086;0,00794466
2216,7727;0,00795463
2217,7371;0,00786819
2218,7012;0,0077144
2219,6655;0,00754511
2220,6296;0,00742055
2221,5940;0,00738865
2222,5581;0,00746548
2223,5225;0,0076276
2224,4866;0,00782191
2225,4509;0,00798866
2226,4150;0,00808453
2227,3794;0,0080942
2228,3435;0,00803072
2229,3079;0,00792607
2230,2720;0,00782217
2231,2363;0,00776223
2232,2004;0,00777911
2233,1648;0,00788029
2234,1289;0,00803745
2235,0933;0,00819234
2236,0574;0,00828271
2237,0217;0,00827608
2237,9858;0,00818917
2238,9502;0,00807754
2239,9143;0,00800056
2240,8787;0,0079856
2241,8428;0,00801669
2242,8071;0,00805449
2243,7712;0,00807027
2244,7356;0,00806672
2245,6997;0,00807067
2246,6641;0,00810644
2247,6282;0,00817406
2248,5925;0,00825054
2249,5566;0,00831161
2250,5210;0,00835393
2251,4851;0,00839843
2252,4495;0,00847217
2253,4136;0,00858423
2254,3779;0,00871535
2255,3420;0,00882903
2256,3064;0,00889458
2257,2705;0,00890421
2258,2349;0,00887366
2259,1990;0,00882992
2260,1633;0,00879718
2261,1274;0,0087894
2262,0918;0,00880958
2263,0559;0,0088516
2264,0203;0,0089018
2264,9844;0,00894148
2265,9487;0,00895287
2266,9128;0,00892747
2267,8772;0,00887192
2268,8413;0,00880657
2269,8057;0,0087567
2270,7698;0,00874116
2271,7341;0,00876469
2272,6982;0,00881695
2273,6626;0,00887698
2274,6267;0,00892064
2275,5911;0,00892854
2276,5552;0,00889318
2277,5195;0,00882367
2278,4836;0,00874524
2279,4480;0,00869212
2280,4121;0,00869565
2281,3765;0,00877334
2282,3406;0,00892453
2283,3049;0,00913405
2284,2690;0,00938035
2285,2334;0,00964276
2286,1975;0,00990479
2287,1619;0,0101545
2288,1260;0,010385
2289,0903;0,0105958
2290,0544;0,0107946
2291,0188;0,0109953
2291,9829;0,0112123
2292,9473;0,0114536
2293,9114;0,0117165
2294,8757;0,0119895
2295,8398;0,0122579
2296,8042;0,0125105
2297,7683;0,012742
2298,7327;0,0129516
2299,6968;0,0131398
2300,6611;0,0133077
2301,6252;0,0134593
2302,5896;0,0136047
2303,5537;0,0137613
2304,5181;0,0139485
2305,4822;0,0141791
2306,4465;0,014448
2307,4106;0,0147262
2308,3750;0,0149642
2309,3391;0,0151054
2310,3035;0,0151085
2311,2676;0,0149673
2312,2319;0,0147188
2313,1960;0,0144312
2314,1604;0,0141749
2315,1245;0,0139944
2316,0889;0,0138965
2317,0530;0,0138592
2318,0173;0,0138516
2318,9814;0,0138532
2319,9458;0,013863
2320,9099;0,0138965
2321,8743;0,0139724
2322,8384;0,0140938
2323,8027;0,0142337
2324,7668;0,0143359
2325,7312;0,0143359
2326,6953;0,0141902
2327,6597;0,0138961
2328,6238;0,0134937
2329,5881;0,0130512
2330,5522;0,0126421
2331,5166;0,0123216
2332,4807;0,0121072
2333,4451;0,0119784
2334,4092;0,0118967
2335,3735;0,011837
2336,3376;0,0118063
2337,3020;0,0118408
2338,2661;0,0119804
2339,2305;0,0122365
2340,1946;0,0125657
2341,1589;0,0128645
2342,1230;0,0130042
2343,0874;0,0129409
2344,0515;0,0128503
2345,0159;0,0130631
2345,9800;0,0137469
2346,9443;0,0147183
2347,9084;0,0155926
2348,8728;0,0160425
2349,8369;0,0159532
2350,8013;0,0154471
2351,7654;0,0148059
2352,7297;0,0143148
2353,6938;0,0141027
2354,6582;0,0141087
2355,6223;0,0141955
2356,5867;0,0142523
2357,5508;0,0142037
2358,5151;0,0140074
2359,4792;0,0136932
2360,4436;0,0133735
2361,4077;0,0131662
2362,3721;0,0130934
2363,3362;0,0130623
2364,3005;0,0129422
2365,2646;0,0126595
2366,2290;0,0122324
2367,1931;0,0117385
2368,1575;0,0112611
2369,1216;0,010859
2370,0859;0,0105616
2371,0500;0,0103759
2372,0144;0,0102949
2372,9785;0,0103067
2373,9429;0,0104015
2374,9070;0,0105741
2375,8713;0,0108189
2376,8354;0,0111209
2377,7998;0,0114492
2378,7639;0,0117558
2379,7283;0,011984
2380,6924;0,0120821
2381,6567;0,0120182
2382,6208;0,0117905
2383,5852;0,0114289
2384,5493;0,0109872
2385,5137;0,0105286
2386,4778;0,0101092
2387,4421;0,00976574
2388,4063;0,00951108
2389,3706;0,00933884
2390,3347;0,00923288
2391,2991;0,00917664
2392,2632;0,00915807
2393,2275;0,00916935
2394,1917;0,00920356
2395,1560;0,00925166
2396,1201;0,00930201
2397,0845;0,00934258
2398,0486;0,00936576
2399,0129;0,0093685
2399,9771;0,00935376
2400,9414;0,00932961
2401,9055;0,00930515
2402,8699;0,00928872
2403,8340;0,00928616
2404,7983;0,00930095
2405,7625;0,00933471
2406,7268;0,00938619
2407,6909;0,00945037
2408,6553;0,00951731
2409,6194;0,00957293
2410,5837;0,00960426
2411,5479;0,00960514
2412,5122;0,00957981
2413,4763;0,00954139
2414,4407;0,00950614
2415,4048;0,00948659
2416,3691;0,00948801
2417,3333;0,00950939
2418,2976;0,00954655
2419,2617;0,00959428
2420,2261;0,00964599
2421,1902;0,00969247
2422,1545;0,00972439
2423,1187;0,00973653
2424,0830;0,00973192
2425,0471;0,00972155
2426,0115;0,00971892
2426,9756;0,00973303
2427,9399;0,00976491
2428,9041;0,00981
2429,8684;0,00986356
2430,8325;0,00992403
2431,7969;0,00999157
2432,7610;0,0100635
2433,7253;0,0101314
2434,6895;0,0101837
2435,6538;0,0102111
2436,6179;0,0102123
2437,5823;0,0101946
2438,5464;0,0101708
2439,5107;0,0101544
2440,4749;0,0101562
2441,4392;0,0101823
2442,4033;0,0102333
2443,3677;0,0103025
2444,3318;0,0103762
2445,2961;0,0104377
2446,2603;0,0104741
2447,2246;0,0104833
2448,1887;0,0104747
2449,1531;0,0104636
2450,1172;0,010462
2451,0815;0,0104727
2452,0457;0,01049
2453,0100;0,0105071
2453,9741;0,0105226
2454,9385;0,0105424
2455,9026;0,0105746
2456,8669;0,0106227
2457,8311;0,0106816
2458,7954;0,010739
2459,7595;0,0107817
2460,7239;0,0108013
2461,6880;0,0107978
2462,6523;0,0107788
2463,6165;0,0107572
2464,5808;0,0107461
2465,5449;0,0107549
2466,5093;0,0107857
2467,4734;0,0108316
2468,4377;0,0108796
2469,4019;0,0109155
2470,3662;0,0109308
2471,3303;0,0109261
2472,2947;0,0109106
2473,2588;0,0108969
2474,2231;0,010897
2475,1873;0,0109185
2476,1516;0,0109631
2477,1157;0,0110263
2478,0801;0,0110965
2479,0442;0,0111562
2480,0085;0,0111877
2480,9727;0,0111813
2481,9370;0,0111424
2482,9011;0,011092
2483,8655;0,0110581
2484,8296;0,0110625
2485,7939;0,0111104
2486,7581;0,0111907
2487,7224;0,0112832
2488,6865;0,0113695
2489,6509;0,011439
2490,6150;0,0114872
2491,5793;0,0115112
2492,5435;0,0115072
2493,5078;0,0114728
2494,4719;0,0114124
2495,4363;0,01134
2496,4004;0,0112758
2497,3647;0,0112394
2498,3289;0,0112424
2499,2932;0,0112848
2500,2573;0,0113554
2501,2217;0,0114364
2502,1858;0,0115079
2503,1501;0,0115536
2504,1143;0,0115654
2505,0786;0,0115479
2506,0427;0,0115183
2507,0071;0,0115007
2507,9712;0,0115159
2508,9355;0,0115713
2509,8997;0,0116564
2510,8640;0,0117465
2511,8281;0,0118149
2512,7925;0,0118444
2513,7566;0,0118347
2514,7209;0,0117996
2515,6851;0,011759
2516,6494;0,0117288
2517,6135;0,0117158
2518,5779;0,0117183
2519,5420;0,0117304
2520,5063;0,0117471
2521,4705;0,0117662
2522,4348;0,0117865
2523,3989;0,0118066
2524,3633;0,0118236
2525,3274;0,011835
2526,2917;0,01184
2527,2559;0,0118399
2528,2202;0,0118367
2529,1843;0,0118304
2530,1487;0,0118196
2531,1128;0,0118024
2532,0771;0,0117808
2533,0413;0,0117616
2534,0056;0,0117551
2534,9697;0,0117701
2535,9341;0,0118092
2536,8982;0,0118661
2537,8625;0,0119281
2538,8267;0,0119811
2539,7910;0,0120146
2540,7551;0,0120255
2541,7195;0,0120176
2542,6836;0,0119994
2543,6479;0,0119801
2544,6121;0,0119674
2545,5764;0,0119656
2546,5405;0,0119764
2547,5049;0,0119987
2548,4690;0,0120301
2549,4333;0,0120663
2550,3975;0,0121019
2551,3618;0,0121309
2552,3259;0,0121478
2553,2903;0,0121489
2554,2544;0,0121343
2555,2188;0,0121079
2556,1829;0,0120771
2557,1472;0,0120511
2558,1113;0,0120388
2559,0757;0,0120453
2560,0398;0,0120697
2561,0042;0,0121047
2561,9683;0,0121391
2562,9326;0,0121633
2563,8967;0,0121738
2564,8611;0,0121753
2565,8252;0,012177
2566,7896;0,012187
2567,7537;0,0122069
2568,7180;0,0122322
2569,6821;0,0122566
2570,6465;0,0122773
2571,6106;0,0122967
2572,5750;0,0123189
2573,5391;0,0123441
2574,5034;0,0123663
2575,4675;0,0123772
2576,4319;0,0123728
2577,3960;0,0123591
2578,3604;0,0123496
2579,3245;0,0123578
2580,2888;0,012388
2581,2529;0,0124327
2582,2173;0,0124774
2583,1814;0,0125093
2584,1458;0,0125245
2585,1099;0,0125288
2586,0742;0,0125327
2587,0383;0,0125446
2588,0027;0,0125667
2588,9668;0,0125957
2589,9312;0,0126253
2590,8953;0,0126499
2591,8596;0,0126663
2592,8237;0,0126741
2593,7881;0,0126754
2594,7522;0,0126746
2595,7166;0,0126771
2596,6807;0,0126884
2597,6450;0,0127118
2598,6091;0,0127484
2599,5735;0,0127966
2600,5376;0,0128526
2601,5020;0,0129116
2602,4661;0,0129675
2603,4304;0,0130151
2604,3945;0,0130506
2605,3589;0,0130742
2606,3230;0,0130903
2607,2874;0,0131061
2608,2515;0,0131286
2609,2158;0,0131611
2610,1799;0,0132021
2611,1443;0,0132457
2612,1084;0,0132846
2613,0728;0,0133139
2614,0369;0,0133336
2615,0012;0,0133481
2615,9653;0,0133646
2616,9297;0,0133895
2617,8938;0,0134258
2618,8582;0,0134718
2619,8223;0,0135221
2620,7866;0,01357
2621,7507;0,0136102
2622,7151;0,0136404
2623,6792;0,0136616
2624,6436;0,0136778
2625,6077;0,0136944
2626,5720;0,0137177
2627,5361;0,0137521
2628,5005;0,0137982
2629,4646;0,0138519
2630,4290;0,0139053
2631,3931;0,0139502
2632,3574;0,0139818
2633,3215;0,0140015
2634,2859;0,0140162
2635,2500;0,0140342
2636,2144;0,0140621
2637,1785;0,0141018
2638,1428;0,0141508
2639,1069;0,0142045
2640,0713;0,014258
2641,0354;0,014307
2641,9998;0,0143492
2642,9639;0,014384
2643,9282;0,0144127
2644,8923;0,0144386
2645,8567;0,0144656
2646,8208;0,0144966
2647,7852;0,0145319
2648,7493;0,0145689
2649,7136;0,014604
2650,6777;0,0146344
2651,6421;0,01466
2652,6062;0,0146839
2653,5706;0,0147108
2654,5347;0,0147449
2655,4990;0,0147874
2656,4631;0,0148356
2657,4275;0,0148845
2658,3916;0,0149286
2659,3560;0,0149652
2660,3201;0,0149951
2661,2844;0,0150221
2662,2485;0,0150504
2663,2129;0,0150817
2664,1770;0,0151148
2665,1414;0,0151461
2666,1055;0,015173
2667,0698;0,015196
2668,0339;0,0152184
2668,9983;0,0152446
2669,9624;0,0152771
2670,9268;0,015314
2671,8909;0,0153505
2672,8552;0,0153816
2673,8193;0,0154055
2674,7837;0,0154251
2675,7478;0,0154463
2676,7122;0,0154741
2677,6763;0,0155094
2678,6406;0,0155488
2679,6047;0,0155871
2680,5691;0,0156208
2681,5332;0,0156509
2682,4976;0,0156812
2683,4617;0,0157162
2684,4260;0,0157572
2685,3901;0,0158019
2686,3545;0,0158463
2687,3186;0,0158872
2688,2830;0,0159247
2689,2471;0,0159609
2690,2114;0,0159986
2691,1755;0,0160387
2692,1399;0,0160803
2693,1040;0,0161215
2694,0684;0,0161608
2695,0325;0,0161977
2695,9968;0,0162327
2696,9609;0,0162657
2697,9253;0,0162968
2698,8894;0,0163265
2699,8538;0,0163572
2700,8179;0,0163928
2701,7822;0,0164373
2702,7463;0,0164923
2703,7107;0,0165545
2704,6748;0,0166172
2705,6392;0,0166732
2706,6033;0,0167194
2707,5676;0,0167583
2708,5317;0,0167968
2709,4961;0,0168412
2710,4602;0,0168928
2711,4246;0,0169469
2712,3887;0,0169963
2713,3530;0,0170363
2714,3171;0,0170674
2715,2815;0,017095
2716,2456;0,0171253
2717,2100;0,0171616
2718,1741;0,0172024
2719,1384;0,017244
2720,1025;0,0172827
2721,0669;0,0173169
2722,0310;0,0173466
2722,9954;0,0173725
2723,9595;0,0173955
2724,9238;0,0174171
2725,8879;0,0174408
2726,8523;0,0174712
2727,8164;0,0175122
2728,7808;0,0175641
2729,7449;0,0176231
2730,7092;0,0176828
2731,6733;0,0177366
2732,6377;0,0177811
2733,6018;0,0178166
2734,5662;0,017846
2735,5303;0,0178725
2736,4946;0,0178976
2737,4587;0,0179209
2738,4231;0,0179416
2739,3872;0,0179602
2740,3516;0,0179795
2741,3157;0,0180041
2742,2800;0,0180377
2743,2441;0,0180805
2744,2085;0,018128
2745,1726;0,0181722
2746,1370;0,0182058
2747,1011;0,0182264
2748,0654;0,0182383
2749,0295;0,0182507
2749,9939;0,0182728
2750,9580;0,0183086
2751,9224;0,0183553
2752,8865;0,0184053
2753,8508;0,0184514
2754,8149;0,0184901
2755,7793;0,0185231
2756,7434;0,0185548
2757,7078;0,0185886
2758,6719;0,0186256
2759,6362;0,0186643
2760,6003;0,0187031
2761,5647;0,0187417
2762,5288;0,0187809
2763,4932;0,0188216
2764,4573;0,018864
2765,4216;0,0189081
2766,3857;0,0189543
2767,3501;0,0190044
2768,3142;0,0190601
2769,2786;0,0191215
2770,2427;0,0191854
2771,2070;0,0192465
2772,1711;0,0192996
2773,1355;0,0193431
2774,0996;0,0193796
2775,0640;0,0194147
2776,0281;0,0194539
2776,9924;0,0195
2777,9565;0,019553
2778,9209;0,0196115
2779,8850;0,0196747
2780,8494;0,0197435
2781,8135;0,0198187
2782,7778;0,0198998
2783,7419;0,0199834
2784,7063;0,0200639
2785,6704;0,0201358
2786,6348;0,0201962
2787,5989;0,0202472
2788,5632;0,0202949
2789,5273;0,0203478
2790,4917;0,0204128
2791,4558;0,0204932
2792,4202;0,0205871
2793,3843;0,0206885
2794,3486;0,02079
2795,3127;0,0208857
2796,2771;0,0209738
2797,2412;0,0210565
2798,2056;0,0211388
2799,1697;0,021226
2800,1340;0,0213216
2801,0981;0,0214263
2802,0625;0,0215381
2803,0266;0,0216539
2803,9910;0,0217702
2804,9551;0,0218845
2805,9194;0,021996
2806,8835;0,0221052
2807,8479;0,0222143
2808,8120;0,0223259
2809,7764;0,0224427
2810,7405;0,0225664
2811,7048;0,0226981
2812,6689;0,022839
2813,6333;0,0229902
2814,5974;0,0231519
2815,5618;0,0233221
2816,5259;0,0234961
2817,4902;0,0236682
2818,4543;0,0238342
2819,4187;0,023994
2820,3828;0,0241518
2821,3472;0,0243135
2822,3113;0,0244836
2823,2756;0,0246629
2824,2397;0,0248502
2825,2041;0,0250444
2826,1682;0,0252468
2827,1326;0,0254611
2828,0967;0,0256905
2829,0610;0,0259361
2830,0251;0,0261967
2830,9895;0,0264696
2831,9536;0,0267529
2832,9180;0,027045
2833,8821;0,0273444
2834,8464;0,0276487
2835,8105;0,0279567
2836,7749;0,0282703
2837,7390;0,0285968
2838,7034;0,0289473
2839,6675;0,0293336
2840,6318;0,029764
2841,5959;0,0302409
2842,5603;0,0307612
2843,5244;0,0313169
2844,4888;0,031895
2845,4529;0,0324757
2846,4172;0,0330317
2847,3813;0,0335298
2848,3457;0,0339388
2849,3098;0,0342383
2850,2742;0,0344261
2851,2383;0,0345195
2852,2026;0,0345479
2853,1667;0,0345425
2854,1311;0,0345264
2855,0952;0,0345104
2856,0596;0,0344967
2857,0237;0,0344849
2857,9880;0,0344785
2858,9521;0,0344853
2859,9165;0,0345147
2860,8806;0,0345732
2861,8450;0,0346623
2862,8091;0,0347802
2863,7734;0,0349247
2864,7375;0,0350957
2865,7019;0,0352929
2866,6660;0,0355124
2867,6304;0,0357432
2868,5945;0,0359682
2869,5588;0,0361697
2870,5229;0,0363361
2871,4873;0,0364665
2872,4514;0,0365699
2873,4158;0,0366605
2874,3799;0,0367509
2875,3442;0,0368474
2876,3083;0,0369495
2877,2727;0,0370532
2878,2368;0,0371545
2879,2012;0,0372529
2880,1653;0,0373508
2881,1296;0,0374516
2882,0938;0,0375572
2883,0581;0,037666
2884,0222;0,0377741
2884,9866;0,0378774
2885,9507;0,0379749
2886,9150;0,0380696
2887,8792;0,0381674
2888,8435;0,0382742
2889,8076;0,0383921
2890,7720;0,0385188
2891,7361;0,0386484
2892,7004;0,0387755
2893,6646;0,0388975
2894,6289;0,0390156
2895,5930;0,0391328
2896,5574;0,0392507
2897,5215;0,0393677
2898,4858;0,0394789
2899,4500;0,0395792
2900,4143;0,0396666
2901,3784;0,0397439
2902,3428;0,0398187
2903,3069;0,0399009
2904,2712;0,0399999
2905,2354;0,0401218
2906,1997;0,0402684
2907,1638;0,040439
2908,1282;0,0406327
2909,0923;0,0408511
2910,0566;0,0410981
2911,0208;0,0413762
2911,9851;0,0416815
2912,9492;0,0419995
2913,9136;0,0423055
2914,8777;0,0425705
2915,8420;0,0427693
2916,8062;0,0428877
2917,7705;0,0429248
2918,7346;0,0428897
2919,6990;0,0427953
2920,6631;0,0426534
2921,6274;0,0424729
2922,5916;0,0422608
2923,5559;0,0420229
2924,5200;0,0417646
2925,4844;0,0414906
2926,4485;0,041205
2927,4128;0,040912
2928,3770;0,0406169
2929,3413;0,0403262
2930,3054;0,0400446
2931,2698;0,0397732
2932,2339;0,0395074
2933,1982;0,0392395
2934,1624;0,0389621
2935,1267;0,0386721
2936,0908;0,0383717
2937,0552;0,038067
2938,0193;0,037763
2938,9836;0,0374614
2939,9478;0,0371588
2940,9121;0,0368493
2941,8762;0,0365274
2942,8406;0,0361914
2943,8047;0,0358444
2944,7690;0,0354938
2945,7332;0,0351492
2946,6975;0,0348198
2947,6616;0,0345122
2948,6260;0,0342286
2949,5901;0,0339663
2950,5544;0,0337185
2951,5186;0,0334766
2952,4829;0,033233
2953,4470;0,0329841
2954,4114;0,0327316
2955,3755;0,0324809
2956,3398;0,0322385
2957,3040;0,0320088
2958,2683;0,0317937
2959,2324;0,0315928
2960,1968;0,0314047
2961,1609;0,031227
2962,1252;0,0310558
2963,0894;0,0308848
2964,0537;0,030706
2965,0178;0,0305134
2965,9822;0,0303059
2966,9463;0,0300888
2967,9106;0,0298712
2968,8748;0,0296614
2969,8391;0,0294625
2970,8032;0,0292719
2971,7676;0,0290837
2972,7317;0,0288935
2973,6960;0,0287011
2974,6602;0,0285107
2975,6245;0,0283281
2976,5886;0,0281572
2977,5530;0,0279974
2978,5171;0,0278448
2979,4814;0,0276939
2980,4456;0,0275424
2981,4099;0,0273931
2982,3740;0,0272545
2983,3384;0,0271376
2984,3025;0,0270501
2985,2668;0,0269922
2986,2310;0,0269553
2987,1953;0,0269258
2988,1594;0,026892
2989,1238;0,0268493
2990,0879;0,0268022
2991,0522;0,0267599
2992,0164;0,0267302
2992,9807;0,0267147
2993,9448;0,0267085
2994,9092;0,0267045
2995,8733;0,026699
2996,8376;0,0266944
2997,8018;0,0266984
2998,7661;0,0267197
2999,7302;0,0267633
3000,6946;0,0268275
3001,6587;0,0269054
3002,6230;0,026988
3003,5872;0,0270683
3004,5515;0,0271439
3005,5156;0,0272168
3006,4800;0,0272904
3007,4441;0,027367
3008,4084;0,0274464
3009,3726;0,0275261
3010,3369;0,0276032
3011,3010;0,0276758
3012,2654;0,0277431
3013,2295;0,027805
3014,1938;0,0278614
3015,1580;0,0279129
3016,1223;0,0279616
3017,0864;0,0280118
3018,0508;0,0280698
3019,0149;0,028142
3019,9792;0,0282322
3020,9434;0,0283392
3021,9077;0,0284571
3022,8718;0,0285776
3023,8362;0,0286945
3024,8003;0,0288084
3025,7646;0,0289274
3026,7288;0,0290632
3027,6931;0,0292237
3028,6572;0,029406
3029,6216;0,0295945
3030,5857;0,0297665
3031,5500;0,0299025
3032,5142;0,029996
3033,4785;0,0300569
3034,4426;0,0301056
3035,4070;0,0301635
3036,3711;0,0302442
3037,3354;0,0303509
3038,2996;0,0304787
3039,2639;0,0306188
3040,2280;0,0307636
3041,1924;0,0309089
3042,1565;0,0310555
3043,1208;0,0312078
3044,0850;0,0313712
3045,0493;0,0315483
3046,0134;0,0317351
3046,9778;0,0319214
3047,9419;0,0320953
3048,9063;0,0322499
3049,8704;0,0323886
3050,8347;0,0325245
3051,7988;0,0326726
3052,7632;0,0328419
3053,7273;0,0330301
3054,6917;0,0332258
3055,6558;0,0334152
3056,6201;0,033591
3057,5842;0,0337561
3058,5486;0,033922
3059,5127;0,0341019
3060,4771;0,0343037
3061,4412;0,0345249
3062,4055;0,0347526
3063,3696;0,0349674
3064,3340;0,0351505
3065,2981;0,0352922
3066,2625;0,0353964
3067,2266;0,0354803
3068,1909;0,0355675
3069,1550;0,0356788
3070,1194;0,0358254
3071,0835;0,0360062
3072,0479;0,0362114
3073,0120;0,0364277
3073,9763;0,0366434
3074,9404;0,0368516
3075,9048;0,037049
3076,8689;0,0372353
3077,8333;0,0374108
3078,7974;0,0375764
3079,7617;0,0377333
3080,7258;0,0378832
3081,6902;0,038029
3082,6543;0,0381742
3083,6187;0,0383227
3084,5828;0,0384776
3085,5471;0,0386395
3086,5112;0,0388066
3087,4756;0,0389754
3088,4397;0,0391437
3089,4041;0,0393124
3090,3682;0,0394852
3091,3325;0,0396661
3092,2966;0,039856
3093,2610;0,0400519
3094,2251;0,0402493
3095,1895;0,0404462
3096,1536;0,0406453
3097,1179;0,0408516
3098,0820;0,0410665
3099,0464;0,0412841
3100,0105;0,0414917
3100,9749;0,0416769
3101,9390;0,041836
3102,9033;0,0419776
3103,8674;0,0421189
3104,8318;0,0422763
3105,7959;0,0424575
3106,7603;0,0426601
3107,7244;0,0428762
3108,6887;0,0431003
3109,6528;0,0433322
3110,6172;0,0435757
3111,5813;0,0438319
3112,5457;0,0440944
3113,5098;0,0443503
3114,4741;0,0445863
3115,4382;0,044796
3116,4026;0,0449834
3117,3667;0,0451605
3118,3311;0,0453401
3119,2952;0,04553
3120,2595;0,0457312
3121,2236;0,0459399
3122,1880;0,0461506
3123,1521;0,046358
3124,1165;0,0465581
3125,0806;0,0467487
3126,0449;0,0469312
3127,0090;0,0471117
3127,9734;0,0473006
3128,9375;0,0475085
3129,9019;0,0477399
3130,8660;0,0479895
3131,8303;0,0482429
3132,7944;0,048483
3133,7588;0,048698
3134,7229;0,0488868
3135,6873;0,0490592
3136,6514;0,0492308
3137,6157;0,0494162
3138,5798;0,0496238
3139,5442;0,0498541
3140,5083;0,0501013
3141,4727;0,0503571
3142,4368;0,0506145
3143,4011;0,0508701
3144,3652;0,0511244
3145,3296;0,051378
3146,2937;0,0516295
3147,2581;0,0518738
3148,2222;0,0521048
3149,1865;0,0523201
3150,1506;0,0525236
3151,1150;0,052725
3152,0791;0,0529345
3153,0435;0,0531578
3154,0076;0,0533934
3154,9719;0,0536353
3155,9360;0,0538777
3156,9004;0,0541186
3157,8645;0,0543595
3158,8289;0,0546021
3159,7930;0,0548457
3160,7573;0,0550866
3161,7214;0,0553217
3162,6858;0,055551
3163,6499;0,0557787
3164,6143;0,0560115
3165,5784;0,0562544
3166,5427;0,0565081
3167,5068;0,0567691
3168,4712;0,0570319
3169,4353;0,0571679
3170,3997;0,0574261
3171,3638;0,0576843
3172,3281;0,0579436
3173,2922;0,0582024
3174,2566;0,0584554
3175,2207;0,0586954
3176,1851;0,0589175
3177,1492;0,0591227
3178,1135;0,0593186
3179,0776;0,0595169
3180,0420;0,0597266
3181,0061;0,0599499
3181,9705;0,0601813
3182,9346;0,0604117
3183,8989;0,0606341
3184,8630;0,0608479
3185,8274;0,061058
3186,7915;0,0612705
3187,7559;0,0614879
3188,7200;0,0617081
3189,6843;0,0619268
3190,6484;0,0621423
3191,6128;0,0623574
3192,5769;0,0625779
3193,5413;0,0628075
3194,5054;0,0630446
3195,4697;0,0632817
3196,4338;0,0635095
3197,3982;0,0637216
3198,3623;0,0639171
3199,3267;0,0641001
3200,2908;0,0642759
3201,2551;0,0644493
3202,2192;0,0646234
3203,1836;0,0648006
3204,1477;0,0649832
3205,1121;0,0651725
3206,0762;0,0653676
3207,0405;0,0655652
3208,0046;0,0657624
3208,9690;0,0659579
3209,9331;0,0661543
3210,8975;0,0663557
3211,8616;0,0665648
3212,8259;0,0667808
3213,7900;0,0669989
3214,7544;0,0672135
3215,7185;0,0674206
3216,6829;0,067619
3217,6470;0,0678082
3218,6113;0,0679874
3219,5754;0,0681546
3220,5398;0,0683097
3221,5039;0,0684568
3222,4683;0,0686053
3223,4324;0,0687665
3224,3967;0,0689483
3225,3608;0,0691494
3226,3252;0,0693594
3227,2893;0,0695628
3228,2537;0,0697473
3229,2178;0,0699099
3230,1821;0,0700584
3231,1462;0,0702061
3232,1106;0,0703636
3233,0747;0,0705326
3234,0391;0,0707069
3235,0032;0,0708776
3235,9675;0,0710409
3236,9316;0,0712013
3237,8960;0,0713698
3238,8601;0,0715562
3239,8245;0,0717631
3240,7886;0,0719832
3241,7529;0,072203
3242,7170;0,0724093
3243,6814;0,0725944
3244,6455;0,0727587
3245,6099;0,0729089
3246,5740;0,0730548
3247,5383;0,0732052
3248,5024;0,073366
3249,4668;0,0735401
3250,4309;0,0737269
3251,3953;0,0739231
3252,3594;0,0741233
3253,3237;0,0743216
3254,2878;0,0745143
3255,2522;0,0747006
3256,2163;0,074883
3257,1807;0,0750656
3258,1448;0,0752514
3259,1091;0,0754418
3260,0732;0,075636
3261,0376;0,0758316
3262,0017;0,0760249
3262,9661;0,0762117
3263,9302;0,0763873
3264,8945;0,076549
3265,8586;0,0766969
3266,8230;0,0768343
3267,7871;0,0769671
3268,7515;0,0771012
3269,7156;0,0772396
3270,6799;0,0773809
3271,6440;0,0775196
3272,6084;0,0776486
3273,5725;0,077762
3274,5369;0,0778582
3275,5010;0,07794
3276,4653;0,078013
3277,4294;0,0780821
3278,3938;0,0781489
3279,3579;0,0782113
3280,3223;0,0782657
3281,2864;0,0783108
3282,2507;0,0783485
3283,2148;0,0783839
3284,1792;0,078422
3285,1433;0,0784652
3286,1077;0,0785127
3287,0718;0,0785617
3288,0361;0,0786093
3289,0002;0,0786524
3289,9646;0,0786869
3290,9287;0,0787079
3291,8931;0,0787113
3292,8572;0,0786965
3293,8215;0,0786682
3294,7856;0,078635
3295,7500;0,0786054
3296,7141;0,078585
3297,6785;0,0785744
3298,6426;0,0785709
3299,6069;0,0785704
3300,5710;0,0785697
3301,5354;0,0785671
3302,4995;0,078562
3303,4639;0,0785558
3304,4280;0,0785511
3305,3923;0,0785507
3306,3564;0,0785563
3307,3208;0,0785658
3308,2849;0,078574
3309,2493;0,078574
3310,2134;0,0785609
3311,1777;0,0785345
3312,1418;0,0785001
3313,1062;0,0784671
3314,0703;0,0784468
3315,0347;0,0784498
3315,9988;0,0784827
3316,9631;0,0785465
3317,9272;0,0786353
3318,8916;0,0787392
3319,8557;0,0788481
3320,8201;0,0789551
3321,7842;0,0790586
3322,7485;0,0791595
3323,7126;0,0792577
3324,6770;0,0793504
3325,6411;0,0794331
3326,6055;0,0795034
3327,5696;0,0795642
3328,5339;0,0796227
3329,4980;0,079686
3330,4624;0,0797563
3331,4265;0,0798288
3332,3909;0,0798942
3333,3550;0,0799424
3334,3193;0,0799661
3335,2834;0,0799612
3336,2478;0,079926
3337,2119;0,0798598
3338,1763;0,079763
3339,1404;0,0796383
3340,1047;0,0794916
3341,0688;0,0793321
3342,0332;0,0791703
3342,9973;0,0790152
3343,9617;0,0788711
3344,9258;0,0787366
3345,8901;0,0786052
3346,8542;0,0784681
3347,8186;0,0783181
3348,7827;0,0781529
3349,7471;0,0779762
3350,7112;0,0777954
3351,6755;0,0776186
3352,6396;0,07745
3353,6040;0,0772885
3354,5681;0,0771295
3355,5325;0,0769681
3356,4966;0,0768024
3357,4609;0,0766338
3358,4250;0,0764657
3359,3894;0,0763008
3360,3535;0,0761395
3361,3179;0,0759801
3362,2820;0,0758196
3363,2463;0,0756549
3364,2104;0,0754822
3365,1748;0,0752969
3366,1389;0,0750951
3367,1033;0,0748756
3368,0674;0,0746419
3369,0317;0,0744026
3369,9958;0,0741684
3370,9602;0,0739477
3371,9243;0,0737433
3372,8887;0,0735515
3373,8528;0,0733642
3374,8171;0,0731732
3375,7813;0,0729734
3376,7456;0,0727653
3377,7097;0,0725542
3378,6741;0,072348
3379,6382;0,0721536
3380,6025;0,071974
3381,5667;0,0718068
3382,5310;0,0716447
3383,4951;0,071479
3384,4595;0,071305
3385,4236;0,0711248
3386,3879;0,0709475
3387,3521;0,0707828
3388,3164;0,0706343
3389,2805;0,0704961
3390,2449;0,0703545
3391,2090;0,0701957
3392,1733;0,0700133
3393,1375;0,0698119
3394,1018;0,0696019
3395,0659;0,0693921
3396,0303;0,0691822
3396,9944;0,0689651
3397,9587;0,0687329
3398,9229;0,0684844
3399,8872;0,0682268
3400,8513;0,067972
3401,8157;0,0677299
3402,7798;0,0675031
3403,7441;0,0672873
3404,7083;0,0670742
3405,6726;0,0668565
3406,6367;0,0666302
3407,6011;0,0663953
3408,5652;0,066154
3409,5295;0,0659086
3410,4937;0,0656602
3411,4580;0,0654087
3412,4221;0,0651536
3413,3865;0,0648962
3414,3506;0,0646396
3415,3149;0,0643886
3416,2791;0,0641479
3417,2434;0,0639178
3418,2075;0,0636922
3419,1719;0,0634589
3420,1360;0,0632043
3421,1003;0,0629193
3422,0645;0,0626046
3423,0288;0,0622701
3423,9929;0,0619304
3424,9573;0,0615996
3425,9214;0,0612867
3426,8857;0,0609935
3427,8499;0,0607156
3428,8142;0,0604445
3429,7783;0,060172
3430,7427;0,0598929
3431,7068;0,0596049
3432,6711;0,059307
3433,6353;0,0589985
3434,5996;0,0586792
3435,5637;0,0583526
3436,5281;0,0580268
3437,4922;0,0577138
3438,4565;0,057425
3439,4207;0,0571663
3440,3850;0,0569357
3441,3491;0,0567235
3442,3135;0,0565158
3443,2776;0,0562973
3444,2419;0,0560528
3445,2061;0,055769
3446,1704;0,0554374
3447,1345;0,0550609
3448,0989;0,0546561
3449,0630;0,0542485
3450,0273;0,053861
3450,9915;0,0535056
3451,9558;0,0531809
3452,9199;0,0528772
3453,8843;0,0525828
3454,8484;0,0522911
3455,8127;0,0520033
3456,7769;0,0517255
3457,7412;0,0514623
3458,7053;0,0512107
3459,6697;0,0509598
3460,6338;0,0506957
3461,5981;0,0504085
3462,5623;0,0500979
3463,5266;0,049771
3464,4907;0,0494362
3465,4551;0,049098
3466,4192;0,0487557
3467,3835;0,0484086
3468,3477;0,0480613
3469,3120;0,0477243
3470,2761;0,0474077
3471,2405;0,0471135
3472,2046;0,0468321
3473,1689;0,0465485
3474,1331;0,0462553
3475,0974;0,0459622
3476,0615;0,0456929
3477,0259;0,0454698
3477,9900;0,045295
3478,9543;0,0451418
3479,9185;0,0449637
3480,8828;0,044718
3481,8469;0,0443915
3482,8113;0,0440091
3483,7754;0,0436157
3484,7397;0,0432483
3485,7039;0,0429173
3486,6682;0,0426085
3487,6323;0,0422992
3488,5967;0,0419774
3489,5608;0,0416518
3490,5251;0,0413445
3491,4893;0,0410746
3492,4536;0,0408442
3493,4177;0,040636
3494,3821;0,0404233
3495,3462;0,0401886
3496,3105;0,0399385
3497,2747;0,0397024
3498,2390;0,0395124
3499,2031;0,0393788
3500,1675;0,0392751
3501,1316;0,0391422
3502,0959;0,0389164
3503,0601;0,0385724
3504,0244;0,0381459
3504,9885;0,037711
3505,9529;0,0373311
3506,9170;0,0370255
3507,8813;0,0367661
3508,8455;0,0364982
3509,8098;0,0361739
3510,7739;0,0357808
3511,7383;0,0353475
3512,7024;0,0349211
3513,6667;0,0345407
3514,6309;0,0342246
3515,5952;0,033972
3516,5593;0,0337739
3517,5237;0,033623
3518,4878;0,0335176
3519,4521;0,0334575
3520,4163;0,0334337
3521,3806;0,0334223
3522,3447;0,0333855
3523,3091;0,033285
3524,2732;0,0330968
3525,2375;0,0328168
3526,2017;0,032454
3527,1660;0,0320219
3528,1301;0,0315381
3529,0945;0,0310302
3530,0586;0,030538
3531,0229;0,030101
3531,9871;0,0297442
3532,9514;0,0294669
3533,9155;0,0292419
3534,8799;0,0290249
3535,8440;0,0287748
3536,8083;0,0284785
3537,7725;0,0281639
3538,7368;0,0278868
3539,7009;0,0277029
3540,6653;0,0276424
3541,6294;0,027696
3542,5938;0,0278081
3543,5579;0,0278796
3544,5222;0,0277999
3545,4863;0,0275091
3546,4507;0,0270449
3547,4148;0,0265184
3548,3792;0,0260374
3549,3433;0,0256515
3550,3076;0,0253458
3551,2717;0,0250661
3552,2361;0,0247565
3553,2002;0,0243965
3554,1646;0,0240133
3555,1287;0,0236581
3556,0930;0,0233735
3557,0571;0,0231781
3558,0215;0,0230697
3558,9856;0,0230348
3559,9500;0,0230587
3560,9141;0,023132
3561,8784;0,0232493
3562,8425;0,0233995
3563,8069;0,023545
3564,7710;0,0235869
3565,7354;0,023362
3566,6995;0,022757
3567,6638;0,0218734
3568,6279;0,0209814
3569,5923;0,0202837
3570,5564;0,0198076
3571,5208;0,01948
3572,4849;0,0192235
3573,4492;0,018994
3574,4133;0,0187765
3575,3777;0,0185703
3576,3418;0,0183784
3577,3062;0,0182022
3578,2703;0,0180432
3579,2346;0,0179056
3580,1987;0,0177962
3581,1631;0,0177197
3582,1272;0,0176744
3583,0916;0,0176536
3584,0557;0,0176461
3585,0200;0,0176204
3585,9841;0,0175049
3586,9485;0,0172305
3587,9126;0,0168359
3588,8770;0,0164681
3589,8411;0,0162393
3590,8054;0,0161449
3591,7695;0,0161127
3592,7339;0,0160699
3593,6980;0,0159701
3594,6624;0,0158021
3595,6265;0,0155904
3596,5908;0,0153715
3597,5549;0,0151571
3598,5193;0,0149235
3599,4834;0,0146369
3600,4478;0,01429
3601,4119;0,0139155
3602,3762;0,0135613
3603,3403;0,0132539
3604,3047;0,0129878
3605,2688;0,0127386
3606,2332;0,0124773
3607,1973;0,0121859
3608,1616;0,0118837
3609,1257;0,0116353
3610,0901;0,0115094
3611,0542;0,0115231
3612,0186;0,0116231
3612,9827;0,0117121
3613,9470;0,0116974
3614,9111;0,0115302
3615,8755;0,0112165
3616,8396;0,0108034
3617,8040;0,010357
3618,7681;0,00995053
3619,7324;0,00966411
3620,6965;0,00955742
3621,6609;0,00961208
3622,6250;0,00971756
3623,5894;0,00973341
3624,5535;0,00957032
3625,5178;0,00923186
3626,4819;0,00879243
3627,4463;0,00832319
3628,4104;0,00786267
3629,3748;0,00749075
3630,3389;0,00730135
3631,3032;0,00725512
3632,2673;0,00719789
3633,2317;0,00700367
3634,1958;0,00665398
3635,1602;0,00622296
3636,1243;0,00581439
3637,0886;0,00550045
3638,0527;0,00529946
3639,0171;0,00519474
3639,9812;0,00516407
3640,9456;0,00519018
3641,9097;0,00525106
3642,8740;0,00531195
3643,8381;0,00533925
3644,8025;0,00533182
3645,7666;0,00533183
3646,7310;0,00535403
3647,6951;0,00524061
3648,6594;0,00472603
3649,6235;0,00388509
3650,5879;0,00315173
3651,5520;0,00274326
3652,5164;0,00252972
3653,4805;0,00231313
3654,4448;0,00200834
3655,4089;0,00165492
3656,3733;0,0013512
3657,3374;0,0011731
3658,3018;0,00112059
3659,2659;0,00112823
3660,2302;0,0011292
3661,1943;0,00110851
3662,1587;0,00109819
3663,1228;0,00112788
3664,0872;0,00118315
3665,0513;0,00122012
3666,0156;0,00121655
3666,9797;0,00120704
3667,9441;0,00124823
3668,9082;0,00133912
3669,8726;0,0014092
3670,8367;0,00139485
3671,8010;0,00127916
3672,7651;0,00108286
3673,7295;0,000858293
3674,6936;0,000659958
3675,6580;0,000518349
3676,6221;0,000467055
3677,5864;0,000525829
3678,5505;0,000642791
3679,5149;0,000734226
3680,4790;0,000765489
3681,4434;0,000761578
3682,4075;0,000754667
3683,3718;0,000736885
3684,3359;0,000668876
3685,3003;0,000536863
3686,2644;0,000402518
3687,2288;0,000380704
3688,1929;0,000530974
3689,1572;0,000780582
3690,1213;0,00101574
3691,0857;0,00119462
3692,0498;0,00131634
3693,0142;0,00137517
3693,9783;0,00137295
3694,9426;0,00132888
3695,9067;0,00126474
3696,8711;0,00118933
3697,8352;0,00110139
3698,7996;0,00100558
3699,7637;0,000923166
3700,7280;0,000886559
3701,6921;0,000925079
3702,6565;0,00105012
3703,6206;0,00124091
3704,5850;0,00144277
3705,5491;0,00159213
3706,5134;0,00165318
3707,4775;0,00163272
3708,4419;0,00155034
3709,4060;0,00137856
3710,3704;0,00104506
3711,3345;0,000570935
3712,2988;0,000146026
3713,2629;-4,8876E-05
3714,2273;-3,4456E-06
3715,1914;0,000177604
3716,1558;0,000396908
3717,1199;0,000621742
3718,0842;0,000872077
3719,0483;0,00117638
3720,0127;0,00153337
3720,9768;0,00190457
3721,9412;0,00223499
3722,9053;0,00247857
3723,8696;0,00261093
3724,8337;0,00263216
3725,7981;0,00256259
3726,7622;0,00242823
3727,7266;0,00224631
3728,6907;0,00203182
3729,6550;0,00182181
3730,6191;0,00168776
3731,5835;0,00170619
3732,5476;0,00188176
3733,5120;0,00207767
3734,4761;0,00209119
3735,4404;0,00189216
3736,4045;0,00168934
3737,3689;0,00165407
3738,3330;0,00171291
3739,2974;0,00163867
3740,2615;0,0012425
3741,2258;0,000502634
3742,1899;-0,000393227
3743,1543;-0,0011112
3744,1184;-0,00135981
3745,0828;-0,00109811
3746,0469;-0,000558737
3747,0112;-6,40225E-05
3747,9753;0,000167969
3748,9397;8,4006E-05
3749,9038;-0,000244336
3750,8682;-0,000642641
3751,8323;-0,000862427
3752,7966;-0,000768066
3753,7607;-0,000464849
3754,7251;-0,000163193
3755,6892;-4,10105E-06
3756,6536;-1,45567E-05
3757,6177;-0,000149377
3758,5820;-0,000337408
3759,5461;-0,000503369
3760,5105;-0,000592457
3761,4746;-0,000597074
3762,4390;-0,000550678
3763,4031;-0,000497206
3764,3674;-0,000470714
3765,3315;-0,00049207
3766,2959;-0,000569367
3767,2600;-0,000695588
3768,2244;-0,000848731
3769,1885;-0,000996929
3770,1528;-0,00110496
3771,1169;-0,00114628
3772,0813;-0,0011204
3773,0454;-0,00106036
3774,0098;-0,00101369
3774,9739;-0,00100979
3775,9382;-0,0010414
3776,9023;-0,00107589
3777,8667;-0,00108316
3778,8308;-0,00104709
3779,7952;-0,000957321
3780,7593;-0,000811574
3781,7236;-0,000631821
3782,6877;-0,00046659
3783,6521;-0,000373064
3784,6162;-0,000390774
3785,5806;-0,00051751
3786,5447;-0,000705172
3787,5090;-0,000884644
3788,4731;-0,00100524
3789,4375;-0,00105726
3790,4016;-0,00106149
3791,3660;-0,00103714
3792,3301;-0,000974998
3793,2944;-0,000839784
3794,2585;-0,000605521
3795,2229;-0,000297553
3796,1870;1,55395E-06
3797,1514;0,000196377
3798,1155;0,000237067
3799,0798;0,000142164
3800,0439;-2,80125E-05
3801,0083;-0,000215452
3801,9724;-0,000390288
3802,9368;-0,00056522
3803,9009;-0,00079108
3804,8652;-0,00110585
3805,8293;-0,00146931
3806,7937;-0,00175362
3807,7578;-0,00181872
3808,7222;-0,00162901
3809,6863;-0,00130016
3810,6506;-0,00101623
3811,6147;-0,000896255
3812,5791;-0,000918921
3813,5432;-0,000946767
3814,5076;-0,000835222
3815,4717;-0,000550165
3816,4360;-0,000188224
3817,4001;0,000104201
3818,3645;0,000216423
3819,3286;0,000111986
3820,2930;-0,000155494
3821,2571;-0,00044397
3822,2214;-0,000595519
3823,1855;-0,000558639
3824,1499;-0,000416387
3825,1140;-0,0002961
3826,0784;-0,000276592
3827,0425;-0,000358041
3828,0068;-0,000482806
3828,9709;-0,000577732
3829,9353;-0,000594108
3830,8994;-0,000528394
3831,8638;-0,000417794
3832,8279;-0,000315126
3833,7922;-0,000255459
3834,7563;-0,000233145
3835,7207;-0,000208385
3836,6848;-0,000146415
3837,6492;-5,84744E-05
3838,6133;4,83732E-06
3839,5776;-6,37263E-07
3840,5417;-8,6933E-05
3841,5061;-0,000238454
3842,4702;-0,000410466
3843,4346;-0,000527406
3844,3987;-0,000511258
3845,3630;-0,000337383
3846,3271;-7,45553E-05
3847,2915;0,000129492
3848,2556;0,000111736
3849,2200;-0,000228663
3850,1841;-0,000871533
3851,1484;-0,00166735
3852,1125;-0,00240241
3853,0769;-0,0028574
3854,0410;-0,00281039
3855,0054;-0,00221782
3855,9695;-0,00135541
3856,9338;-0,00058981
3857,8979;-0,000135364
3858,8623;-5,10196E-06
3859,8264;-6,96281E-05
3860,7908;-0,000152446
3861,7549;-0,000136121
3862,7192;-2,95416E-05
3863,6833;6,77271E-05
3864,6477;7,14572E-05
3865,6118;-2,69546E-05
3866,5762;-0,000176375
3867,5403;-0,000303793
3868,5046;-0,000351543
3869,4688;-0,000313373
3870,4331;-0,000242482
3871,3972;-0,000209434
3872,3616;-0,000248787
3873,3257;-0,000349272
3874,2900;-0,000479935
3875,2542;-0,00060943
3876,2185;-0,000702862
3877,1826;-0,000716029
3878,1470;-0,000609713
3879,1111;-0,000388373
3880,0754;-0,000127905
3881,0396;5,20593E-05
3882,0039;5,81354E-05
3882,9680;-0,000126508
3883,9324;-0,000440113
3884,8965;-0,000774121
3885,8608;-0,00102429
3886,8250;-0,0011412
3887,7893;-0,00114235
3888,7534;-0,00107323
3889,7178;-0,000962097
3890,6819;-0,000814681
3891,6462;-0,000636394
3892,6104;-0,000442021
3893,5747;-0,00025737
3894,5388;-0,000121658
3895,5032;-6,50609E-05
3896,4673;-7,45578E-05
3897,4316;-9,48498E-05
3898,3958;-7,4098E-05
3899,3601;-1,02095E-05
3900,3242;4,99205E-05
3901,2886;5,11956E-05
3902,2527;-3,91047E-05
3903,2170;-0,000221505
3904,1812;-0,000460466
3905,1455;-0,000699646
3906,1096;-0,000898519
3907,0740;-0,00105091
3908,0381;-0,00116717
3909,0024;-0,0012492
3909,9666;-0,0012856
3910,9309;-0,00126526
3911,8950;-0,00119074
3912,8594;-0,00107881
3913,8235;-0,000951012
3914,7878;-0,000826792
3915,7520;-0,000723898
3916,7163;-0,000655785
3917,6804;-0,000617476
3918,6448;-0,000579017
3919,6089;-0,000506587
3920,5732;-0,000392859
3921,5374;-0,000263272
3922,5017;-0,000161226
3923,4658;-0,000125773
3924,4302;-0,000167521
3925,3943;-0,000257038
3926,3586;-0,000343311
3927,3228;-0,000387843
3928,2871;-0,000383244
3929,2512;-0,000351837
3930,2156;-0,000336207
3931,1797;-0,000379476
3932,1440;-0,000494991
3933,1082;-0,000652952
3934,0725;-0,00080442
3935,0366;-0,000915067
3936,0010;-0,00097479
3936,9651;-0,00098631
3937,9294;-0,000953526
3938,8936;-0,000880027
3939,8579;-0,000775398
3940,8220;-0,000659825
3941,7864;-0,000557521
3942,7505;-0,000480675
3943,7148;-0,000420141
3944,6790;-0,000357608
3945,6433;-0,000286482
3946,6074;-0,000223978
3947,5718;-0,000207063
3948,5359;-0,000272671
3949,5002;-0,000429913
3950,4644;-0,000646016
3951,4287;-0,00086294
3952,3928;-0,00102999
3953,3572;-0,00112433
3954,3213;-0,00115115
3955,2856;-0,00113203
3956,2498;-0,00109127
3957,2141;-0,00104601
3958,1782;-0,00100456
3959,1426;-0,000971496
3960,1067;-0,000953604
3961,0710;-0,000959832
3962,0352;-0,000994792
3962,9995;-0,001052
3963,9636;-0,00111455
3964,9280;-0,00116278
3965,8921;-0,00118482
3966,8564;-0,00118132
3967,8206;-0,0011627
3968,7849;-0,00114092
3969,7490;-0,00112138
3970,7134;-0,00110138
3971,6775;-0,00107644
3972,6418;-0,00104899
3973,6060;-0,00103168
3974,5703;-0,00104125
3975,5344;-0,0010868
3976,4988;-0,00116153
3977,4629;-0,00124482
3978,4272;-0,00131335
3979,3914;-0,0013538
3980,3557;-0,00136881
3981,3198;-0,00137298
3982,2842;-0,00138144
3983,2483;-0,00139892
3984,2126;-0,00141682
3985,1768;-0,00142004
3986,1411;-0,00139805
3987,1052;-0,00135253
3988,0696;-0,00129749
3989,0337;-0,00125153
3989,9980;-0,00122916
3990,9622;-0,00123466
3991,9265;-0,00126258
3992,8906;-0,0013028
3993,8550;-0,00134594
3994,8191;-0,00138585
3995,7834;-0,00141915
3996,7476;-0,00144384
3997,7119;-0,00145891
3998,6760;-0,00146495
3999,6404;-0,00146446
4000,6045;-0,00107383

##### Extended Information
[Comments]
Sample name
Comment
Username
Division
Organization;UNIVERSIDAD INDUSTRIAL DE SANTANDER

[Detailed Information]
Creation date;20/03/2025 12:21 p.m.

Data array type;Linear data array
Horizontal axis;Wavenumber [cm-1]
Vertical axis;Abs
Start;399,193 cm-1
End;4000,6 cm-1
Data interval;0,964233 cm-1
Data points;3736    

[Measurement Information]
Model name;FT/IR-4X1typeA
Serial No.;A035162111

Accessory;ATR PRO 4X
Accessory S/N;A021162126
Incident angle;45 deg

Measurement date;20/03/2025 12:20 p.m.

Light source;Standard
Detector;TGS
Accumulation;40
Resolution;4 cm-1
Zero filling;On
Apodization;Cosine
Gain;Auto (8)
Aperture;Auto (7 mm)
Scan speed;Auto (2 mm/sec)
Filter;Auto (12800 Hz)

