TITLE;
DATA TYPE;INFRARED SPECTRUM
ORIGIN;JASCO
OWNER;
DATE;25/03/20
TIME;12:46:04
SPECTROMETER/DATA SYSTEM;
LOCALE;9226
RESOLUTION;
DELTAX;0,964233
XUNITS;1/CM
YUNITS;ABSORBANCE
FIRSTX;  399,1927
LASTX; 4000,6047
NPOINTS;    3736
FIRSTY;     0,22432
MAXY;     0,30455
MINY;    -0,00477
XYDATA
399,1927;0,224323
400,1569;0,22447
401,1211;0,223886
402,0854;0,222922
403,0496;0,221866
404,0138;0,220986
404,9781;0,22055
405,9423;0,220784
406,9065;0,221765
407,8708;0,223373
408,8350;0,22535
409,7992;0,227422
410,7635;0,229398
411,7277;0,231222
412,6919;0,232946
413,6562;0,23467
414,6204;0,23648
415,5846;0,238403
416,5489;0,240373
417,5131;0,2422
418,4773;0,243628
419,4416;0,244574
420,4058;0,245274
421,3700;0,246031
422,3343;0,246933
423,2985;0,247855
424,2627;0,248583
425,2270;0,248942
426,1912;0,248908
427,1554;0,248627
428,1197;0,24834
429,0839;0,24827
430,0481;0,24853
431,0124;0,249086
431,9766;0,249763
432,9408;0,25029
433,9051;0,250392
434,8693;0,249902
435,8335;0,248849
436,7978;0,247466
437,7620;0,246082
438,7262;0,244989
439,6905;0,244349
440,6547;0,244196
441,6189;0,24445
442,5832;0,244929
443,5474;0,245364
444,5116;0,245471
445,4759;0,245064
446,4401;0,244149
447,4043;0,242908
448,3686;0,241619
449,3328;0,240539
450,2970;0,23981
451,2613;0,23943
452,2255;0,239297
453,1897;0,239306
454,1540;0,239416
455,1182;0,239628
456,0824;0,239907
457,0467;0,240106
458,0109;0,240001
458,9751;0,239443
459,9394;0,2385
460,9036;0,237408
461,8678;0,236405
462,8321;0,235616
463,7963;0,235034
464,7605;0,234559
465,7248;0,234087
466,6890;0,233587
467,6532;0,233129
468,6175;0,232853
469,5817;0,232889
470,5459;0,233281
471,5102;0,233936
472,4744;0,234638
473,4386;0,235155
474,4029;0,235367
475,3671;0,23532
476,3313;0,235166
477,2956;0,235077
478,2598;0,23518
479,2240;0,235529
480,1883;0,236107
481,1525;0,236842
482,1167;0,237642
483,0810;0,23842
484,0452;0,239109
485,0094;0,23969
485,9737;0,240193
486,9379;0,240684
487,9021;0,241225
488,8664;0,241836
489,8306;0,242472
490,7948;0,243038
491,7591;0,243436
492,7233;0,243628
493,6875;0,243665
494,6518;0,24366
495,6160;0,243722
496,5802;0,243904
497,5445;0,244198
498,5087;0,244563
499,4729;0,244958
500,4372;0,245363
501,4014;0,245775
502,3656;0,246191
503,3299;0,246603
504,2941;0,247002
505,2583;0,247393
506,2226;0,247792
507,1868;0,248217
508,1510;0,248678
509,1153;0,249185
510,0795;0,249755
511,0437;0,250424
512,0080;0,25123
512,9722;0,252194
513,9365;0,253284
514,9007;0,254416
515,8649;0,255465
516,8292;0,256295
517,7934;0,256802
518,7576;0,25695
519,7219;0,256774
520,6861;0,256363
521,6503;0,255819
522,6146;0,25525
523,5788;0,254753
524,5430;0,2544
525,5073;0,254204
526,4715;0,254096
527,4357;0,253953
528,4000;0,253664
529,3642;0,253186
530,3284;0,252555
531,2927;0,251859
532,2569;0,251206
533,2211;0,250688
534,1854;0,250353
535,1496;0,25019
536,1138;0,250135
537,0781;0,250101
538,0423;0,250019
539,0065;0,249883
539,9708;0,249768
540,9350;0,249799
541,8992;0,25009
542,8635;0,250681
543,8277;0,251504
544,7919;0,252409
545,7562;0,253224
546,7204;0,253837
547,6846;0,254231
548,6489;0,254475
549,6131;0,254676
550,5773;0,254932
551,5416;0,255311
552,5058;0,255848
553,4700;0,25654
554,4343;0,257331
555,3985;0,258091
556,3627;0,258626
557,3270;0,258718
558,2912;0,258198
559,2554;0,257006
560,2197;0,255224
561,1839;0,253059
562,1481;0,250781
563,1124;0,248652
564,0766;0,24685
565,0408;0,24544
566,0051;0,244378
566,9693;0,243552
567,9335;0,242845
568,8978;0,242184
569,8620;0,241564
570,8262;0,241036
571,7905;0,240658
572,7547;0,240466
573,7189;0,240447
574,6832;0,240547
575,6474;0,240686
576,6116;0,240781
577,5759;0,24077
578,5401;0,240627
579,5043;0,240357
580,4686;0,239987
581,4328;0,239553
582,3970;0,239085
583,3613;0,238602
584,3255;0,23812
585,2897;0,237665
586,2540;0,237292
587,2182;0,237068
588,1824;0,237049
589,1467;0,237238
590,1109;0,237559
591,0751;0,237867
592,0394;0,237994
593,0036;0,237825
593,9678;0,237344
594,9321;0,236632
595,8963;0,235806
596,8605;0,234964
597,8248;0,234161
598,7890;0,233407
599,7532;0,232697
600,7175;0,232033
601,6817;0,231428
602,6459;0,230894
603,6102;0,230427
604,5744;0,229994
605,5386;0,229539
606,5029;0,229
607,4671;0,228326
608,4313;0,2275
609,3956;0,226553
610,3598;0,225565
611,3240;0,224653
612,2883;0,223925
613,2525;0,223429
614,2167;0,223104
615,1810;0,222766
616,1452;0,222157
617,1094;0,221054
618,0737;0,219392
619,0379;0,217311
620,0021;0,215078
620,9664;0,212956
621,9306;0,211105
622,8948;0,209565
623,8591;0,208292
624,8233;0,207174
625,7875;0,206222
626,7518;0,205392
627,7160;0,204651
628,6802;0,203954
629,6445;0,20326
630,6087;0,202533
631,5729;0,201763
632,5372;0,200961
633,5014;0,200143
634,4656;0,199323
635,4299;0,198514
636,3941;0,197733
637,3583;0,197008
638,3226;0,196367
639,2868;0,19583
640,2510;0,195388
641,2153;0,195008
642,1795;0,194641
643,1437;0,194248
644,1080;0,193811
645,0722;0,19334
646,0364;0,192852
647,0007;0,192363
647,9649;0,191884
648,9291;0,191422
649,8934;0,190996
650,8576;0,190645
651,8218;0,190411
652,7861;0,190333
653,7503;0,190417
654,7145;0,190636
655,6788;0,19093
656,6430;0,191241
657,6072;0,191532
658,5715;0,191792
659,5357;0,191992
660,4999;0,192046
661,4642;0,191825
662,4284;0,191202
663,3926;0,190114
664,3569;0,188622
665,3211;0,186997
666,2853;0,185747
667,2496;0,185299
668,2138;0,185299
669,1780;0,184774
670,1423;0,183473
671,1065;0,181765
672,0707;0,179801
673,0350;0,177554
673,9992;0,175084
674,9634;0,172581
675,9277;0,170241
676,8919;0,168153
677,8561;0,166278
678,8204;0,164526
679,7846;0,162851
680,7488;0,161269
681,7131;0,159829
682,6773;0,158567
683,6415;0,157495
684,6058;0,156609
685,5700;0,1559
686,5342;0,155343
687,4985;0,154887
688,4627;0,154474
689,4269;0,154049
690,3912;0,153595
691,3554;0,153127
692,3196;0,152666
693,2839;0,152213
694,2481;0,151751
695,2123;0,151256
696,1766;0,150713
697,1408;0,150124
698,1050;0,149495
699,0693;0,148828
700,0335;0,148122
700,9977;0,147383
701,9620;0,14663
702,9262;0,145889
703,8904;0,145163
704,8547;0,144444
705,8189;0,1437
706,7831;0,142892
707,7474;0,142001
708,7116;0,141044
709,6758;0,140063
710,6401;0,139095
711,6043;0,13815
712,5685;0,137211
713,5328;0,13626
714,4970;0,135304
715,4612;0,133627
716,4255;0,132939
717,3897;0,132381
718,3539;0,131833
719,3182;0,131105
720,2824;0,130034
721,2466;0,128589
722,2109;0,126888
723,1751;0,125131
724,1393;0,123488
725,1036;0,122043
726,0678;0,12079
727,0320;0,119678
727,9963;0,118655
728,9605;0,117692
729,9247;0,116777
730,8890;0,115902
731,8532;0,115053
732,8174;0,114221
733,7817;0,113409
734,7459;0,112635
735,7101;0,111921
736,6744;0,111273
737,6386;0,11068
738,6028;0,110111
739,5671;0,109535
740,5313;0,108931
741,4955;0,108296
742,4598;0,107642
743,4240;0,106985
744,3882;0,106339
745,3525;0,105715
746,3167;0,105116
747,2809;0,104546
748,2452;0,103999
749,2094;0,103469
750,1736;0,102942
751,1379;0,102405
752,1021;0,10185
753,0663;0,101277
754,0306;0,100692
754,9948;0,100099
755,9590;0,0995046
756,9233;0,0989147
757,8875;0,0983419
758,8517;0,097805
759,8160;0,0973211
760,7802;0,096894
761,7444;0,096506
762,7087;0,0961234
763,6729;0,0957125
764,6371;0,0952593
765,6014;0,0947777
766,5656;0,094302
767,5298;0,0938677
768,4941;0,0934924
769,4583;0,0931697
770,4225;0,0928772
771,3868;0,0925927
772,3510;0,092306
773,3152;0,0920212
774,2795;0,0917498
775,2437;0,0915003
776,2079;0,0912706
777,1722;0,0910458
778,1364;0,0908
779,1006;0,0905028
780,0649;0,0901292
781,0291;0,0896705
781,9933;0,0891403
782,9576;0,0885703
783,9218;0,0879964
784,8860;0,0874425
785,8503;0,0869125
786,8145;0,0863965
787,7787;0,0858862
788,7430;0,085386
789,7072;0,0849131
790,6714;0,0844854
791,6357;0,0841089
792,5999;0,083774
793,5641;0,0834631
794,5284;0,0831612
795,4926;0,0828618
796,4568;0,0825634
797,4211;0,0822646
798,3853;0,0819627
799,3495;0,081657
800,3138;0,0813532
801,2780;0,0810619
802,2422;0,0807906
803,2065;0,0805369
804,1707;0,0802893
805,1349;0,0800357
806,0992;0,079773
807,0634;0,0795108
808,0276;0,0792652
808,9919;0,0790481
809,9561;0,0788595
810,9203;0,0786876
811,8846;0,0785166
812,8488;0,0783353
813,8130;0,0781421
814,7773;0,0779442
815,7415;0,0777529
816,7057;0,0775779
817,6700;0,0774237
818,6342;0,0772891
819,5984;0,0771679
820,5627;0,0770518
821,5269;0,076933
822,4911;0,0768052
823,4554;0,0766629
824,4196;0,0765001
825,3839;0,0763085
826,3481;0,0760802
827,3123;0,0758111
828,2766;0,0755069
829,2408;0,0751834
830,2050;0,0748629
831,1693;0,0745646
832,1335;0,074296
833,0977;0,0740489
834,0620;0,0738045
835,0262;0,0735431
835,9904;0,0732548
836,9547;0,0729429
837,9189;0,0726207
838,8831;0,0723035
839,8474;0,0720016
840,8116;0,0717172
841,7758;0,0714463
842,7401;0,0711829
843,7043;0,0709218
844,6685;0,0706609
845,6328;0,0704016
846,5970;0,0701499
847,5612;0,0699151
848,5255;0,0697072
849,4897;0,0695334
850,4539;0,0693941
851,4182;0,0692822
852,3824;0,0691846
853,3466;0,0690862
854,3109;0,0689738
855,2751;0,0688383
856,2393;0,0686765
857,2036;0,0684923
858,1678;0,0682967
859,1320;0,0681052
860,0963;0,0679334
861,0605;0,0677917
862,0247;0,0676834
862,9890;0,0676074
863,9532;0,0675644
864,9174;0,0675606
865,8817;0,0676073
866,8459;0,0677139
867,8101;0,0678806
868,7744;0,0680946
869,7386;0,0683331
870,7028;0,0685722
871,6671;0,0687957
872,6313;0,0690009
873,5955;0,0691997
874,5598;0,0694147
875,5240;0,0696712
876,4882;0,0699887
877,4525;0,0703736
878,4167;0,0708164
879,3809;0,0712989
880,3452;0,0718064
881,3094;0,0723401
882,2736;0,0729222
883,2379;0,073588
884,2021;0,0743703
885,1663;0,0752844
886,1306;0,0763223
887,0948;0,0774585
888,0590;0,0786628
889,0233;0,0799084
889,9875;0,0811722
890,9517;0,0824266
891,9160;0,0836318
892,8802;0,0847351
893,8444;0,0856787
894,8087;0,0864132
895,7729;0,0869078
896,7371;0,0871537
897,7014;0,0871594
898,6656;0,0869432
899,6298;0,0865259
900,5941;0,0859281
901,5583;0,0851699
902,5225;0,0842745
903,4868;0,0832726
904,4510;0,0822062
905,4152;0,0811297
906,3795;0,0801052
907,3437;0,0791915
908,3079;0,0784294
909,2722;0,0778302
910,2364;0,0773747
911,2007;0,0770237
912,1649;0,076737
913,1292;0,0764915
914,0934;0,0762891
915,0576;0,0761518
916,0219;0,0761055
916,9861;0,076164
917,9503;0,076319
918,9146;0,0765429
919,8788;0,0768004
920,8430;0,0770632
921,8073;0,077319
922,7715;0,0775727
923,7357;0,0778375
924,7000;0,0781246
925,6642;0,0784347
926,6284;0,0787582
927,5927;0,0790814
928,5569;0,0793948
929,5211;0,079698
930,4854;0,0799984
931,4496;0,0803073
932,4138;0,0806356
933,3781;0,0809934
934,3423;0,081393
935,3065;0,0818504
936,2708;0,0823848
937,2350;0,0830144
938,1992;0,0837513
939,1635;0,0845995
940,1277;0,0855561
941,0919;0,0866145
942,0562;0,0877689
943,0204;0,089017
943,9846;0,0903604
944,9489;0,0918018
945,9131;0,0933407
946,8773;0,0949688
947,8416;0,0966699
948,8058;0,0984252
949,7700;0,100222
950,7343;0,102059
951,6985;0,103946
952,6627;0,105898
953,6270;0,107921
954,5912;0,110009
955,5554;0,112151
956,5197;0,114338
957,4839;0,116571
958,4481;0,118856
959,4124;0,121201
960,3766;0,123601
961,3408;0,126046
962,3051;0,12852
963,2693;0,131014
964,2335;0,133526
965,1978;0,136058
966,1620;0,138612
967,1262;0,141199
968,0905;0,143839
969,0547;0,146572
970,0189;0,149449
970,9832;0,152525
971,9474;0,155845
972,9116;0,159435
973,8759;0,163305
974,8401;0,167452
975,8043;0,17187
976,7686;0,176539
977,7328;0,18142
978,6970;0,18644
979,6613;0,191489
980,6255;0,196435
981,5897;0,201138
982,5540;0,205485
983,5182;0,209407
984,4824;0,2129
985,4467;0,216011
986,4109;0,218825
987,3751;0,221429
988,3394;0,223888
989,3036;0,226231
990,2678;0,228451
991,2321;0,230517
992,1963;0,232391
993,1605;0,23405
994,1248;0,235491
995,0890;0,236737
996,0532;0,237821
997,0175;0,238782
997,9817;0,239655
998,9459;0,240474
999,9102;0,24128
1000,8744;0,242128
1001,8386;0,24309
1002,8029;0,244242
1003,7671;0,245648
1004,7313;0,247349
1005,6956;0,24936
1006,6598;0,251679
1007,6240;0,254297
1008,5883;0,2572
1009,5525;0,260363
1010,5167;0,263744
1011,4810;0,267276
1012,4452;0,270869
1013,4094;0,274422
1014,3737;0,277838
1015,3379;0,281042
1016,3021;0,283988
1017,2664;0,286659
1018,2306;0,289059
1019,1948;0,291204
1020,1591;0,293119
1021,1233;0,294835
1022,0875;0,296391
1023,0518;0,297826
1024,0160;0,299176
1024,9802;0,300453
1025,9445;0,301647
1026,9087;0,302721
1027,8729;0,303617
1028,8372;0,304258
1029,8014;0,304548
1030,7656;0,30437
1031,7299;0,303596
1032,6941;0,302122
1033,6583;0,299906
1034,6226;0,297006
1035,5868;0,293595
1036,5510;0,289927
1037,5153;0,286295
1038,4795;0,282968
1039,4437;0,280148
1040,4080;0,277942
1041,3722;0,276368
1042,3364;0,275363
1043,3007;0,274809
1044,2649;0,274559
1045,2291;0,274466
1046,1934;0,2744
1047,1576;0,27426
1048,1218;0,273968
1049,0861;0,273458
1050,0503;0,272673
1051,0145;0,271563
1051,9788;0,270097
1052,9430;0,26827
1053,9072;0,266109
1054,8715;0,263647
1055,8357;0,260896
1056,7999;0,257825
1057,7642;0,254362
1058,7284;0,250427
1059,6926;0,245989
1060,6569;0,241106
1061,6211;0,235937
1062,5853;0,230703
1063,5496;0,225622
1064,5138;0,220857
1065,4780;0,216482
1066,4423;0,21249
1067,4065;0,208826
1068,3707;0,205418
1069,3350;0,202198
1070,2992;0,199108
1071,2634;0,196093
1072,2277;0,193097
1073,1919;0,190064
1074,1561;0,186954
1075,1204;0,183746
1076,0846;0,180456
1077,0488;0,177137
1078,0131;0,173875
1078,9773;0,170773
1079,9415;0,167935
1080,9058;0,165438
1081,8700;0,163326
1082,8342;0,161598
1083,7985;0,16022
1084,7627;0,159136
1085,7269;0,158288
1086,6912;0,157627
1087,6554;0,157117
1088,6196;0,156736
1089,5839;0,156471
1090,5481;0,156316
1091,5123;0,156265
1092,4766;0,156304
1093,4408;0,156416
1094,4050;0,15658
1095,3693;0,156778
1096,3335;0,156993
1097,2977;0,157215
1098,2620;0,15743
1099,2262;0,157621
1100,1904;0,15776
1101,1547;0,157815
1102,1189;0,15776
1103,0831;0,157582
1104,0474;0,157287
1105,0116;0,156896
1105,9758;0,156436
1106,9401;0,155925
1107,9043;0,155355
1108,8685;0,154689
1109,8328;0,153855
1110,7970;0,152768
1111,7612;0,15135
1112,7255;0,149569
1113,6897;0,147456
1114,6539;0,145117
1115,6182;0,142702
1116,5824;0,140365
1117,5466;0,138212
1118,5109;0,136271
1119,4751;0,134495
1120,4393;0,132777
1121,4036;0,131
1122,3678;0,129063
1123,3320;0,126907
1124,2963;0,124513
1125,2605;0,121896
1126,2247;0,119092
1127,1890;0,116152
1128,1532;0,113133
1129,1174;0,110094
1130,0817;0,107088
1131,0459;0,104158
1132,0101;0,101335
1132,9744;0,0986493
1133,9386;0,096141
1134,9028;0,093863
1135,8671;0,091878
1136,8313;0,0902435
1137,7955;0,0889973
1138,7598;0,0881472
1139,7240;0,0876734
1140,6882;0,0875386
1141,6525;0,0876992
1142,6167;0,088112
1143,5809;0,0887347
1144,5452;0,0895241
1145,5094;0,0904361
1146,4736;0,0914318
1147,4379;0,0924839
1148,4021;0,0935791
1149,3663;0,0947126
1150,3306;0,0958759
1151,2948;0,0970468
1152,2590;0,0981858
1153,2233;0,0992426
1154,1875;0,100166
1155,1517;0,100912
1156,1160;0,101436
1157,0802;0,101689
1158,0444;0,1016
1159,0087;0,101079
1159,9729;0,100026
1160,9371;0,0983554
1161,9014;0,0960229
1162,8656;0,0930476
1163,8298;0,0895173
1164,7941;0,0855776
1165,7583;0,081408
1166,7225;0,0771926
1167,6868;0,0730942
1168,6510;0,0692369
1169,6152;0,0656992
1170,5795;0,0625163
1171,5437;0,0596899
1172,5079;0,0571997
1173,4722;0,0550155
1174,4364;0,0531056
1175,4006;0,051441
1176,3649;0,0499968
1177,3291;0,048751
1178,2933;0,047684
1179,2576;0,0467783
1180,2218;0,0460191
1181,1860;0,0453935
1182,1503;0,0448906
1183,1145;0,0445002
1184,0787;0,0442135
1185,0430;0,0440246
1186,0072;0,0439324
1186,9714;0,0439407
1187,9357;0,0440568
1188,8999;0,0442884
1189,8641;0,0446403
1190,8284;0,0451138
1191,7926;0,0457057
1192,7568;0,0464081
1193,7211;0,0472064
1194,6853;0,0480779
1195,6495;0,0489917
1196,6138;0,0499133
1197,5780;0,0508115
1198,5422;0,0516647
1199,5065;0,0521252
1200,4707;0,0529075
1201,4349;0,0536372
1202,3992;0,0543108
1203,3634;0,0549203
1204,3276;0,0554568
1205,2919;0,0559158
1206,2561;0,0563029
1207,2203;0,0566365
1208,1846;0,0569469
1209,1488;0,0572728
1210,1130;0,0576541
1211,0773;0,0581254
1212,0415;0,0587097
1213,0057;0,0594152
1213,9700;0,0602359
1214,9342;0,0611552
1215,8984;0,0621508
1216,8627;0,0631963
1217,8269;0,0642637
1218,7911;0,0653312
1219,7554;0,0663835
1220,7196;0,0674133
1221,6838;0,0684188
1222,6481;0,0693994
1223,6123;0,0703508
1224,5765;0,0712636
1225,5408;0,0721255
1226,5050;0,0729266
1227,4692;0,0736633
1228,4335;0,0743385
1229,3977;0,0749579
1230,3619;0,075525
1231,3262;0,076037
1232,2904;0,076486
1233,2546;0,0768626
1234,2189;0,0771618
1235,1831;0,0773869
1236,1473;0,0775501
1237,1116;0,0776688
1238,0758;0,0777602
1239,0400;0,0778351
1240,0043;0,0778949
1240,9685;0,0779323
1241,9327;0,0779352
1242,8970;0,0778911
1243,8612;0,0777908
1244,8254;0,0776298
1245,7897;0,0774078
1246,7539;0,0771292
1247,7181;0,0768029
1248,6824;0,0764424
1249,6466;0,0760648
1250,6108;0,0756876
1251,5751;0,0753254
1252,5393;0,0749884
1253,5035;0,0746816
1254,4678;0,074405
1255,4320;0,0741542
1256,3962;0,0739199
1257,3605;0,0736874
1258,3247;0,0734387
1259,2889;0,0731559
1260,2532;0,072826
1261,2174;0,0724436
1262,1816;0,0720114
1263,1459;0,0715375
1264,1101;0,0710319
1265,0743;0,0705039
1266,0386;0,0699589
1267,0028;0,0693968
1267,9670;0,0688106
1268,9313;0,0681882
1269,8955;0,0675171
1270,8597;0,066791
1271,8240;0,0660144
1272,7882;0,0652038
1273,7524;0,0643843
1274,7167;0,0635843
1275,6809;0,0628279
1276,6451;0,0621285
1277,6094;0,0614834
1278,5736;0,0608735
1279,5378;0,0602701
1280,5021;0,0596479
1281,4663;0,0589992
1282,4305;0,0583396
1283,3948;0,0577023
1284,3590;0,0571241
1285,3232;0,0566312
1286,2875;0,0562321
1287,2517;0,0559198
1288,2159;0,0556813
1289,1802;0,0555076
1290,1444;0,0553991
1291,1086;0,0553645
1292,0729;0,0554151
1293,0371;0,0555602
1294,0013;0,0558036
1294,9656;0,0561435
1295,9298;0,0565733
1296,8940;0,0570842
1297,8583;0,0576665
1298,8225;0,0583118
1299,7867;0,0590141
1300,7510;0,0597705
1301,7152;0,060587
1302,6794;0,0614707
1303,6437;0,0624277
1304,6079;0,0634602
1305,5721;0,0645618
1306,5364;0,065719
1307,5006;0,0669163
1308,4648;0,0681416
1309,4291;0,0693836
1310,3933;0,0706254
1311,3575;0,0718359
1312,3218;0,0729697
1313,2860;0,0739765
1314,2502;0,0748116
1315,2145;0,0754382
1316,1787;0,0758209
1317,1429;0,0759237
1318,1072;0,0757225
1319,0714;0,0752326
1320,0356;0,0745248
1320,9999;0,0737123
1321,9641;0,0729113
1322,9283;0,072205
1323,8926;0,0716318
1324,8568;0,0711931
1325,8210;0,0708699
1326,7853;0,0706365
1327,7495;0,0704663
1328,7137;0,0703324
1329,6780;0,0702075
1330,6422;0,0700689
1331,6064;0,0699095
1332,5707;0,0697417
1333,5349;0,0695977
1334,4991;0,069508
1335,4634;0,0694721
1336,4276;0,0694294
1337,3918;0,069246
1338,3561;0,0687548
1339,3203;0,0678627
1340,2845;0,0666496
1341,2488;0,0653359
1342,2130;0,0641433
1343,1772;0,0631934
1344,1415;0,0625061
1345,1057;0,0620464
1346,0699;0,0617655
1347,0342;0,0616211
1347,9984;0,0615898
1348,9626;0,0616672
1349,9269;0,0618593
1350,8911;0,062167
1351,8553;0,0625747
1352,8196;0,0630493
1353,7838;0,0635515
1354,7480;0,0640551
1355,7123;0,0645638
1356,6765;0,065111
1357,6407;0,0657414
1358,6050;0,0664854
1359,5692;0,0673339
1360,5334;0,0682119
1361,4977;0,0689785
1362,4619;0,0695065
1363,4261;0,0697972
1364,3904;0,0699814
1365,3546;0,0701987
1366,3188;0,0705041
1367,2831;0,0708691
1368,2473;0,0712265
1369,2115;0,0715131
1370,1758;0,0716912
1371,1400;0,0717444
1372,1042;0,0716546
1373,0685;0,0713864
1374,0327;0,0709069
1374,9969;0,0702305
1375,9612;0,0694252
1376,9254;0,0685493
1377,8896;0,0676012
1378,8539;0,0665446
1379,8181;0,0653776
1380,7823;0,0641704
1381,7466;0,0630355
1382,7108;0,0620551
1383,6750;0,061233
1384,6393;0,0605012
1385,6035;0,0597622
1386,5677;0,0589495
1387,5320;0,058098
1388,4962;0,0573422
1389,4604;0,0568018
1390,4247;0,0564948
1391,3889;0,056378
1392,3531;0,056424
1393,3174;0,0566306
1394,2816;0,0569641
1395,2458;0,0573186
1396,2101;0,0575588
1397,1743;0,0576143
1398,1385;0,0575303
1399,1028;0,0574339
1400,0670;0,0574517
1401,0313;0,0576408
1401,9955;0,0579767
1402,9597;0,0583881
1403,9240;0,0588053
1404,8882;0,0591995
1405,8524;0,0595974
1406,8167;0,0600563
1407,7809;0,0606098
1408,7451;0,0612433
1409,7094;0,0619211
1410,6736;0,0626272
1411,6378;0,0633773
1412,6021;0,0641928
1413,5663;0,0650617
1414,5305;0,0659282
1415,4948;0,0667188
1416,4590;0,0673594
1417,4232;0,0677682
1418,3875;0,0679021
1419,3517;0,0678777
1420,3159;0,0679232
1421,2802;0,0681226
1422,2444;0,0683303
1423,2086;0,0683336
1424,1729;0,0680215
1425,1371;0,0674273
1426,1013;0,0666596
1427,0656;0,065805
1428,0298;0,0648853
1428,9940;0,063891
1429,9583;0,0628423
1430,9225;0,0617983
1431,8867;0,060787
1432,8510;0,0597483
1433,8152;0,0585678
1434,7794;0,0571638
1435,7437;0,0555794
1436,7079;0,0540572
1437,6721;0,052962
1438,6364;0,052486
1439,6006;0,0524928
1440,5648;0,0526995
1441,5291;0,0529094
1442,4933;0,0530821
1443,4575;0,0532747
1444,4218;0,0535461
1445,3860;0,0538992
1446,3502;0,0542879
1447,3145;0,054673
1448,2787;0,0550735
1449,2429;0,0555538
1450,2072;0,0561406
1451,1714;0,0567559
1452,1356;0,0572491
1453,0999;0,0575058
1454,0641;0,0575355
1455,0283;0,0574333
1455,9926;0,0571497
1456,9568;0,0564189
1457,9210;0,0553937
1458,8853;0,0547548
1459,8495;0,0547122
1460,8137;0,0548808
1461,7780;0,0548349
1462,7422;0,0543646
1463,7064;0,0534588
1464,6707;0,0522585
1465,6349;0,0510247
1466,5991;0,049983
1467,5634;0,049134
1468,5276;0,0482947
1469,4918;0,0472901
1470,4561;0,0460484
1471,4203;0,0445394
1472,3845;0,0426991
1473,3488;0,0405741
1474,3130;0,0384929
1475,2772;0,0368078
1476,2415;0,0355931
1477,2057;0,034722
1478,1699;0,0340501
1479,1342;0,0334826
1480,0984;0,0329685
1481,0626;0,0324928
1482,0269;0,0320811
1482,9911;0,0317912
1483,9553;0,031686
1484,9196;0,0318109
1485,8838;0,0321863
1486,8480;0,0327735
1487,8123;0,0333847
1488,7765;0,0336919
1489,7407;0,0335478
1490,7050;0,0332237
1491,6692;0,0330767
1492,6334;0,0332091
1493,5977;0,0335527
1494,5619;0,0340634
1495,5261;0,0347695
1496,4904;0,0356835
1497,4546;0,0367358
1498,4188;0,0378568
1499,3831;0,0390216
1500,3473;0,0401305
1501,3115;0,0409794
1502,2758;0,0414049
1503,2400;0,0414551
1504,2042;0,0414976
1505,1685;0,0421156
1506,1327;0,0434587
1507,0969;0,0445365
1508,0612;0,0444815
1509,0254;0,0438462
1509,9896;0,0432732
1510,9539;0,0428229
1511,9181;0,0423942
1512,8823;0,0419708
1513,8466;0,0415953
1514,8108;0,0412662
1515,7750;0,0408906
1516,7393;0,0403442
1517,7035;0,0395742
1518,6677;0,0386392
1519,6320;0,0376713
1520,5962;0,036814
1521,5604;0,0361777
1522,5247;0,0358032
1523,4889;0,0356312
1524,4531;0,0355313
1525,4174;0,035397
1526,3816;0,0352198
1527,3458;0,03507
1528,3101;0,0350095
1529,2743;0,0350425
1530,2385;0,0351522
1531,2028;0,0353546
1532,1670;0,0356805
1533,1312;0,0361073
1534,0955;0,0365406
1535,0597;0,0368558
1536,0239;0,0369497
1536,9882;0,0368346
1537,9524;0,0367517
1538,9166;0,0371129
1539,8809;0,0380174
1540,8451;0,0387907
1541,8093;0,0388733
1542,7736;0,0386066
1543,7378;0,0383741
1544,7020;0,0382282
1545,6663;0,0381584
1546,6305;0,0381934
1547,5947;0,0383394
1548,5590;0,0385385
1549,5232;0,0387029
1550,4874;0,0387821
1551,4517;0,0387965
1552,4159;0,0387964
1553,3801;0,0387798
1554,3444;0,0386659
1555,3086;0,0383668
1556,2728;0,0378579
1557,2371;0,0370806
1558,2013;0,0358448
1559,1655;0,0345313
1560,1298;0,0342961
1561,0940;0,0354064
1562,0582;0,0371163
1563,0225;0,0387101
1563,9867;0,039864
1564,9509;0,0405566
1565,9152;0,0409262
1566,8794;0,0411636
1567,8436;0,0414315
1568,8079;0,0418209
1569,7721;0,0423579
1570,7363;0,0430109
1571,7006;0,0436844
1572,6648;0,0442753
1573,6290;0,0447718
1574,5933;0,0452752
1575,5575;0,0458876
1576,5217;0,0466148
1577,4860;0,0474474
1578,4502;0,0484014
1579,4144;0,0494201
1580,3787;0,050399
1581,3429;0,051291
1582,3071;0,0521293
1583,2714;0,0529789
1584,2356;0,0538833
1585,1998;0,0548501
1586,1641;0,0558599
1587,1283;0,0568799
1588,0925;0,0578705
1589,0568;0,0587894
1590,0210;0,0595986
1590,9852;0,0602684
1591,9495;0,060774
1592,9137;0,0610881
1593,8779;0,0611859
1594,8422;0,0610652
1595,8064;0,0607659
1596,7706;0,0603655
1597,7349;0,0599484
1598,6991;0,0595726
1599,6633;0,0592549
1600,6276;0,0589781
1601,5918;0,0587156
1602,5560;0,0584584
1603,5203;0,0582231
1604,4845;0,0580324
1605,4487;0,0578844
1606,4130;0,0577446
1607,3772;0,057569
1608,3414;0,0573476
1609,3057;0,0571272
1610,2699;0,056976
1611,2341;0,056907
1612,1984;0,0568525
1613,1626;0,0567272
1614,1268;0,056508
1615,0911;0,0562551
1616,0553;0,0560853
1617,0195;0,0561523
1617,9838;0,0565633
1618,9480;0,0572354
1619,9122;0,0579342
1620,8765;0,058456
1621,8407;0,058729
1622,8049;0,058798
1623,7692;0,0587689
1624,7334;0,0587501
1625,6976;0,058797
1626,6619;0,058903
1627,6261;0,0590487
1628,5903;0,0592321
1629,5546;0,059438
1630,5188;0,0595995
1631,4830;0,0596261
1632,4473;0,0594922
1633,4115;0,0592913
1634,3757;0,0591487
1635,3400;0,059047
1636,3042;0,0589166
1637,2684;0,058892
1638,2327;0,0591099
1639,1969;0,0594777
1640,1611;0,0598105
1641,1254;0,0599874
1642,0896;0,0599854
1643,0538;0,0598694
1644,0181;0,059766
1644,9823;0,0597667
1645,9465;0,0597952
1646,9108;0,0596799
1647,8750;0,05937
1648,8392;0,0588529
1649,8035;0,0580198
1650,7677;0,0567798
1651,7319;0,0551423
1652,6962;0,0531761
1653,6604;0,0513086
1654,6246;0,0504206
1655,5889;0,0506812
1656,5531;0,0513829
1657,5173;0,0518472
1658,4816;0,0517876
1659,4458;0,0512187
1660,4100;0,0502898
1661,3743;0,0491754
1662,3385;0,0480619
1663,3027;0,0471427
1664,2670;0,0465118
1665,2312;0,0460952
1666,1954;0,0457307
1667,1597;0,0452706
1668,1239;0,0446073
1669,0881;0,0436863
1670,0524;0,0425781
1671,0166;0,0414595
1671,9808;0,040421
1672,9451;0,0393925
1673,9093;0,0383033
1674,8735;0,0372519
1675,8378;0,0365021
1676,8020;0,0362714
1677,7662;0,0365041
1678,7305;0,0368882
1679,6947;0,037063
1680,6589;0,0367822
1681,6232;0,0359326
1682,5874;0,0344787
1683,5516;0,032562
1684,5159;0,0307654
1685,4801;0,0297642
1686,4443;0,0295873
1687,4086;0,0297406
1688,3728;0,0297559
1689,3370;0,029428
1690,3013;0,0287839
1691,2655;0,0279734
1692,2297;0,0271753
1693,1940;0,0265471
1694,1582;0,0261887
1695,1224;0,0260832
1696,0867;0,02604
1697,0509;0,0257427
1698,0151;0,0249677
1698,9794;0,0238467
1699,9436;0,0228716
1700,9078;0,0225199
1701,8721;0,0228697
1702,8363;0,0236091
1703,8005;0,0243178
1704,7648;0,0247077
1705,7290;0,024724
1706,6932;0,0245315
1707,6575;0,0243893
1708,6217;0,0244759
1709,5859;0,0248077
1710,5502;0,0252985
1711,5144;0,0258562
1712,4786;0,0264306
1713,4429;0,0269981
1714,4071;0,0274942
1715,3713;0,0277232
1716,3356;0,0274023
1717,2998;0,026547
1718,2640;0,0257067
1719,2283;0,0254099
1720,1925;0,0256671
1721,1567;0,0261658
1722,1210;0,0266116
1723,0852;0,0268728
1724,0494;0,0269834
1725,0137;0,0270855
1725,9779;0,0273389
1726,9421;0,0278266
1727,9064;0,028505
1728,8706;0,029225
1729,8348;0,0297974
1730,7991;0,0300544
1731,7633;0,0298808
1732,7275;0,0292614
1733,6918;0,0284031
1734,6560;0,0277254
1735,6202;0,0274971
1736,5845;0,0275982
1737,5487;0,0277293
1738,5129;0,0276901
1739,4772;0,0274693
1740,4414;0,0271861
1741,4056;0,0269717
1742,3699;0,0268689
1743,3341;0,0268186
1744,2983;0,0267236
1745,2626;0,0265135
1746,2268;0,0261482
1747,1910;0,0255645
1748,1553;0,0246349
1749,1195;0,0232478
1750,0837;0,0215063
1751,0480;0,0197708
1752,0122;0,0183907
1752,9764;0,0174601
1753,9407;0,0168543
1754,9049;0,016394
1755,8691;0,0159537
1756,8334;0,0154847
1757,7976;0,0149858
1758,7618;0,0144588
1759,7261;0,0138889
1760,6903;0,0132657
1761,6545;0,0126256
1762,6188;0,01206
1763,5830;0,0116607
1764,5472;0,0114529
1765,5115;0,011387
1766,4757;0,0113827
1767,4399;0,0113725
1768,4042;0,011314
1769,3684;0,0111772
1770,3326;0,01093
1771,2969;0,0105537
1772,2611;0,0101031
1773,2253;0,00972874
1774,1896;0,00956746
1775,1538;0,00961999
1776,1180;0,00977218
1777,0823;0,00990104
1778,0465;0,00994211
1779,0107;0,00988938
1779,9750;0,00976247
1780,9392;0,00957903
1781,9034;0,00934905
1782,8677;0,00908854
1783,8319;0,0088389
1784,7961;0,00866745
1785,7604;0,00863463
1786,7246;0,00875066
1787,6888;0,00896654
1788,6531;0,00920873
1789,6173;0,00941618
1790,5815;0,00954089
1791,5458;0,00954019
1792,5100;0,00942612
1793,4742;0,00930652
1794,4385;0,00928728
1795,4027;0,00936156
1796,3669;0,00944492
1797,3312;0,0094689
1798,2954;0,00941761
1799,2596;0,00930343
1800,2239;0,00913546
1801,1881;0,00892089
1802,1523;0,00868508
1803,1166;0,00847266
1804,0808;0,00832914
1805,0450;0,0082844
1806,0093;0,0083435
1806,9735;0,00848105
1807,9377;0,00864009
1808,9020;0,00874362
1809,8662;0,0087261
1810,8304;0,00857395
1811,7947;0,00833768
1812,7589;0,00809471
1813,7231;0,00789867
1814,6874;0,00776162
1815,6516;0,0076694
1816,6158;0,00760413
1817,5801;0,00756003
1818,5443;0,00754885
1819,5085;0,00759086
1820,4728;0,00769701
1821,4370;0,00785787
1822,4012;0,0080444
1823,3655;0,00821683
1824,3297;0,00834196
1825,2939;0,00841133
1826,2582;0,00843835
1827,2224;0,00843155
1828,1866;0,00837239
1829,1509;0,00822762
1830,1151;0,00799793
1831,0793;0,00775033
1832,0436;0,00757276
1833,0078;0,00749924
1833,9720;0,00749922
1834,9363;0,00752391
1835,9005;0,00754551
1836,8647;0,00756582
1837,8290;0,00760126
1838,7932;0,00765854
1839,7574;0,00772266
1840,7217;0,00777323
1841,6859;0,00780697
1842,6501;0,00783115
1843,6144;0,00783759
1844,5786;0,00780883
1845,5428;0,00774917
1846,5071;0,00766974
1847,4713;0,00755335
1848,4355;0,00737132
1849,3998;0,00712652
1850,3640;0,00686627
1851,3282;0,00665639
1852,2925;0,00654201
1853,2567;0,00652809
1854,2209;0,00658882
1855,1852;0,00669072
1856,1494;0,00680705
1857,1136;0,00691866
1858,0779;0,00700682
1859,0421;0,00705476
1860,0063;0,00706072
1860,9706;0,00705035
1861,9348;0,00707164
1862,8990;0,0071717
1863,8633;0,0073723
1864,8275;0,00765947
1865,7917;0,00797983
1866,7560;0,00823426
1867,7202;0,008296
1868,6844;0,00809432
1869,6487;0,00769976
1870,6129;0,00727388
1871,5771;0,00693209
1872,5414;0,00669094
1873,5056;0,00651593
1874,4698;0,00637829
1875,4341;0,00627266
1876,3983;0,00620796
1877,3625;0,00619016
1878,3268;0,00621467
1879,2910;0,00626725
1880,2552;0,00633195
1881,2195;0,00639763
1882,1837;0,00645974
1883,1479;0,00651821
1884,1122;0,00657416
1885,0764;0,00662699
1886,0406;0,00667261
1887,0049;0,00670174
1887,9691;0,00670051
1888,9333;0,00665978
1889,8976;0,00659092
1890,8618;0,00652838
1891,8260;0,00650704
1892,7903;0,00653396
1893,7545;0,00657924
1894,7188;0,00659059
1895,6830;0,00652425
1896,6472;0,00637677
1897,6115;0,00619271
1898,5757;0,00603736
1899,5399;0,00595548
1900,5042;0,00594716
1901,4684;0,00597401
1902,4326;0,00598984
1903,3969;0,00597605
1904,3611;0,00595617
1905,3253;0,00597747
1906,2896;0,00607318
1907,2538;0,00623163
1908,2180;0,00639382
1909,1823;0,00648581
1910,1465;0,00646781
1911,1107;0,00635924
1912,0750;0,00621648
1913,0392;0,00608874
1914,0034;0,0059933
1914,9677;0,00592091
1915,9319;0,00585575
1916,8961;0,00579545
1917,8604;0,00576078
1918,8246;0,00578227
1919,7888;0,00586764
1920,7531;0,0059802
1921,7173;0,00605132
1922,6815;0,00601817
1923,6458;0,00586225
1924,6100;0,00562295
1925,5742;0,00537336
1926,5385;0,00517727
1927,5027;0,00506276
1928,4669;0,00502453
1929,4312;0,00503866
1930,3954;0,00507585
1931,3596;0,00510874
1932,3239;0,00511338
1933,2881;0,00507208
1934,2523;0,00497991
1935,2166;0,00485123
1936,1808;0,0047188
1937,1450;0,00462228
1938,1093;0,00459255
1939,0735;0,00464081
1940,0377;0,00475315
1941,0020;0,00488767
1941,9662;0,00498078
1942,9304;0,00497313
1943,8947;0,00484397
1944,8589;0,00462377
1945,8231;0,00437493
1946,7874;0,0041606
1947,7516;0,00401907
1948,7158;0,00394878
1949,6801;0,00390916
1950,6443;0,00384166
1951,6085;0,00370274
1952,5728;0,00348778
1953,5370;0,00322938
1954,5012;0,00297246
1955,4655;0,00274423
1956,4297;0,00253981
1957,3939;0,00233117
1958,3582;0,00209073
1959,3224;0,00181362
1960,2866;0,00152603
1961,2509;0,00127696
1962,2151;0,00111842
1963,1793;0,00108251
1964,1436;0,00116068
1965,1078;0,00128914
1966,0720;0,00135276
1967,0363;0,00122544
1968,0005;0,000840314
1968,9647;0,000242551
1969,9290;-0,000423388
1970,8932;-0,000985253
1971,8574;-0,0013232
1972,8217;-0,00141279
1973,7859;-0,00131312
1974,7501;-0,0011117
1975,7144;-0,000858691
1976,6786;-0,000544658
1977,6428;-0,000139612
1978,6071;0,000345266
1979,5713;0,000837511
1980,5355;0,0012434
1981,4998;0,00150633
1982,4640;0,00163579
1983,4282;0,0016923
1984,3925;0,00174519
1985,3567;0,0018325
1986,3209;0,00194843
1987,2852;0,00206416
1988,2494;0,00216231
1989,2136;0,00225541
1990,1779;0,00237331
1991,1421;0,00252941
1992,1063;0,00269499
1993,0706;0,00280649
1994,0348;0,00280211
1994,9990;0,00265909
1995,9633;0,00240698
1996,9275;0,00211334
1997,8917;0,0018525
1998,8560;0,00167228
1999,8202;0,00157483
2000,7844;0,00152155
2001,7487;0,00145843
2002,7129;0,00134633
2003,6771;0,00118176
2004,6414;0,00100182
2005,6056;0,000872178
2006,5698;0,000861093
2007,5341;0,00100483
2008,4983;0,0012811
2009,4625;0,00160733
2010,4268;0,00186771
2011,3910;0,00195835
2012,3552;0,00183045
2013,3195;0,00151449
2014,2837;0,0011136
2015,2479;0,000763581
2016,2122;0,000572506
2017,1764;0,000570406
2018,1406;0,000702696
2019,1049;0,00087355
2020,0691;0,00100685
2021,0333;0,00108137
2021,9976;0,00112153
2022,9618;0,0011581
2023,9260;0,00119074
2024,8903;0,00118066
2025,8545;0,0010793
2026,8187;0,000872307
2027,7830;0,000605093
2028,7472;0,000370088
2029,7114;0,000262742
2030,6757;0,000334323
2031,6399;0,000570199
2032,6041;0,000904003
2033,5684;0,00125747
2034,5326;0,00157919
2035,4968;0,00186079
2036,4611;0,00212437
2037,4253;0,00239872
2038,3895;0,00269695
2039,3538;0,00300616
2040,3180;0,00328965
2041,2822;0,00350115
2042,2465;0,00360896
2043,2107;0,00362047
2044,1749;0,00359358
2045,1392;0,00362278
2046,1034;0,00379827
2047,0676;0,00415247
2048,0320;0,00462769
2048,9961;0,00509843
2049,9604;0,00544142
2050,9246;0,00560301
2051,8889;0,00561989
2052,8530;0,00558992
2053,8174;0,00561693
2054,7815;0,00575581
2055,7458;0,00598651
2056,7100;0,0062289
2057,6743;0,00639239
2058,6384;0,00642992
2059,6028;0,00636493
2060,5669;0,00627831
2061,5313;0,00626474
2062,4954;0,00638167
2063,4597;0,00661652
2064,4238;0,00689025
2065,3882;0,00709737
2066,3523;0,00716115
2067,3167;0,00707214
2068,2808;0,00688885
2069,2451;0,00670435
2070,2092;0,00660147
2071,1736;0,0066208
2072,1377;0,00675283
2073,1021;0,00695334
2074,0662;0,00716601
2075,0305;0,00734011
2075,9946;0,00743936
2076,9590;0,0074472
2077,9231;0,00737206
2078,8875;0,00724895
2079,8516;0,00713038
2080,8159;0,00706594
2081,7800;0,00708058
2082,7444;0,00716585
2083,7085;0,00729044
2084,6729;0,0074213
2085,6370;0,00754033
2086,6013;0,00764408
2087,5654;0,0077311
2088,5298;0,00779066
2089,4939;0,00780593
2090,4583;0,00776999
2091,4224;0,00770055
2092,3867;0,00763806
2093,3508;0,00762473
2094,3152;0,00767683
2095,2793;0,00777045
2096,2437;0,00785334
2097,2078;0,00787672
2098,1721;0,00782561
2099,1362;0,00772692
2100,1006;0,00763413
2101,0647;0,00759053
2102,0291;0,00761833
2102,9932;0,00770366
2103,9575;0,00780977
2104,9216;0,00789726
2105,8860;0,00794217
2106,8501;0,00794411
2107,8145;0,00792215
2108,7786;0,00790272
2109,7429;0,00790643
2110,7070;0,00794001
2111,6714;0,0079958
2112,6355;0,00805701
2113,5999;0,00810496
2114,5640;0,00812547
2115,5283;0,00811356
2116,4924;0,00807642
2117,4568;0,00803323
2118,4209;0,00800981
2119,3853;0,00802726
2120,3494;0,00808861
2121,3137;0,00817131
2122,2778;0,00823274
2123,2422;0,00822878
2124,2063;0,00813606
2125,1707;0,00796464
2126,1348;0,00775268
2127,0991;0,00754611
2128,0632;0,00737609
2129,0276;0,0072489
2129,9917;0,00715321
2130,9561;0,00707761
2131,9202;0,00702351
2132,8845;0,00700248
2133,8486;0,00701901
2134,8130;0,00705287
2135,7771;0,00705907
2136,7415;0,00699065
2137,7056;0,00682963
2138,6699;0,00660189
2139,6340;0,00636422
2140,5984;0,00617233
2141,5625;0,00605182
2142,5269;0,00599075
2143,4910;0,00595601
2144,4553;0,00591916
2145,4194;0,00587234
2146,3838;0,0058253
2147,3479;0,00579039
2148,3123;0,00577
2149,2764;0,00575409
2150,2407;0,00572297
2151,2048;0,00564662
2152,1692;0,00548061
2153,1333;0,00517055
2154,0977;0,00467723
2155,0618;0,00402036
2156,0261;0,00331779
2156,9902;0,00277834
2157,9546;0,00261312
2158,9187;0,00289544
2159,8831;0,00349122
2160,8472;0,0041494
2161,8115;0,0046708
2162,7756;0,00500193
2163,7400;0,00520842
2164,7041;0,00538638
2165,6685;0,005583
2166,6326;0,00576737
2167,5969;0,005857
2168,5610;0,00577518
2169,5254;0,00550263
2170,4895;0,00510004
2171,4539;0,00469647
2172,4180;0,00444878
2173,3823;0,0044817
2174,3464;0,00482786
2175,3108;0,00539868
2176,2749;0,0060119
2177,2393;0,00647009
2178,2034;0,00664809
2179,1677;0,00654055
2180,1318;0,00624738
2181,0962;0,00591194
2182,0603;0,00565149
2183,0247;0,00552011
2183,9888;0,0055183
2184,9531;0,0056267
2185,9172;0,00582734
2186,8816;0,00609776
2187,8457;0,00639501
2188,8101;0,00665665
2189,7742;0,00682719
2190,7385;0,00689056
2191,7026;0,00687968
2192,6670;0,00685203
2193,6311;0,00684841
2194,5955;0,00686688
2195,5596;0,00687111
2196,5239;0,00682498
2197,4880;0,00672567
2198,4524;0,00661096
2199,4165;0,00653818
2200,3809;0,00655247
2201,3450;0,00666556
2202,3093;0,00685374
2203,2734;0,00706867
2204,2378;0,00725107
2205,2019;0,00734369
2206,1663;0,00730728
2207,1304;0,00713993
2208,0947;0,006891
2209,0588;0,00665504
2210,0232;0,00653927
2210,9873;0,00661564
2211,9517;0,0068826
2212,9158;0,00726002
2213,8801;0,0076223
2214,8442;0,00785226
2215,8086;0,00788729
2216,7727;0,00773663
2217,7371;0,0074671
2218,7012;0,0071708
2219,6655;0,0069327
2220,6296;0,00680946
2221,5940;0,00682166
2222,5581;0,00695606
2223,5225;0,00717437
2224,4866;0,00742603
2225,4509;0,00766197
2226,4150;0,00784546
2227,3794;0,00795633
2228,3435;0,00799224
2229,3079;0,00796497
2230,2720;0,00789814
2231,2363;0,00782418
2232,2004;0,00777742
2233,1648;0,00778224
2234,1289;0,00784166
2235,0933;0,00793513
2236,0574;0,00802973
2237,0217;0,00809928
2237,9858;0,00813833
2238,9502;0,00816055
2239,9143;0,00818358
2240,8787;0,00821281
2241,8428;0,00823828
2242,8071;0,00824696
2243,7712;0,00823903
2244,7356;0,00823231
2245,6997;0,0082495
2246,6641;0,00829854
2247,6282;0,00836424
2248,5925;0,00842041
2249,5566;0,00845414
2250,5210;0,00848179
2251,4851;0,00854155
2252,4495;0,00866534
2253,4136;0,00885024
2254,3779;0,00905149
2255,3420;0,00920474
2256,3064;0,00926314
2257,2705;0,00922438
2258,2349;0,00913074
2259,1990;0,00904475
2260,1633;0,00901725
2261,1274;0,00906561
2262,0918;0,0091706
2263,0559;0,00928942
2264,0203;0,00937628
2264,9844;0,00940112
2265,9487;0,00935991
2266,9128;0,00927424
2267,8772;0,00918139
2268,8413;0,00911931
2269,8057;0,0091129
2270,7698;0,00916682
2271,7341;0,00926673
2272,6982;0,00938669
2273,6626;0,00949836
2274,6267;0,00957858
2275,5911;0,00961451
2276,5552;0,00960673
2277,5195;0,00957051
2278,4836;0,0095333
2279,4480;0,00952759
2280,4121;0,00958037
2281,3765;0,00970424
2282,3406;0,00989464
2283,3049;0,0101346
2284,2690;0,0104039
2285,2334;0,0106872
2286,1975;0,0109785
2287,1619;0,0112801
2288,1260;0,0115995
2289,0903;0,0119437
2290,0544;0,0123153
2291,0188;0,0127096
2291,9829;0,0131158
2292,9473;0,0135205
2293,9114;0,0139133
2294,8757;0,0142902
2295,8398;0,0146521
2296,8042;0,0149995
2297,7683;0,0153268
2298,7327;0,0156225
2299,6968;0,0158762
2300,6611;0,0160898
2301,6252;0,0162851
2302,5896;0,016501
2303,5537;0,0167821
2304,5181;0,0171596
2305,4822;0,0176337
2306,4465;0,0181633
2307,4106;0,0186697
2308,3750;0,0190567
2309,3391;0,0192431
2310,3035;0,0191963
2311,2676;0,0189507
2312,2319;0,0185979
2313,1960;0,0182485
2314,1604;0,0179855
2315,1245;0,0178358
2316,0889;0,0177755
2317,0530;0,0177608
2318,0173;0,0177608
2318,9814;0,0177736
2319,9458;0,0178185
2320,9099;0,0179134
2321,8743;0,018057
2322,8384;0,0182239
2323,8027;0,0183701
2324,7668;0,0184426
2325,7312;0,0183923
2326,6953;0,0181903
2327,6597;0,017839
2328,6238;0,0173725
2329,5881;0,0168472
2330,5522;0,0163282
2331,5166;0,0158706
2332,4807;0,0154984
2333,4451;0,0151981
2334,4092;0,0149391
2335,3735;0,0147108
2336,3376;0,0145474
2337,3020;0,0145197
2338,2661;0,0146923
2339,2305;0,0150688
2340,1946;0,0155569
2341,1589;0,0159758
2342,1230;0,0161286
2343,0874;0,0159671
2344,0515;0,0157571
2345,0159;0,0159603
2345,9800;0,0168093
2346,9443;0,0180809
2347,9084;0,0192958
2348,8728;0,0200364
2349,8369;0,0201295
2350,8013;0,0196707
2351,7654;0,0189405
2352,7297;0,0182453
2353,6938;0,0177655
2354,6582;0,017526
2355,6223;0,0174815
2356,5867;0,0175673
2357,5508;0,0176773
2358,5151;0,0176774
2359,4792;0,0174939
2360,4436;0,0171773
2361,4077;0,0168476
2362,3721;0,0165774
2363,3362;0,0163441
2364,3005;0,0160816
2365,2646;0,0157548
2366,2290;0,0153807
2367,1931;0,0149968
2368,1575;0,0146269
2369,1216;0,0142791
2370,0859;0,0139622
2371,0500;0,0136959
2372,0144;0,0135051
2372,9785;0,0134093
2373,9429;0,0134163
2374,9070;0,0135224
2375,8713;0,0137155
2376,8354;0,0139738
2377,7998;0,0142623
2378,7639;0,0145302
2379,7283;0,0147134
2380,6924;0,0147472
2381,6567;0,0145833
2382,6208;0,0142086
2383,5852;0,0136538
2384,5493;0,0129892
2385,5137;0,0123071
2386,4778;0,0116956
2387,4421;0,0112153
2388,4063;0,0108853
2389,3706;0,0106864
2390,3347;0,0105774
2391,2991;0,0105167
2392,2632;0,0104787
2393,2275;0,010458
2394,1917;0,0104613
2395,1560;0,010494
2396,1201;0,0105503
2397,0845;0,0106127
2398,0486;0,0106606
2399,0129;0,0106781
2399,9771;0,0106621
2400,9414;0,0106225
2401,9055;0,0105755
2402,8699;0,010537
2403,8340;0,0105178
2404,7983;0,0105231
2405,7625;0,0105537
2406,7268;0,0106066
2407,6909;0,0106744
2408,6553;0,0107454
2409,6194;0,0108042
2410,5837;0,0108377
2411,5479;0,0108412
2412,5122;0,0108215
2413,4763;0,0107947
2414,4407;0,0107789
2415,4048;0,0107862
2416,3691;0,0108176
2417,3333;0,0108647
2418,2976;0,0109145
2419,2617;0,0109551
2420,2261;0,0109788
2421,1902;0,010982
2422,1545;0,0109661
2423,1187;0,0109372
2424,0830;0,010907
2425,0471;0,01089
2426,0115;0,0108991
2426,9756;0,01094
2427,9399;0,0110087
2428,9041;0,0110938
2429,8684;0,0111812
2430,8325;0,0112593
2431,7969;0,0113203
2432,7610;0,0113599
2433,7253;0,0113762
2434,6895;0,0113706
2435,6538;0,0113501
2436,6179;0,011327
2437,5823;0,0113147
2438,5464;0,011323
2439,5107;0,0113531
2440,4749;0,011399
2441,4392;0,0114518
2442,4033;0,0115054
2443,3677;0,0115575
2444,3318;0,0116085
2445,2961;0,0116575
2446,2603;0,011701
2447,2246;0,0117344
2448,1887;0,011755
2449,1531;0,011764
2450,1172;0,0117661
2451,0815;0,0117683
2452,0457;0,0117775
2453,0100;0,0117994
2453,9741;0,0118369
2454,9385;0,0118892
2455,9026;0,0119498
2456,8669;0,0120085
2457,8311;0,0120541
2458,7954;0,0120792
2459,7595;0,0120828
2460,7239;0,0120702
2461,6880;0,01205
2462,6523;0,0120312
2463,6165;0,012022
2464,5808;0,012029
2465,5449;0,0120578
2466,5093;0,0121103
2467,4734;0,0121824
2468,4377;0,0122621
2469,4019;0,0123328
2470,3662;0,0123787
2471,3303;0,0123911
2472,2947;0,012373
2473,2588;0,0123373
2474,2231;0,0123016
2475,1873;0,0122817
2476,1516;0,0122856
2477,1157;0,012311
2478,0801;0,0123469
2479,0442;0,0123781
2480,0085;0,0123928
2480,9727;0,0123889
2481,9370;0,0123759
2482,9011;0,0123718
2483,8655;0,0123946
2484,8296;0,0124535
2485,7939;0,012543
2486,7581;0,0126446
2487,7224;0,0127341
2488,6865;0,012791
2489,6509;0,0128065
2490,6150;0,0127847
2491,5793;0,0127397
2492,5435;0,0126889
2493,5078;0,0126476
2494,4719;0,0126251
2495,4363;0,0126241
2496,4004;0,0126428
2497,3647;0,0126772
2498,3289;0,012723
2499,2932;0,0127763
2500,2573;0,0128325
2501,2217;0,0128855
2502,1858;0,0129271
2503,1501;0,0129499
2504,1143;0,0129499
2505,0786;0,0129309
2506,0427;0,0129045
2507,0071;0,0128872
2507,9712;0,0128938
2508,9355;0,0129303
2509,8997;0,0129915
2510,8640;0,0130619
2511,8281;0,0131236
2512,7925;0,0131628
2513,7566;0,0131749
2514,7209;0,0131644
2515,6851;0,0131408
2516,6494;0,0131139
2517,6135;0,0130905
2518,5779;0,0130748
2519,5420;0,0130699
2520,5063;0,0130794
2521,4705;0,0131063
2522,4348;0,0131506
2523,3989;0,0132076
2524,3633;0,013268
2525,3274;0,0133205
2526,2917;0,013356
2527,2559;0,0133708
2528,2202;0,0133677
2529,1843;0,0133543
2530,1487;0,0133403
2531,1128;0,0133341
2532,0771;0,0133402
2533,0413;0,0133582
2534,0056;0,0133832
2534,9697;0,0134087
2535,9341;0,01343
2536,8982;0,0134468
2537,8625;0,013462
2538,8267;0,0134791
2539,7910;0,0134978
2540,7551;0,0135126
2541,7195;0,0135165
2542,6836;0,0135057
2543,6479;0,0134845
2544,6121;0,0134641
2545,5764;0,0134577
2546,5405;0,013473
2547,5049;0,0135081
2548,4690;0,013552
2549,4333;0,0135904
2550,3975;0,0136112
2551,3618;0,0136095
2552,3259;0,0135887
2553,2903;0,0135592
2554,2544;0,0135342
2555,2188;0,013525
2556,1829;0,0135366
2557,1472;0,0135659
2558,1113;0,0136034
2559,0757;0,013638
2560,0398;0,0136626
2561,0042;0,0136756
2561,9683;0,0136803
2562,9326;0,0136811
2563,8967;0,0136806
2564,8611;0,0136806
2565,8252;0,0136836
2566,7896;0,0136934
2567,7537;0,0137143
2568,7180;0,0137473
2569,6821;0,0137886
2570,6465;0,0138315
2571,6106;0,0138693
2572,5750;0,0138986
2573,5391;0,0139196
2574,5034;0,0139332
2575,4675;0,0139399
2576,4319;0,0139392
2577,3960;0,0139332
2578,3604;0,0139276
2579,3245;0,0139307
2580,2888;0,0139491
2581,2529;0,0139829
2582,2173;0,0140247
2583,1814;0,0140637
2584,1458;0,0140914
2585,1099;0,0141067
2586,0742;0,0141152
2587,0383;0,0141248
2588,0027;0,0141409
2588,9668;0,0141638
2589,9312;0,0141902
2590,8953;0,0142167
2591,8596;0,0142418
2592,8237;0,0142654
2593,7881;0,0142868
2594,7522;0,0143038
2595,7166;0,0143147
2596,6807;0,0143207
2597,6450;0,0143282
2598,6091;0,0143468
2599,5735;0,0143837
2600,5376;0,0144397
2601,5020;0,014507
2602,4661;0,0145733
2603,4304;0,0146268
2604,3945;0,0146619
2605,3589;0,0146802
2606,3230;0,0146892
2607,2874;0,0146984
2608,2515;0,0147169
2609,2158;0,0147504
2610,1799;0,0148002
2611,1443;0,0148619
2612,1084;0,0149258
2613,0728;0,0149798
2614,0369;0,0150143
2615,0012;0,0150272
2615,9653;0,0150257
2616,9297;0,0150231
2617,8938;0,0150329
2618,8582;0,0150615
2619,8223;0,0151068
2620,7866;0,01516
2621,7507;0,0152115
2622,7151;0,0152553
2623,6792;0,0152905
2624,6436;0,0153201
2625,6077;0,0153474
2626,5720;0,0153749
2627,5361;0,0154038
2628,5005;0,0154343
2629,4646;0,0154661
2630,4290;0,0154995
2631,3931;0,0155348
2632,3574;0,0155733
2633,3215;0,0156162
2634,2859;0,0156633
2635,2500;0,0157114
2636,2144;0,0157549
2637,1785;0,0157878
2638,1428;0,0158088
2639,1069;0,015823
2640,0713;0,0158409
2641,0354;0,015873
2641,9998;0,0159235
2642,9639;0,0159881
2643,9282;0,0160559
2644,8923;0,016116
2645,8567;0,0161628
2646,8208;0,0161976
2647,7852;0,0162259
2648,7493;0,0162535
2649,7136;0,0162834
2650,6777;0,0163156
2651,6421;0,0163496
2652,6062;0,0163846
2653,5706;0,0164209
2654,5347;0,0164578
2655,4990;0,0164942
2656,4631;0,0165286
2657,4275;0,0165605
2658,3916;0,0165915
2659,3560;0,0166244
2660,3201;0,0166619
2661,2844;0,0167048
2662,2485;0,0167515
2663,2129;0,0167978
2664,1770;0,0168388
2665,1414;0,0168711
2666,1055;0,0168946
2667,0698;0,0169129
2668,0339;0,0169321
2668,9983;0,0169582
2669,9624;0,016994
2670,9268;0,0170378
2671,8909;0,0170847
2672,8552;0,0171294
2673,8193;0,0171691
2674,7837;0,0172042
2675,7478;0,0172372
2676,7122;0,0172699
2677,6763;0,0173022
2678,6406;0,0173327
2679,6047;0,0173617
2680,5691;0,0173919
2681,5332;0,0174277
2682,4976;0,0174727
2683,4617;0,0175263
2684,4260;0,0175834
2685,3901;0,0176372
2686,3545;0,0176824
2687,3186;0,0177184
2688,2830;0,0177488
2689,2471;0,0177796
2690,2114;0,0178159
2691,1755;0,0178601
2692,1399;0,017911
2693,1040;0,0179648
2694,0684;0,0180167
2695,0325;0,0180628
2695,9968;0,0181016
2696,9609;0,0181345
2697,9253;0,0181654
2698,8894;0,0181989
2699,8538;0,0182379
2700,8179;0,018283
2701,7822;0,0183325
2702,7463;0,018384
2703,7107;0,0184358
2704,6748;0,0184874
2705,6392;0,0185389
2706,6033;0,0185901
2707,5676;0,01864
2708,5317;0,0186873
2709,4961;0,0187314
2710,4602;0,0187727
2711,4246;0,0188128
2712,3887;0,0188537
2713,3530;0,0188966
2714,3171;0,0189415
2715,2815;0,0189865
2716,2456;0,0190297
2717,2100;0,01907
2718,1741;0,0191083
2719,1384;0,0191466
2720,1025;0,0191864
2721,0669;0,0192267
2722,0310;0,0192641
2722,9954;0,0192947
2723,9595;0,0193172
2724,9238;0,0193345
2725,8879;0,0193534
2726,8523;0,0193814
2727,8164;0,0194227
2728,7808;0,0194766
2729,7449;0,0195379
2730,7092;0,0195998
2731,6733;0,0196566
2732,6377;0,019705
2733,6018;0,0197447
2734,5662;0,0197777
2735,5303;0,0198067
2736,4946;0,0198343
2737,4587;0,0198618
2738,4231;0,0198896
2739,3872;0,0199175
2740,3516;0,0199464
2741,3157;0,0199779
2742,2800;0,0200141
2743,2441;0,0200549
2744,2085;0,0200971
2745,1726;0,0201344
2746,1370;0,0201608
2747,1011;0,0201745
2748,0654;0,0201796
2749,0295;0,0201849
2749,9939;0,0201995
2750,9580;0,0202285
2751,9224;0,0202706
2752,8865;0,0203203
2753,8508;0,0203715
2754,8149;0,0204208
2755,7793;0,0204688
2756,7434;0,0205174
2757,7078;0,020568
2758,6719;0,0206197
2759,6362;0,0206705
2760,6003;0,0207186
2761,5647;0,0207638
2762,5288;0,0208065
2763,4932;0,0208476
2764,4573;0,0208875
2765,4216;0,0209276
2766,3857;0,0209705
2767,3501;0,0210204
2768,3142;0,0210804
2769,2786;0,0211504
2770,2427;0,0212254
2771,2070;0,0212978
2772,1711;0,0213605
2773,1355;0,0214112
2774,0996;0,0214531
2775,0640;0,0214926
2776,0281;0,0215362
2776,9924;0,0215871
2777,9565;0,0216451
2778,9209;0,021709
2779,8850;0,0217785
2780,8494;0,0218557
2781,8135;0,0219424
2782,7778;0,0220379
2783,7419;0,0221366
2784,7063;0,02223
2785,6704;0,0223101
2786,6348;0,0223736
2787,5989;0,0224242
2788,5632;0,0224713
2789,5273;0,0225258
2790,4917;0,0225959
2791,4558;0,0226844
2792,4202;0,022788
2793,3843;0,0228998
2794,3486;0,0230119
2795,3127;0,0231184
2796,2771;0,0232173
2797,2412;0,0233109
2798,2056;0,0234047
2799,1697;0,0235049
2800,1340;0,0236153
2801,0981;0,0237362
2802,0625;0,0238646
2803,0266;0,0239965
2803,9910;0,0241284
2804,9551;0,0242587
2805,9194;0,0243867
2806,8835;0,0245117
2807,8479;0,0246332
2808,8120;0,0247521
2809,7764;0,0248714
2810,7405;0,0249967
2811,7048;0,0251344
2812,6689;0,0252894
2813,6333;0,0254625
2814,5974;0,0256495
2815,5618;0,0258424
2816,5259;0,0260319
2817,4902;0,0262117
2818,4543;0,0263807
2819,4187;0,0265448
2820,3828;0,0267137
2821,3472;0,0268964
2822,3113;0,0270971
2823,2756;0,0273138
2824,2397;0,0275403
2825,2041;0,0277712
2826,1682;0,0280055
2827,1326;0,0282463
2828,0967;0,0284985
2829,0610;0,028765
2830,0251;0,0290459
2830,9895;0,0293391
2831,9536;0,0296428
2832,9180;0,0299571
2833,8821;0,0302835
2834,8464;0,0306244
2835,8105;0,0309829
2836,7749;0,0313636
2837,7390;0,031773
2838,7034;0,0322193
2839,6675;0,0327107
2840,6318;0,0332546
2841,5959;0,0338568
2842,5603;0,0345206
2843,5244;0,0352449
2844,4888;0,036019
2845,4529;0,0368176
2846,4172;0,0375979
2847,3813;0,0383051
2848,3457;0,0388843
2849,3098;0,0392966
2850,2742;0,0395306
2851,2383;0,0396055
2852,2026;0,0395619
2853,1667;0,0394465
2854,1311;0,0392984
2855,0952;0,0391415
2856,0596;0,0389867
2857,0237;0,0388395
2857,9880;0,0387072
2858,9521;0,0386017
2859,9165;0,0385357
2860,8806;0,0385184
2861,8450;0,0385519
2862,8091;0,0386321
2863,7734;0,0387533
2864,7375;0,0389106
2865,7019;0,0390991
2866,6660;0,0393108
2867,6304;0,039531
2868,5945;0,0397396
2869,5588;0,0399172
2870,5229;0,0400524
2871,4873;0,0401472
2872,4514;0,0402158
2873,4158;0,0402771
2874,3799;0,0403467
2875,3442;0,0404309
2876,3083;0,0405273
2877,2727;0,0406293
2878,2368;0,0407316
2879,2012;0,0408333
2880,1653;0,0409373
2881,1296;0,0410476
2882,0938;0,0411666
2883,0581;0,0412941
2884,0222;0,0414278
2884,9866;0,0415641
2885,9507;0,0417001
2886,9150;0,0418343
2887,8792;0,0419685
2888,8435;0,0421076
2889,8076;0,0422572
2890,7720;0,0424205
2891,7361;0,0425947
2892,7004;0,0427705
2893,6646;0,0429364
2894,6289;0,0430848
2895,5930;0,0432174
2896,5574;0,0433441
2897,5215;0,0434771
2898,4858;0,0436225
2899,4500;0,0437763
2900,4143;0,0439269
2901,3784;0,0440633
2902,3428;0,0441837
2903,3069;0,0442986
2904,2712;0,0444265
2905,2354;0,0445857
2906,1997;0,0447879
2907,1638;0,0450355
2908,1282;0,0453261
2909,0923;0,0456576
2910,0566;0,0460301
2911,0208;0,0464432
2911,9851;0,0468895
2912,9492;0,047349
2913,9136;0,0477888
2914,8777;0,0481691
2915,8420;0,0484539
2916,8062;0,0486201
2917,7705;0,0486623
2918,7346;0,0485905
2919,6990;0,0484243
2920,6631;0,0481849
2921,6274;0,0478906
2922,5916;0,0475545
2923,5559;0,0471848
2924,5200;0,0467865
2925,4844;0,0463626
2926,4485;0,0459168
2927,4128;0,0454547
2928,3770;0,044985
2929,3413;0,0445178
2930,3054;0,0440616
2931,2698;0,0436196
2932,2339;0,0431892
2933,1982;0,0427647
2934,1624;0,042342
2935,1267;0,0419222
2936,0908;0,0415114
2937,0552;0,0411164
2938,0193;0,0407385
2938,9836;0,0403709
2939,9478;0,0400008
2940,9121;0,0396166
2941,8762;0,0392139
2942,8406;0,0387992
2943,8047;0,0383865
2944,7690;0,0379918
2945,7332;0,0376266
2946,6975;0,0372957
2947,6616;0,0369976
2948,6260;0,0367274
2949,5901;0,0364784
2950,5544;0,0362429
2951,5186;0,0360123
2952,4829;0,0357788
2953,4470;0,0355377
2954,4114;0,0352891
2955,3755;0,0350367
2956,3398;0,0347856
2957,3040;0,034539
2958,2683;0,0342983
2959,2324;0,0340639
2960,1968;0,0338371
2961,1609;0,0336199
2962,1252;0,0334123
2963,0894;0,0332097
2964,0537;0,0330031
2965,0178;0,0327828
2965,9822;0,032544
2966,9463;0,0322898
2967,9106;0,0320301
2968,8748;0,0317762
2969,8391;0,031535
2970,8032;0,0313069
2971,7676;0,0310875
2972,7317;0,0308722
2973,6960;0,0306602
2974,6602;0,0304546
2975,6245;0,0302605
2976,5886;0,0300797
2977,5530;0,0299095
2978,5171;0,0297433
2979,4814;0,0295748
2980,4456;0,0294026
2981,4099;0,0292332
2982,3740;0,0290785
2983,3384;0,0289507
2984,3025;0,0288566
2985,2668;0,0287939
2986,2310;0,0287519
2987,1953;0,028717
2988,1594;0,0286789
2989,1238;0,0286349
2990,0879;0,0285901
2991,0522;0,0285529
2992,0164;0,028529
2992,9807;0,0285176
2993,9448;0,0285119
2994,9092;0,0285034
2995,8733;0,0284888
2996,8376;0,0284732
2997,8018;0,0284686
2998,7661;0,028488
2999,7302;0,0285379
3000,6946;0,0286142
3001,6587;0,0287044
3002,6230;0,0287941
3003,5872;0,0288745
3004,5515;0,0289466
3005,5156;0,0290181
3006,4800;0,0290978
3007,4441;0,0291893
3008,4084;0,0292889
3009,3726;0,0293883
3010,3369;0,0294785
3011,3010;0,029554
3012,2654;0,0296138
3013,2295;0,0296606
3014,1938;0,0296984
3015,1580;0,0297324
3016,1223;0,0297686
3017,0864;0,0298147
3018,0508;0,0298784
3019,0149;0,0299649
3019,9792;0,0300744
3020,9434;0,0302002
3021,9077;0,0303315
3022,8718;0,0304582
3023,8362;0,0305768
3024,8003;0,030694
3025,7646;0,0308242
3026,7288;0,0309817
3027,6931;0,0311712
3028,6572;0,0313817
3029,6216;0,0315888
3030,5857;0,0317643
3031,5500;0,0318894
3032,5142;0,0319643
3033,4785;0,0320074
3034,4426;0,0320462
3035,4070;0,0321051
3036,3711;0,0321962
3037,3354;0,0323177
3038,2996;0,0324592
3039,2639;0,0326083
3040,2280;0,0327567
3041,1924;0,0329032
3042,1565;0,0330531
3043,1208;0,0332148
3044,0850;0,0333944
3045,0493;0,0335913
3046,0134;0,0337965
3046,9778;0,0339951
3047,9419;0,0341733
3048,9063;0,0343262
3049,8704;0,0344613
3050,8347;0,0345956
3051,7988;0,0347463
3052,7632;0,0349217
3053,7273;0,035117
3054,6917;0,0353176
3055,6558;0,035508
3056,6201;0,0356807
3057,5842;0,0358409
3058,5486;0,0360025
3059,5127;0,0361804
3060,4771;0,0363816
3061,4412;0,0366004
3062,4055;0,0368198
3063,3696;0,0370178
3064,3340;0,0371764
3065,2981;0,0372902
3066,2625;0,0373696
3067,2266;0,0374376
3068,1909;0,0375197
3069,1550;0,0376348
3070,1194;0,0377887
3071,0835;0,037975
3072,0479;0,0381812
3073,0120;0,0383951
3073,9763;0,0386093
3074,9404;0,0388214
3075,9048;0,03903
3076,8689;0,0392322
3077,8333;0,0394219
3078,7974;0,039593
3079,7617;0,0397429
3080,7258;0,0398746
3081,6902;0,0399968
3082,6543;0,0401199
3083,6187;0,0402524
3084,5828;0,0403978
3085,5471;0,0405536
3086,5112;0,0407144
3087,4756;0,0408758
3088,4397;0,0410378
3089,4041;0,0412051
3090,3682;0,0413839
3091,3325;0,0415768
3092,2966;0,0417798
3093,2610;0,0419834
3094,2251;0,0421786
3095,1895;0,0423633
3096,1536;0,0425438
3097,1179;0,0427302
3098,0820;0,0429285
3099,0464;0,0431342
3100,0105;0,0433342
3100,9749;0,0435145
3101,9390;0,0436697
3102,9033;0,0438077
3103,8674;0,0439448
3104,8318;0,0440965
3105,7959;0,0442696
3106,7603;0,0444611
3107,7244;0,0446637
3108,6887;0,044873
3109,6528;0,0450908
3110,6172;0,0453226
3111,5813;0,0455709
3112,5457;0,0458304
3113,5098;0,0460882
3114,4741;0,04633
3115,4382;0,0465477
3116,4026;0,046743
3117,3667;0,0469253
3118,3311;0,0471053
3119,2952;0,0472897
3120,2595;0,0474792
3121,2236;0,0476708
3122,1880;0,0478616
3123,1521;0,0480503
3124,1165;0,0482374
3125,0806;0,0484243
3126,0449;0,0486133
3127,0090;0,0488086
3127,9734;0,0490166
3128,9375;0,0492427
3129,9019;0,0494873
3130,8660;0,0497417
3131,8303;0,0499898
3132,7944;0,0502148
3133,7588;0,050408
3134,7229;0,0505748
3135,6873;0,0507324
3136,6514;0,0509015
3137,6157;0,0510968
3138,5798;0,0513208
3139,5442;0,0515651
3140,5083;0,0518159
3141,4727;0,0520624
3142,4368;0,0523009
3143,4011;0,0525347
3144,3652;0,0527702
3145,3296;0,0530109
3146,2937;0,0532552
3147,2581;0,0534976
3148,2222;0,0537322
3149,1865;0,0539572
3150,1506;0,0541763
3151,1150;0,0543967
3152,0791;0,0546245
3153,0435;0,0548617
3154,0076;0,0551063
3154,9719;0,0553549
3155,9360;0,0556053
3156,9004;0,0558571
3157,8645;0,0561104
3158,8289;0,0563629
3159,7930;0,0566108
3160,7573;0,0568512
3161,7214;0,0570854
3162,6858;0,0573196
3163,6499;0,0575619
3164,6143;0,0578172
3165,5784;0,058084
3166,5427;0,058354
3167,5068;0,0586172
3168,4712;0,0588665
3169,4353;0,0589413
3170,3997;0,0591725
3171,3638;0,0594105
3172,3281;0,0596629
3173,2922;0,0599303
3174,2566;0,060206
3175,2207;0,0604794
3176,1851;0,0607418
3177,1492;0,0609913
3178,1135;0,0612336
3179,0776;0,0614779
3180,0420;0,0617298
3181,0061;0,0619869
3181,9705;0,062239
3182,9346;0,062474
3183,8989;0,0626857
3184,8630;0,0628775
3185,8274;0,0630609
3186,7915;0,0632502
3187,7559;0,0634564
3188,7200;0,0636842
3189,6843;0,0639332
3190,6484;0,0641998
3191,6128;0,0644787
3192,5769;0,0647632
3193,5413;0,0650449
3194,5054;0,0653153
3195,4697;0,0655672
3196,4338;0,0657972
3197,3982;0,0660063
3198,3623;0,0661984
3199,3267;0,0663792
3200,2908;0,0665552
3201,2551;0,066733
3202,2192;0,0669193
3203,1836;0,0671197
3204,1477;0,0673362
3205,1121;0,0675666
3206,0762;0,0678046
3207,0405;0,0680432
3208,0046;0,0682776
3208,9690;0,0685063
3209,9331;0,06873
3210,8975;0,0689492
3211,8616;0,0691632
3212,8259;0,0693702
3213,7900;0,0695697
3214,7544;0,0697646
3215,7185;0,0699605
3216,6829;0,0701627
3217,6470;0,0703729
3218,6113;0,0705873
3219,5754;0,0707986
3220,5398;0,0710001
3221,5039;0,0711906
3222,4683;0,0713761
3223,4324;0,0715666
3224,3967;0,0717713
3225,3608;0,0719926
3226,3252;0,0722247
3227,2893;0,0724558
3228,2537;0,0726745
3229,2178;0,0728758
3230,1821;0,073064
3231,1462;0,07325
3232,1106;0,0734441
3233,0747;0,0736503
3234,0391;0,0738637
3235,0032;0,0740743
3235,9675;0,0742742
3236,9316;0,0744635
3237,8960;0,0746519
3238,8601;0,0748536
3239,8245;0,0750793
3240,7886;0,0753292
3241,7529;0,0755918
3242,7170;0,0758485
3243,6814;0,0760819
3244,6455;0,0762846
3245,6099;0,0764628
3246,5740;0,076635
3247,5383;0,076823
3248,5024;0,0770432
3249,4668;0,0772991
3250,4309;0,0775803
3251,3953;0,077866
3252,3594;0,0781337
3253,3237;0,0783685
3254,2878;0,0785706
3255,2522;0,0787548
3256,2163;0,0789442
3257,1807;0,0791583
3258,1448;0,0794043
3259,1091;0,0796745
3260,0732;0,0799503
3261,0376;0,0802119
3262,0017;0,0804467
3262,9661;0,0806535
3263,9302;0,0808411
3264,8945;0,0810228
3265,8586;0,0812106
3266,8230;0,0814101
3267,7871;0,0816212
3268,7515;0,0818376
3269,7156;0,0820494
3270,6799;0,0822448
3271,6440;0,0824125
3272,6084;0,0825446
3273,5725;0,082639
3274,5369;0,0827014
3275,5010;0,0827437
3276,4653;0,0827805
3277,4294;0,0828241
3278,3938;0,0828806
3279,3579;0,0829488
3280,3223;0,0830219
3281,2864;0,0830916
3282,2507;0,0831517
3283,2148;0,0832003
3284,1792;0,08324
3285,1433;0,083276
3286,1077;0,0833131
3287,0718;0,0833536
3288,0361;0,0833957
3289,0002;0,083433
3289,9646;0,0834569
3290,9287;0,0834594
3291,8931;0,0834368
3292,8572;0,0833922
3293,8215;0,0833353
3294,7856;0,0832792
3295,7500;0,0832353
3296,7141;0,0832096
3297,6785;0,0832005
3298,6426;0,0831998
3299,6069;0,0831961
3300,5710;0,0831802
3301,5354;0,0831487
3302,4995;0,0831063
3303,4639;0,0830626
3304,4280;0,0830282
3305,3923;0,0830087
3306,3564;0,0830022
3307,3208;0,0830006
3308,2849;0,0829936
3309,2493;0,082973
3310,2134;0,0829357
3311,1777;0,0828837
3312,1418;0,082824
3313,1062;0,0827669
3314,0703;0,0827262
3315,0347;0,0827159
3315,9988;0,0827469
3316,9631;0,0828219
3317,9272;0,0829336
3318,8916;0,0830674
3319,8557;0,0832079
3320,8201;0,083345
3321,7842;0,0834768
3322,7485;0,0836057
3323,7126;0,0837336
3324,6770;0,0838575
3325,6411;0,0839699
3326,6055;0,0840642
3327,5696;0,0841396
3328,5339;0,0842039
3329,4980;0,0842689
3330,4624;0,0843433
3331,4265;0,0844259
3332,3909;0,0845046
3333,3550;0,0845597
3334,3193;0,0845719
3335,2834;0,0845305
3336,2478;0,0844368
3337,2119;0,0843026
3338,1763;0,0841438
3339,1404;0,0839736
3340,1047;0,0837987
3341,0688;0,0836206
3342,0332;0,0834383
3342,9973;0,083251
3343,9617;0,0830586
3344,9258;0,0828601
3345,8901;0,0826534
3346,8542;0,0824358
3347,8186;0,0822074
3348,7827;0,0819726
3349,7471;0,0817396
3350,7112;0,0815165
3351,6755;0,0813065
3352,6396;0,0811061
3353,6040;0,0809064
3354,5681;0,0806993
3355,5325;0,0804819
3356,4966;0,0802584
3357,4609;0,0800375
3358,4250;0,079827
3359,3894;0,0796304
3360,3535;0,0794467
3361,3179;0,0792718
3362,2820;0,0791013
3363,2463;0,0789309
3364,2104;0,0787549
3365,1748;0,0785661
3366,1389;0,0783565
3367,1033;0,0781208
3368,0674;0,0778596
3369,0317;0,0775806
3369,9958;0,0772958
3370,9602;0,0770174
3371,9243;0,0767544
3372,8887;0,0765098
3373,8528;0,0762811
3374,8171;0,0760618
3375,7813;0,0758444
3376,7456;0,0756241
3377,7097;0,0754011
3378,6741;0,075181
3379,6382;0,074971
3380,6025;0,0747756
3381,5667;0,074592
3382,5310;0,0744108
3383,4951;0,0742216
3384,4595;0,0740207
3385,4236;0,0738155
3386,3879;0,0736209
3387,3521;0,0734499
3388,3164;0,0733036
3389,2805;0,0731686
3390,2449;0,0730225
3391,2090;0,0728464
3392,1733;0,0726353
3393,1375;0,0724004
3394,1018;0,0721605
3395,0659;0,0719292
3396,0303;0,0717065
3396,9944;0,0714816
3397,9587;0,0712417
3398,9229;0,0709808
3399,8872;0,070703
3400,8513;0,0704184
3401,8157;0,0701364
3402,7798;0,069862
3403,7441;0,0695958
3404,7083;0,069337
3405,6726;0,0690853
3406,6367;0,0688409
3407,6011;0,0686023
3408,5652;0,0683644
3409,5295;0,0681191
3410,4937;0,0678584
3411,4580;0,0675786
3412,4221;0,0672841
3413,3865;0,0669878
3414,3506;0,0667067
3415,3149;0,0664537
3416,2791;0,066231
3417,2434;0,0660245
3418,2075;0,0658065
3419,1719;0,0655459
3420,1360;0,0652234
3421,1003;0,0648422
3422,0645;0,0644279
3423,0288;0,0640158
3423,9929;0,0636334
3424,9573;0,0632916
3425,9214;0,0629842
3426,8857;0,0626959
3427,8499;0,06241
3428,8142;0,0621142
3429,7783;0,0618016
3430,7427;0,0614687
3431,7068;0,0611139
3432,6711;0,060739
3433,6353;0,0603513
3434,5996;0,0599655
3435,5637;0,0595996
3436,5281;0,0592686
3437,4922;0,0589789
3438,4565;0,0587271
3439,4207;0,0585034
3440,3850;0,0582968
3441,3491;0,0580971
3442,3135;0,057893
3443,2776;0,0576674
3444,2419;0,057397
3445,2061;0,0570591
3446,1704;0,0566438
3447,1345;0,0561653
3448,0989;0,0556602
3449,0630;0,0551714
3450,0273;0,0547286
3450,9915;0,0543393
3451,9558;0,0539941
3452,9199;0,0536776
3453,8843;0,0533776
3454,8484;0,0530888
3455,8127;0,0528109
3456,7769;0,052545
3457,7412;0,0522878
3458,7053;0,0520303
3459,6697;0,0517595
3460,6338;0,0514627
3461,5981;0,0511327
3462,5623;0,0507714
3463,5266;0,0503876
3464,4907;0,0499926
3465,4551;0,0495951
3466,4192;0,049201
3467,3835;0,0488155
3468,3477;0,0484453
3469,3120;0,0480967
3470,2761;0,047771
3471,2405;0,0474605
3472,2046;0,0471505
3473,1689;0,0468295
3474,1331;0,0465004
3475,0974;0,0461842
3476,0615;0,0459092
3477,0259;0,0456917
3477,9900;0,0455214
3478,9543;0,0453605
3479,9185;0,0451603
3480,8828;0,0448863
3481,8469;0,0445382
3482,8113;0,0441482
3483,7754;0,0437569
3484,7397;0,0433864
3485,7039;0,0430325
3486,6682;0,0426758
3487,6323;0,042303
3488,5967;0,0419226
3489,5608;0,041563
3490,5251;0,0412541
3491,4893;0,0410068
3492,4536;0,040804
3493,4177;0,0406097
3494,3821;0,0403908
3495,3462;0,0401409
3496,3105;0,03989
3497,2747;0,0396869
3498,2390;0,0395652
3499,2031;0,0395135
3500,1675;0,0394689
3501,1316;0,0393386
3502,0959;0,0390488
3503,0601;0,0385974
3504,0244;0,0380657
3504,9885;0,0375664
3505,9529;0,0371721
3506,9170;0,0368817
3507,8813;0,036633
3508,8455;0,0363446
3509,8098;0,0359642
3510,7739;0,0354983
3511,7383;0,0350021
3512,7024;0,0345389
3513,6667;0,0341476
3514,6309;0,0338361
3515,5952;0,0335968
3516,5593;0,0334237
3517,5237;0,0333196
3518,4878;0,0332891
3519,4521;0,0333249
3520,4163;0,0333977
3521,3806;0,0334578
3522,3447;0,0334503
3523,3091;0,033336
3524,2732;0,0331037
3525,2375;0,0327636
3526,2017;0,0323311
3527,1660;0,0318194
3528,1301;0,0312482
3529,0945;0,0306581
3530,0586;0,0301091
3531,0229;0,0296564
3531,9871;0,0293244
3532,9514;0,0290944
3533,9155;0,0289116
3534,8799;0,0287068
3535,8440;0,0284304
3536,8083;0,0280835
3537,7725;0,0277251
3538,7368;0,0274425
3539,7009;0,0273078
3540,6653;0,0273456
3541,6294;0,0275211
3542,5938;0,0277395
3543,5579;0,027861
3544,5222;0,0277522
3545,4863;0,0273658
3546,4507;0,0267851
3547,4148;0,0261701
3548,3792;0,0256504
3549,3433;0,0252634
3550,3076;0,0249637
3551,2717;0,0246699
3552,2361;0,0243202
3553,2002;0,023913
3554,1646;0,0235029
3555,1287;0,0231554
3556,0930;0,0229038
3557,0571;0,0227446
3558,0215;0,0226608
3558,9856;0,0226474
3559,9500;0,0227208
3560,9141;0,0229056
3561,8784;0,0232059
3562,8425;0,02358
3563,8069;0,0239176
3564,7710;0,0240207
3565,7354;0,0236453
3566,6995;0,0226951
3567,6638;0,0214155
3568,6279;0,0202423
3569,5923;0,0194409
3570,5564;0,0189952
3571,5208;0,018753
3572,4849;0,0185752
3573,4492;0,0183919
3574,4133;0,0181923
3575,3777;0,0179932
3576,3418;0,0178087
3577,3062;0,0176395
3578,2703;0,0174817
3579,2346;0,0173455
3580,1987;0,0172603
3581,1631;0,0172574
3582,1272;0,0173445
3583,0916;0,0174934
3584,0557;0,0176378
3585,0200;0,017667
3585,9841;0,0174416
3586,9485;0,016902
3587,9126;0,0162097
3588,8770;0,0156648
3589,8411;0,0154427
3590,8054;0,0154948
3591,7695;0,0156571
3592,7339;0,0157715
3593,6980;0,0157436
3594,6624;0,0155639
3595,6265;0,0152966
3596,5908;0,0150183
3597,5549;0,0147502
3598,5193;0,0144533
3599,4834;0,0140856
3600,4478;0,013662
3601,4119;0,0132596
3602,3762;0,0129572
3603,3403;0,0127728
3604,3047;0,0126559
3605,2688;0,0125216
3606,2332;0,0122895
3607,1973;0,0119245
3608,1616;0,0114769
3609,1257;0,0110735
3610,0901;0,0108384
3611,0542;0,0108114
3612,0186;0,0109338
3612,9827;0,0110918
3613,9470;0,011173
3614,9111;0,0111015
3615,8755;0,0108448
3616,8396;0,0104047
3617,8040;0,00981835
3618,7681;0,009185
3619,7324;0,00868267
3620,6965;0,00848986
3621,6609;0,00864282
3622,6250;0,00899468
3623,5894;0,00931694
3624,5535;0,00942452
3625,5178;0,00923387
3626,4819;0,00874259
3627,4463;0,00798351
3628,4104;0,00707472
3629,3748;0,00630831
3630,3389;0,00594985
3631,3032;0,0059513
3632,2673;0,00604089
3633,2317;0,00598705
3634,1958;0,00572727
3635,1602;0,00534568
3636,1243;0,0049786
3637,0886;0,00472037
3638,0527;0,00458649
3639,0171;0,00454256
3639,9812;0,00455591
3640,9456;0,00462036
3641,9097;0,00474135
3642,8740;0,00490821
3643,8381;0,00509029
3644,8025;0,00525978
3645,7666;0,00539487
3646,7310;0,00539487
3647,6951;0,00496378
3648,6594;0,00384387
3649,6235;0,00240256
3650,5879;0,00138316
3651,5520;0,00102623
3652,5164;0,00103231
3653,4805;0,00103123
3654,4448;0,000839591
3655,4089;0,000482899
3656,3733;0,000116535
3657,3374;-0,000100317
3658,3018;-0,000123153
3659,2659;-3,72123E-05
3660,2302;4,13236E-05
3661,1943;6,82924E-05
3662,1587;8,79745E-05
3663,1228;0,000166556
3664,0872;0,000312688
3665,0513;0,000467738
3666,0156;0,000561793
3666,9797;0,000574515
3667,9441;0,000533198
3668,9082;0,000468195
3669,8726;0,000404235
3670,8367;0,00036434
3671,8010;0,000327336
3672,7651;0,000225637
3673,7295;3,52871E-06
3674,6936;-0,000344864
3675,6580;-0,000738714
3676,6221;-0,000996662
3677,5864;-0,000988511
3678,5505;-0,000778373
3679,5149;-0,000526374
3680,4790;-0,000326298
3681,4434;-0,000170171
3682,4075;-1,85597E-05
3683,3718;0,00012398
3684,3359;0,000201584
3685,3003;0,000166248
3686,2644;3,84355E-05
3687,2288;-0,000102522
3688,1929;-0,000200422
3689,1572;-0,00025704
3690,1213;-0,000253169
3691,0857;-0,000140057
3692,0498;6,71846E-05
3693,0142;0,000291695
3693,9783;0,000471381
3694,9426;0,000590443
3695,9067;0,000656853
3696,8711;0,000672338
3697,8352;0,000626201
3698,7996;0,000511761
3699,7637;0,000346524
3700,7280;0,000181257
3701,6921;9,27141E-05
3702,6565;0,000151689
3703,6206;0,000373184
3704,5850;0,000694411
3705,5491;0,0010112
3706,5134;0,00123699
3707,4775;0,0013285
3708,4419;0,00125322
3709,4060;0,000935666
3710,3704;0,000305689
3711,3345;-0,000507457
3712,2988;-0,00115013
3713,2629;-0,00135631
3714,2273;-0,00115088
3715,1914;-0,00073065
3716,1558;-0,000278567
3717,1199;0,000120018
3718,0842;0,000469926
3719,0483;0,000817355
3720,0127;0,00119778
3720,9768;0,00160441
3721,9412;0,00198629
3722,9053;0,0022714
3723,8696;0,00240288
3724,8337;0,00237454
3725,7981;0,002239
3726,7622;0,00207088
3727,7266;0,00191853
3728,6907;0,00179775
3729,6550;0,00172645
3730,6191;0,00174879
3731,5835;0,00190344
3732,5476;0,00213412
3733,5120;0,00222832
3734,4761;0,00196139
3735,4404;0,00141393
3736,4045;0,000981104
3737,3689;0,00093441
3738,3330;0,00115618
3739,2974;0,00129761
3740,2615;0,00104645
3741,2258;0,000292828
3742,1899;-0,000808252
3743,1543;-0,00187082
3744,1184;-0,00245105
3745,0828;-0,0023373
3746,0469;-0,00172206
3747,0112;-0,0010445
3747,9753;-0,000693004
3748,9397;-0,000849615
3749,9038;-0,00146118
3750,8682;-0,00220492
3751,8323;-0,00259643
3752,7966;-0,00239353
3753,7607;-0,00178906
3754,7251;-0,00115137
3755,6892;-0,00074574
3756,6536;-0,000661323
3757,6177;-0,000850442
3758,5820;-0,0011773
3759,5461;-0,00146959
3760,5105;-0,00160226
3761,4746;-0,0015603
3762,4390;-0,00141651
3763,4031;-0,00126436
3764,3674;-0,00117353
3765,3315;-0,00117992
3766,2959;-0,00129013
3767,2600;-0,00148799
3768,2244;-0,00174053
3769,1885;-0,00200004
3770,1528;-0,00220325
3771,1169;-0,00228753
3772,0813;-0,00222791
3773,0454;-0,00206194
3774,0098;-0,00186904
3774,9739;-0,00172302
3775,9382;-0,00165814
3776,9023;-0,00166859
3777,8667;-0,00172469
3778,8308;-0,0017778
3779,7952;-0,00176753
3780,7593;-0,00165792
3781,7236;-0,00147281
3782,6877;-0,00128703
3783,6521;-0,00118537
3784,6162;-0,00122053
3785,5806;-0,00138496
3786,5447;-0,00161262
3787,5090;-0,00181396
3788,4731;-0,00192446
3789,4375;-0,00193219
3790,4016;-0,00186774
3791,3660;-0,00176803
3792,3301;-0,00164163
3793,2944;-0,00146214
3794,2585;-0,00119876
3795,2229;-0,000863099
3796,1870;-0,000530137
3797,1514;-0,000309376
3798,1155;-0,000287575
3799,0798;-0,00048545
3800,0439;-0,000847079
3801,0083;-0,00125511
3801,9724;-0,00158387
3802,9368;-0,00179588
3803,9009;-0,00198087
3804,8652;-0,00226211
3805,8293;-0,00265661
3806,7937;-0,00301667
3807,7578;-0,00311514
3808,7222;-0,00283813
3809,6863;-0,00230456
3810,6506;-0,00177712
3811,6147;-0,00147055
3812,5791;-0,00142796
3813,5432;-0,00152151
3814,5076;-0,00155556
3815,4717;-0,00140654
3816,4360;-0,00110456
3817,4001;-0,0008067
3818,3645;-0,000697704
3819,3286;-0,000883344
3820,2930;-0,00130664
3821,2571;-0,00173613
3822,2214;-0,0019122
3823,1855;-0,00176042
3824,1499;-0,00142449
3825,1140;-0,0011151
3826,0784;-0,000967025
3827,0425;-0,000994125
3828,0068;-0,00111981
3828,9709;-0,00123964
3829,9353;-0,00127996
3830,8994;-0,00122647
3831,8638;-0,00111743
3832,8279;-0,0010129
3833,7922;-0,000958074
3834,7563;-0,000958182
3835,7207;-0,000980869
3836,6848;-0,000987792
3837,6492;-0,000969601
3838,6133;-0,000946406
3839,5776;-0,000946706
3840,5417;-0,00100014
3841,5061;-0,00112864
3842,4702;-0,00131062
3843,4346;-0,00145523
3844,3987;-0,00143596
3845,3630;-0,00117879
3846,3271;-0,000737417
3847,2915;-0,000290999
3848,2556;-6,76078E-05
3849,2200;-0,000247811
3850,1841;-0,000897349
3851,1484;-0,001954
3852,1125;-0,0032383
3853,0769;-0,00436784
3854,0410;-0,00476666
3855,0054;-0,00419197
3855,9695;-0,00302567
3856,9338;-0,00183876
3857,8979;-0,000988734
3858,8623;-0,000553918
3859,8264;-0,000423424
3860,7908;-0,000419408
3861,7549;-0,000412492
3862,7192;-0,000381554
3863,6833;-0,000373814
3864,6477;-0,000421662
3865,6118;-0,000515841
3866,5762;-0,000627636
3867,5403;-0,000725815
3868,5046;-0,000789996
3869,4688;-0,000830435
3870,4331;-0,000887184
3871,3972;-0,000991407
3872,3616;-0,00113123
3873,3257;-0,00126459
3874,2900;-0,00135558
3875,2542;-0,00139008
3876,2185;-0,00136271
3877,1826;-0,00126114
3878,1470;-0,00107204
3879,1111;-0,000813459
3880,0754;-0,000559872
3881,0396;-0,00042034
3882,0039;-0,000480939
3882,9680;-0,0007577
3883,9324;-0,00117932
3884,8965;-0,00160288
3885,8608;-0,00187638
3886,8250;-0,00192764
3887,7893;-0,00180341
3888,7534;-0,00161786
3889,7178;-0,0014671
3890,6819;-0,00137931
3891,6462;-0,00131019
3892,6104;-0,00117903
3893,5747;-0,000946467
3894,5388;-0,000663674
3895,5032;-0,000424609
3896,4673;-0,000281975
3897,4316;-0,0002189
3898,3958;-0,000189201
3899,3601;-0,000172628
3900,3242;-0,000193643
3901,2886;-0,000299752
3902,2527;-0,000529547
3903,2170;-0,000878145
3904,1812;-0,00127597
3905,1455;-0,00162205
3906,1096;-0,00185495
3907,0740;-0,00198176
3908,0381;-0,00204199
3909,0024;-0,00205967
3909,9666;-0,0020284
3910,9309;-0,00192948
3911,8950;-0,00175862
3912,8594;-0,00153899
3913,8235;-0,00131584
3914,7878;-0,00114161
3915,7520;-0,00105848
3916,7163;-0,00107427
3917,6804;-0,00114065
3918,6448;-0,00116934
3919,6089;-0,00109304
3920,5732;-0,000916462
3921,5374;-0,000710186
3922,5017;-0,000566401
3923,4658;-0,000547598
3924,4302;-0,000647104
3925,3943;-0,000788735
3926,3586;-0,00087914
3927,3228;-0,000870513
3928,2871;-0,00078212
3929,2512;-0,000682087
3930,2156;-0,000654536
3931,1797;-0,000757381
3932,1440;-0,000981651
3933,1082;-0,00125212
3934,0725;-0,00148028
3935,0366;-0,00161556
3936,0010;-0,00165157
3936,9651;-0,00160337
3937,9294;-0,00148945
3938,8936;-0,00133023
3939,8579;-0,00115511
3940,8220;-0,00100222
3941,7864;-0,000901388
3942,7505;-0,000850775
3943,7148;-0,000814371
3944,6790;-0,000753031
3945,6433;-0,000659954
3946,6074;-0,000572206
3947,5718;-0,000553138
3948,5359;-0,000654841
3949,5002;-0,000879373
3950,4644;-0,00116981
3951,4287;-0,00144466
3952,3928;-0,00164455
3953,3572;-0,00175217
3954,3213;-0,00178187
3955,2856;-0,00175878
3956,2498;-0,00170403
3957,2141;-0,00163157
3958,1782;-0,00155435
3959,1426;-0,00149107
3960,1067;-0,00146526
3961,0710;-0,00149449
3962,0352;-0,00157696
3962,9995;-0,00168772
3963,9636;-0,00178995
3964,9280;-0,00185267
3965,8921;-0,00186444
3966,8564;-0,00183401
3967,8206;-0,00178107
3968,7849;-0,00172403
3969,7490;-0,00167246
3970,7134;-0,00162834
3971,6775;-0,0015936
3972,6418;-0,00157625
3973,6060;-0,00158886
3974,5703;-0,00163964
3975,5344;-0,00172367
3976,4988;-0,001822
3977,4629;-0,00191058
3978,4272;-0,0019727
3979,3914;-0,00200676
3980,3557;-0,0020247
3981,3198;-0,00204262
3982,2842;-0,00206926
3983,2483;-0,00209973
3984,2126;-0,00211869
3985,1768;-0,00211056
3986,1411;-0,00206986
3987,1052;-0,00200544
3988,0696;-0,00193701
3989,0337;-0,0018853
3989,9980;-0,00186379
3990,9622;-0,0018743
3991,9265;-0,00190966
3992,8906;-0,00195978
3993,8550;-0,00201644
3994,8191;-0,00207408
3995,7834;-0,00212773
3996,7476;-0,00217164
3997,7119;-0,0022005
3998,6760;-0,00221207
3999,6404;-0,00220842
4000,6045;-0,00172346

##### Extended Information
[Comments]
Sample name
Comment
Username
Division
Organization;UNIVERSIDAD INDUSTRIAL DE SANTANDER

[Detailed Information]
Creation date;20/03/2025 12:46 p.m.

Data array type;Linear data array
Horizontal axis;Wavenumber [cm-1]
Vertical axis;Abs
Start;399,193 cm-1
End;4000,6 cm-1
Data interval;0,964233 cm-1
Data points;3736    

[Measurement Information]
Model name;FT/IR-4X1typeA
Serial No.;A035162111

Accessory;ATR PRO 4X
Accessory S/N;A021162126
Incident angle;45 deg

Measurement date;20/03/2025 12:45 p.m.

Light source;Standard
Detector;TGS
Accumulation;40
Resolution;4 cm-1
Zero filling;On
Apodization;Cosine
Gain;Auto (8)
Aperture;Auto (7 mm)
Scan speed;Auto (2 mm/sec)
Filter;Auto (12800 Hz)

