TITLE;
DATA TYPE;INFRARED SPECTRUM
ORIGIN;JASCO
OWNER;
DATE;25/03/28
TIME;19:09:20
SPECTROMETER/DATA SYSTEM;
LOCALE;9226
RESOLUTION;
DELTAX;0,964233
XUNITS;1/CM
YUNITS;ABSORBANCE
FIRSTX;  399,1927
LASTX; 4000,6047
NPOINTS;    3736
FIRSTY;     0,21009
MAXY;     0,21049
MINY;     0,01107
XYDATA
399,1927;0,210086
400,1569;0,210488
401,1211;0,21039
402,0854;0,209924
403,0496;0,209208
404,0138;0,208346
404,9781;0,207443
405,9423;0,206609
406,9065;0,205937
407,8708;0,205504
408,8350;0,205376
409,7992;0,205602
410,7635;0,20615
411,7277;0,206844
412,6919;0,207391
413,6562;0,207517
414,6204;0,207098
415,5846;0,206213
416,5489;0,205166
417,5131;0,20448
418,4773;0,20467
419,4416;0,20571
420,4058;0,206939
421,3700;0,207773
422,3343;0,208151
423,2985;0,208324
424,2627;0,208539
425,2270;0,208882
426,1912;0,20925
427,1554;0,209461
428,1197;0,209394
429,0839;0,20907
430,0481;0,208622
431,0124;0,208199
431,9766;0,207886
432,9408;0,207676
433,9051;0,207508
434,8693;0,207311
435,8335;0,207032
436,7978;0,206628
437,7620;0,206067
438,7262;0,205345
439,6905;0,204519
440,6547;0,203725
441,6189;0,203152
442,5832;0,202975
443,5474;0,203245
444,5116;0,203843
445,4759;0,204533
446,4401;0,205081
447,4043;0,20534
448,3686;0,205279
449,3328;0,204957
450,2970;0,204498
451,2613;0,20404
452,2255;0,203677
453,1897;0,203418
454,1540;0,203195
455,1182;0,202921
456,0824;0,202565
457,0467;0,202208
458,0109;0,20201
458,9751;0,202088
459,9394;0,202405
460,9036;0,202804
461,8678;0,203128
462,8321;0,203308
463,7963;0,20337
464,7605;0,2034
465,7248;0,203464
466,6890;0,203555
467,6532;0,203576
468,6175;0,203392
469,5817;0,202905
470,5459;0,202132
471,5102;0,201235
472,4744;0,200478
473,4386;0,200086
474,4029;0,200112
475,3671;0,200431
476,3313;0,200838
477,2956;0,201148
478,2598;0,201241
479,2240;0,201074
480,1883;0,200674
481,1525;0,200126
482,1167;0,19955
483,0810;0,199078
484,0452;0,198816
485,0094;0,198793
485,9737;0,198944
486,9379;0,19914
487,9021;0,199255
488,8664;0,199222
489,8306;0,199051
490,7948;0,198811
491,7591;0,198582
492,7233;0,198406
493,6875;0,19825
494,6518;0,198037
495,6160;0,197696
496,5802;0,197217
497,5445;0,196668
498,5087;0,196169
499,4729;0,195855
500,4372;0,195818
501,4014;0,19607
502,3656;0,196531
503,3299;0,197067
504,2941;0,19756
505,2583;0,197944
506,2226;0,198198
507,1868;0,198322
508,1510;0,198317
509,1153;0,198189
510,0795;0,19797
511,0437;0,197715
512,0080;0,197496
512,9722;0,197369
513,9365;0,197356
514,9007;0,197434
515,8649;0,197537
516,8292;0,197587
517,7934;0,197529
518,7576;0,197368
519,7219;0,197159
520,6861;0,196965
521,6503;0,196803
522,6146;0,19664
523,5788;0,196408
524,5430;0,196057
525,5073;0,195601
526,4715;0,195126
527,4357;0,194735
528,4000;0,194466
529,3642;0,194264
530,3284;0,194014
531,2927;0,193617
532,2569;0,193055
533,2211;0,192405
534,1854;0,1918
535,1496;0,191353
536,1138;0,191096
537,0781;0,190975
538,0423;0,190891
539,0065;0,190763
539,9708;0,190558
540,9350;0,190292
541,8992;0,190006
542,8635;0,189741
543,8277;0,18953
544,7919;0,189398
545,7562;0,189352
546,7204;0,189375
547,6846;0,189415
548,6489;0,189398
549,6131;0,189262
550,5773;0,188993
551,5416;0,188637
552,5058;0,18828
553,4700;0,188004
554,4343;0,187838
555,3985;0,187745
556,3627;0,187638
557,3270;0,187423
558,2912;0,187041
559,2554;0,186482
560,2197;0,185781
561,1839;0,184997
562,1481;0,184191
563,1124;0,183424
564,0766;0,18274
565,0408;0,182159
566,0051;0,181673
566,9693;0,181246
567,9335;0,180831
568,8978;0,18039
569,8620;0,179917
570,8262;0,179434
571,7905;0,178973
572,7547;0,17856
573,7189;0,178205
574,6832;0,177908
575,6474;0,177661
576,6116;0,177454
577,5759;0,177267
578,5401;0,177069
579,5043;0,176824
580,4686;0,176507
581,4328;0,176118
582,3970;0,17569
583,3613;0,17527
584,3255;0,174894
585,2897;0,174568
586,2540;0,174267
587,2182;0,173966
588,1824;0,173659
589,1467;0,173372
590,1109;0,173134
591,0751;0,172955
592,0394;0,1728
593,0036;0,172605
593,9678;0,172313
594,9321;0,171909
595,8963;0,171414
596,8605;0,170876
597,8248;0,170335
598,7890;0,169817
599,7532;0,169334
600,7175;0,16889
601,6817;0,168485
602,6459;0,16811
603,6102;0,167739
604,5744;0,167335
605,5386;0,166866
606,5029;0,166318
607,4671;0,165703
608,4313;0,165051
609,3956;0,164393
610,3598;0,163749
611,3240;0,163119
612,2883;0,162498
613,2525;0,161886
614,2167;0,161294
615,1810;0,160745
616,1452;0,16025
617,1094;0,159798
618,0737;0,159344
619,0379;0,158825
620,0021;0,158195
620,9664;0,157444
621,9306;0,156609
622,8948;0,155761
623,8591;0,154984
624,8233;0,15433
625,7875;0,153836
626,7518;0,153473
627,7160;0,15318
628,6802;0,15289
629,6445;0,152559
630,6087;0,15217
631,5729;0,151732
632,5372;0,151268
633,5014;0,150807
634,4656;0,150374
635,4299;0,149978
636,3941;0,149618
637,3583;0,149281
638,3226;0,14895
639,2868;0,148611
640,2510;0,148253
641,2153;0,147869
642,1795;0,147454
643,1437;0,147011
644,1080;0,14655
645,0722;0,146089
646,0364;0,145648
647,0007;0,145239
647,9649;0,144863
648,9291;0,144515
649,8934;0,144182
650,8576;0,143854
651,8218;0,143528
652,7861;0,143207
653,7503;0,142901
654,7145;0,142622
655,6788;0,142383
656,6430;0,142189
657,6072;0,142039
658,5715;0,141922
659,5357;0,141822
660,4999;0,141711
661,4642;0,14154
662,4284;0,14124
663,3926;0,140728
664,3569;0,13992
665,3211;0,138762
666,2853;0,137273
667,2496;0,13563
668,2138;0,134224
669,1780;0,133451
670,1423;0,133277
671,1065;0,133277
672,0707;0,133064
673,0350;0,132471
673,9992;0,131522
674,9634;0,130363
675,9277;0,129182
676,8919;0,128122
677,8561;0,127224
678,8204;0,12646
679,7846;0,125793
680,7488;0,125212
681,7131;0,124721
682,6773;0,124296
683,6415;0,123889
684,6058;0,12345
685,5700;0,122962
686,5342;0,122447
687,4985;0,121953
688,4627;0,121526
689,4269;0,12118
690,3912;0,120909
691,3554;0,120691
692,3196;0,120504
693,2839;0,120336
694,2481;0,12018
695,2123;0,120031
696,1766;0,119889
697,1408;0,119743
698,1050;0,11958
699,0693;0,119382
700,0335;0,119138
700,9977;0,118848
701,9620;0,118523
702,9262;0,118182
703,8904;0,11784
704,8547;0,117516
705,8189;0,117221
706,7831;0,116959
707,7474;0,116725
708,7116;0,1165
709,6758;0,116257
710,6401;0,11597
711,6043;0,115627
712,5685;0,115236
713,5328;0,114819
714,4970;0,114394
715,4612;0,113767
716,4255;0,113352
717,3897;0,112912
718,3539;0,112439
719,3182;0,111951
720,2824;0,111482
721,2466;0,111067
722,2109;0,11071
723,1751;0,110385
724,1393;0,110048
725,1036;0,109668
726,0678;0,109235
727,0320;0,108764
727,9963;0,108281
728,9605;0,107813
729,9247;0,107371
730,8890;0,106959
731,8532;0,106571
732,8174;0,106201
733,7817;0,105844
734,7459;0,105496
735,7101;0,105159
736,6744;0,10484
737,6386;0,104554
738,6028;0,104312
739,5671;0,104112
740,5313;0,103934
741,4955;0,103741
742,4598;0,103496
743,4240;0,103178
744,3882;0,102795
745,3525;0,102381
746,3167;0,101979
747,2809;0,101625
748,2452;0,101331
749,2094;0,101088
750,1736;0,100878
751,1379;0,100685
752,1021;0,100504
753,0663;0,100333
754,0306;0,100164
754,9948;0,0999836
755,9590;0,0997784
756,9233;0,0995469
757,8875;0,0993056
758,8517;0,099081
759,8160;0,0988954
760,7802;0,098754
761,7444;0,0986455
762,7087;0,0985529
763,6729;0,0984675
764,6371;0,0983937
765,6014;0,0983441
766,5656;0,098329
767,5298;0,0983479
768,4941;0,0983895
769,4583;0,0984364
770,4225;0,0984707
771,3868;0,0984782
772,3510;0,0984515
773,3152;0,0983942
774,2795;0,0983232
775,2437;0,0982651
776,2079;0,0982459
777,1722;0,0982742
778,1364;0,0983296
779,1006;0,0983634
780,0649;0,0983142
781,0291;0,098132
781,9933;0,0977983
782,9576;0,0973328
783,9218;0,0967854
784,8860;0,096218
785,8503;0,0956856
786,8145;0,0952235
787,7787;0,0948444
788,7430;0,0945416
789,7072;0,0942987
790,6714;0,0940978
791,6357;0,093927
792,5999;0,0937819
793,5641;0,0936636
794,5284;0,0935731
795,4926;0,0935078
796,4568;0,0934624
797,4211;0,093433
798,3853;0,0934214
799,3495;0,0934353
800,3138;0,0934826
801,2780;0,0935642
802,2422;0,0936702
803,2065;0,0937829
804,1707;0,093886
805,1349;0,0939726
806,0992;0,0940481
807,0634;0,0941246
808,0276;0,0942117
808,9919;0,0943081
809,9561;0,0944019
810,9203;0,094478
811,8846;0,0945296
812,8488;0,0945652
813,8130;0,094607
814,7773;0,0946798
815,7415;0,0947966
816,7057;0,0949499
817,6700;0,0951148
818,6342;0,0952629
819,5984;0,0953788
820,5627;0,095469
821,5269;0,0955572
822,4911;0,0956689
823,4554;0,0958159
824,4196;0,0959895
825,3839;0,0961667
826,3481;0,0963242
827,3123;0,0964486
828,2766;0,096538
829,2408;0,0965934
830,2050;0,0966089
831,1693;0,0965677
832,1335;0,0964467
833,0977;0,0962275
834,0620;0,0959049
835,0262;0,0954888
835,9904;0,0949991
836,9547;0,0944573
837,9189;0,0938806
838,8831;0,0932819
839,8474;0,0926714
840,8116;0,0920607
841,7758;0,0914632
842,7401;0,0908924
843,7043;0,0903585
844,6685;0,0898644
845,6328;0,0894037
846,5970;0,0889627
847,5612;0,0885249
848,5255;0,0880789
849,4897;0,0876245
850,4539;0,0871741
851,4182;0,0867473
852,3824;0,086362
853,3466;0,0860277
854,3109;0,0857436
855,2751;0,0855036
856,2393;0,085302
857,2036;0,0851359
858,1678;0,0850015
859,1320;0,0848894
860,0963;0,0847844
861,0605;0,0846706
862,0247;0,0845407
862,9890;0,0844007
863,9532;0,0842658
864,9174;0,0841518
865,8817;0,0840665
866,8459;0,0840083
867,8101;0,083973
868,7744;0,0839616
869,7386;0,0839839
870,7028;0,0840536
871,6671;0,0841801
872,6313;0,0843611
873,5955;0,0845827
874,5598;0,0848252
875,5240;0,0850718
876,4882;0,0853148
877,4525;0,0855566
878,4167;0,085807
879,3809;0,086078
880,3452;0,0863802
881,3094;0,0867204
882,2736;0,0871021
883,2379;0,087526
884,2021;0,0879922
885,1663;0,0885006
886,1306;0,0890516
887,0948;0,0896452
888,0590;0,0902795
889,0233;0,0909482
889,9875;0,0916377
890,9517;0,0923239
891,9160;0,0929725
892,8802;0,0935424
893,8444;0,0939923
894,8087;0,0942882
895,7729;0,0944091
896,7371;0,0943484
897,7014;0,0941127
898,6656;0,0937205
899,6298;0,0932002
900,5941;0,0925879
901,5583;0,0919229
902,5225;0,0912405
903,4868;0,0905667
904,4510;0,0899176
905,4152;0,0893048
906,3795;0,0887427
907,3437;0,0882524
908,3079;0,0878574
909,2722;0,087574
910,2364;0,0874027
911,2007;0,087327
912,1649;0,087321
913,1292;0,0873607
914,0934;0,0874326
915,0576;0,0875357
916,0219;0,0876774
916,9861;0,0878678
917,9503;0,0881146
918,9146;0,0884215
919,8788;0,0887863
920,8430;0,0891995
921,8073;0,0896454
922,7715;0,0901046
923,7357;0,0905597
924,7000;0,0910014
925,6642;0,0914305
926,6284;0,0918554
927,5927;0,0922865
928,5569;0,0927306
929,5211;0,0931898
930,4854;0,093663
931,4496;0,0941496
932,4138;0,0946521
933,3781;0,0951764
934,3423;0,0957301
935,3065;0,0963203
936,2708;0,0969515
937,2350;0,097626
938,1992;0,0983443
939,1635;0,0991068
940,1277;0,0999139
941,0919;0,100766
942,0562;0,101662
943,0204;0,1026
943,9846;0,10358
944,9489;0,104607
945,9131;0,105689
946,8773;0,106838
947,8416;0,108064
948,8058;0,109367
949,7700;0,110739
950,7343;0,112165
951,6985;0,113632
952,6627;0,115126
953,6270;0,116642
954,5912;0,118172
955,5554;0,119707
956,5197;0,121236
957,4839;0,122754
958,4481;0,124258
959,4124;0,125753
960,3766;0,127237
961,3408;0,128709
962,3051;0,130162
963,2693;0,131592
964,2335;0,133007
965,1978;0,134422
966,1620;0,135854
967,1262;0,137312
968,0905;0,138795
969,0547;0,140297
970,0189;0,141809
970,9832;0,143335
971,9474;0,144876
972,9116;0,146434
973,8759;0,147997
974,8401;0,149548
975,8043;0,151066
976,7686;0,15254
977,7328;0,153971
978,6970;0,155373
979,6613;0,156763
980,6255;0,158151
981,5897;0,159539
982,5540;0,160915
983,5182;0,162258
984,4824;0,163543
985,4467;0,164748
986,4109;0,165857
987,3751;0,166863
988,3394;0,167768
989,3036;0,168571
990,2678;0,169272
991,2321;0,169866
992,1963;0,170349
993,1605;0,170725
994,1248;0,171014
995,0890;0,171245
996,0532;0,171455
997,0175;0,171679
997,9817;0,171942
998,9459;0,172265
999,9102;0,172662
1000,8744;0,173146
1001,8386;0,173729
1002,8029;0,174417
1003,7671;0,175209
1004,7313;0,176097
1005,6956;0,177073
1006,6598;0,17813
1007,6240;0,17927
1008,5883;0,180491
1009,5525;0,181786
1010,5167;0,183135
1011,4810;0,184508
1012,4452;0,185868
1013,4094;0,187183
1014,3737;0,188427
1015,3379;0,189584
1016,3021;0,190641
1017,2664;0,191587
1018,2306;0,192408
1019,1948;0,193094
1020,1591;0,193646
1021,1233;0,194073
1022,0875;0,194397
1023,0518;0,194642
1024,0160;0,194831
1024,9802;0,194983
1025,9445;0,195111
1026,9087;0,195222
1027,8729;0,195314
1028,8372;0,19537
1029,8014;0,195358
1030,7656;0,195234
1031,7299;0,194953
1032,6941;0,194491
1033,6583;0,193852
1034,6226;0,19307
1035,5868;0,192193
1036,5510;0,19127
1037,5153;0,190334
1038,4795;0,189401
1039,4437;0,188478
1040,4080;0,187568
1041,3722;0,186674
1042,3364;0,185797
1043,3007;0,184931
1044,2649;0,184057
1045,2291;0,183149
1046,1934;0,182178
1047,1576;0,181126
1048,1218;0,179983
1049,0861;0,178753
1050,0503;0,177448
1051,0145;0,176084
1051,9788;0,174676
1052,9430;0,173239
1053,9072;0,17178
1054,8715;0,170308
1055,8357;0,168826
1056,7999;0,167338
1057,7642;0,165842
1058,7284;0,164333
1059,6926;0,162804
1060,6569;0,16125
1061,6211;0,159681
1062,5853;0,158117
1063,5496;0,156591
1064,5138;0,155141
1065,4780;0,153794
1066,4423;0,152567
1067,4065;0,151457
1068,3707;0,150446
1069,3350;0,149509
1070,2992;0,148614
1071,2634;0,147736
1072,2277;0,146853
1073,1919;0,14595
1074,1561;0,145015
1075,1204;0,144038
1076,0846;0,143007
1077,0488;0,141921
1078,0131;0,140787
1078,9773;0,139631
1079,9415;0,138488
1080,9058;0,137395
1081,8700;0,136379
1082,8342;0,135451
1083,7985;0,134604
1084,7627;0,13382
1085,7269;0,13308
1086,6912;0,132369
1087,6554;0,131676
1088,6196;0,131001
1089,5839;0,130344
1090,5481;0,129707
1091,5123;0,129092
1092,4766;0,128497
1093,4408;0,127924
1094,4050;0,127382
1095,3693;0,126883
1096,3335;0,126445
1097,2977;0,12608
1098,2620;0,125786
1099,2262;0,125551
1100,1904;0,125351
1101,1547;0,12516
1102,1189;0,12496
1103,0831;0,12474
1104,0474;0,124497
1105,0116;0,124231
1105,9758;0,123939
1106,9401;0,123617
1107,9043;0,123261
1108,8685;0,122862
1109,8328;0,122411
1110,7970;0,121901
1111,7612;0,121325
1112,7255;0,120683
1113,6897;0,119982
1114,6539;0,119238
1115,6182;0,118472
1116,5824;0,117707
1117,5466;0,116954
1118,5109;0,116216
1119,4751;0,115476
1120,4393;0,114708
1121,4036;0,113875
1122,3678;0,112939
1123,3320;0,111867
1124,2963;0,110641
1125,2605;0,109258
1126,2247;0,107737
1127,1890;0,106109
1128,1532;0,104415
1129,1174;0,102695
1130,0817;0,100989
1131,0459;0,0993252
1132,0101;0,097731
1132,9744;0,0962322
1133,9386;0,0948565
1134,9028;0,0936324
1135,8671;0,0925834
1136,8313;0,0917237
1137,7955;0,0910552
1138,7598;0,0905713
1139,7240;0,0902614
1140,6882;0,0901155
1141,6525;0,0901246
1142,6167;0,0902779
1143,5809;0,09056
1144,5452;0,0909509
1145,5094;0,0914297
1146,4736;0,0919787
1147,4379;0,0925857
1148,4021;0,0932418
1149,3663;0,0939369
1150,3306;0,0946559
1151,2948;0,0953771
1152,2590;0,0960743
1153,2233;0,0967198
1154,1875;0,0972859
1155,1517;0,0977454
1156,1160;0,0980705
1157,0802;0,0982336
1158,0444;0,0982093
1159,0087;0,0979779
1159,9729;0,0975273
1160,9371;0,0968521
1161,9014;0,0959517
1162,8656;0,0948294
1163,8298;0,0934936
1164,7941;0,0919636
1165,7583;0,0902735
1166,7225;0,0884717
1167,6868;0,0866146
1168,6510;0,0847558
1169,6152;0,0829361
1170,5795;0,081182
1171,5437;0,0795101
1172,5079;0,0779352
1173,4722;0,0764745
1174,4364;0,0751451
1175,4006;0,0739573
1176,3649;0,0729096
1177,3291;0,0719905
1178,2933;0,0711856
1179,2576;0,070484
1180,2218;0,069881
1181,1860;0,0693737
1182,1503;0,0689553
1183,1145;0,0686125
1184,0787;0,0683274
1185,0430;0,0680837
1186,0072;0,067872
1186,9714;0,0676919
1187,9357;0,0675508
1188,8999;0,0674616
1189,8641;0,067439
1190,8284;0,0674964
1191,7926;0,0676436
1192,7568;0,0678843
1193,7211;0,0682148
1194,6853;0,0686265
1195,6495;0,0691079
1196,6138;0,069648
1197,5780;0,0702373
1198,5422;0,070867
1199,5065;0,0715125
1200,4707;0,0721966
1201,4349;0,0728924
1202,3992;0,0735926
1203,3634;0,0742931
1204,3276;0,0749917
1205,2919;0,0756875
1206,2561;0,0763802
1207,2203;0,0770715
1208,1846;0,0777663
1209,1488;0,0784733
1210,1130;0,0792026
1211,0773;0,0799622
1212,0415;0,0807547
1213,0057;0,081576
1213,9700;0,0824166
1214,9342;0,0832646
1215,8984;0,0841074
1216,8627;0,0849333
1217,8269;0,085731
1218,7911;0,0864913
1219,7554;0,0872081
1220,7196;0,0878801
1221,6838;0,0885113
1222,6481;0,0891095
1223,6123;0,0896829
1224,5765;0,0902366
1225,5408;0,0907703
1226,5050;0,0912791
1227,4692;0,0917552
1228,4335;0,0921921
1229,3977;0,0925878
1230,3619;0,0929447
1231,3262;0,0932681
1232,2904;0,0935626
1233,2546;0,0938293
1234,2189;0,0940651
1235,1831;0,0942651
1236,1473;0,0944253
1237,1116;0,094546
1238,0758;0,0946307
1239,0400;0,0946838
1240,0043;0,0947076
1240,9685;0,0947006
1241,9327;0,0946589
1242,8970;0,0945787
1243,8612;0,094459
1244,8254;0,0943025
1245,7897;0,0941146
1246,7539;0,0939013
1247,7181;0,0936685
1248,6824;0,0934207
1249,6466;0,0931625
1250,6108;0,0928984
1251,5751;0,0926332
1252,5393;0,0923703
1253,5035;0,0921103
1254,4678;0,09185
1255,4320;0,091583
1256,3962;0,0913015
1257,3605;0,0909998
1258,3247;0,0906757
1259,2889;0,0903303
1260,2532;0,0899656
1261,2174;0,0895806
1262,1816;0,0891705
1263,1459;0,088728
1264,1101;0,0882469
1265,0743;0,0877248
1266,0386;0,0871631
1267,0028;0,0865657
1267,9670;0,0859368
1268,9313;0,0852806
1269,8955;0,0846025
1270,8597;0,0839097
1271,8240;0,0832102
1272,7882;0,0825108
1273,7524;0,0818154
1274,7167;0,081127
1275,6809;0,0804503
1276,6451;0,0797939
1277,6094;0,0791691
1278,5736;0,0785865
1279,5378;0,078052
1280,5021;0,0775659
1281,4663;0,0771251
1282,4305;0,0767275
1283,3948;0,0763743
1284,3590;0,0760704
1285,3232;0,0758223
1286,2875;0,0756348
1287,2517;0,0755082
1288,2159;0,0754366
1289,1802;0,0754088
1290,1444;0,0754115
1291,1086;0,0754335
1292,0729;0,0754692
1293,0371;0,0755195
1294,0013;0,0755887
1294,9656;0,07568
1295,9298;0,0757924
1296,8940;0,0759206
1297,8583;0,0760585
1298,8225;0,0762027
1299,7867;0,0763536
1300,7510;0,0765131
1301,7152;0,0766814
1302,6794;0,0768554
1303,6437;0,0770307
1304,6079;0,0772039
1305,5721;0,077375
1306,5364;0,0775466
1307,5006;0,0777214
1308,4648;0,0779018
1309,4291;0,0780891
1310,3933;0,0782844
1311,3575;0,0784867
1312,3218;0,078688
1313,2860;0,0788685
1314,2502;0,078995
1315,2145;0,079025
1316,1787;0,0789169
1317,1429;0,0786428
1318,1072;0,0782
1319,0714;0,0776179
1320,0356;0,07695
1320,9999;0,0762557
1321,9641;0,0755807
1322,9283;0,0749499
1323,8926;0,074371
1324,8568;0,073842
1325,8210;0,0733574
1326,7853;0,0729107
1327,7495;0,0724954
1328,7137;0,0721059
1329,6780;0,0717366
1330,6422;0,0713815
1331,6064;0,0710331
1332,5707;0,0706822
1333,5349;0,0703194
1334,4991;0,0699369
1335,4634;0,06953
1336,4276;0,0691003
1337,3918;0,0686596
1338,3561;0,0682336
1339,3203;0,0678556
1340,2845;0,0675507
1341,2488;0,0673218
1342,2130;0,067153
1343,1772;0,0670243
1344,1415;0,0669224
1345,1057;0,0668444
1346,0699;0,0667951
1347,0342;0,066782
1347,9984;0,0668111
1348,9626;0,0668839
1349,9269;0,0669969
1350,8911;0,0671456
1351,8553;0,0673285
1352,8196;0,067551
1353,7838;0,0678231
1354,7480;0,0681518
1355,7123;0,068531
1356,6765;0,0689402
1357,6407;0,0693546
1358,6050;0,0697598
1359,5692;0,0701585
1360,5334;0,0705645
1361,4977;0,0709854
1362,4619;0,0714053
1363,4261;0,0717883
1364,3904;0,0721043
1365,3546;0,0723474
1366,3188;0,0725316
1367,2831;0,072676
1368,2473;0,072792
1369,2115;0,0728791
1370,1758;0,0729272
1371,1400;0,0729223
1372,1042;0,0728518
1373,0685;0,0727073
1374,0327;0,072487
1374,9969;0,0721956
1375,9612;0,0718377
1376,9254;0,0714098
1377,8896;0,0708992
1378,8539;0,0702965
1379,8181;0,0696101
1380,7823;0,0688727
1381,7466;0,0681271
1382,7108;0,0674002
1383,6750;0,0666887
1384,6393;0,0659693
1385,6035;0,0652288
1386,5677;0,0644958
1387,5320;0,0638392
1388,4962;0,063319
1389,4604;0,0629403
1390,4247;0,0626621
1391,3889;0,062436
1392,3531;0,0622324
1393,3174;0,0620475
1394,2816;0,0618977
1395,2458;0,0618075
1396,2101;0,0617935
1397,1743;0,0618577
1398,1385;0,0619896
1399,1028;0,0621728
1400,0670;0,0623898
1401,0313;0,0626268
1401,9955;0,0628796
1402,9597;0,0631562
1403,9240;0,0634722
1404,8882;0,0638392
1405,8524;0,0642526
1406,8167;0,0646942
1407,7809;0,0651497
1408,7451;0,0656222
1409,7094;0,0661288
1410,6736;0,0666806
1411,6378;0,0672636
1412,6021;0,0678386
1413,5663;0,0683631
1414,5305;0,0688153
1415,4948;0,0692003
1416,4590;0,0695404
1417,4232;0,0698582
1418,3875;0,070157
1419,3517;0,0704102
1420,3159;0,0705797
1421,2802;0,070639
1422,2444;0,0705778
1423,2086;0,0703982
1424,1729;0,0701141
1425,1371;0,0697466
1426,1013;0,0693116
1427,0656;0,0688089
1428,0298;0,0682309
1428,9940;0,0675879
1429,9583;0,0669272
1430,9225;0,0663139
1431,8867;0,0657849
1432,8510;0,0653251
1433,8152;0,0648869
1434,7794;0,0644333
1435,7437;0,0639836
1436,7079;0,0636252
1437,6721;0,0634474
1438,6364;0,0634631
1439,6006;0,063624
1440,5648;0,0638814
1441,5291;0,0642101
1442,4933;0,0646003
1443,4575;0,0650434
1444,4218;0,0655289
1445,3860;0,0660473
1446,3502;0,0665915
1447,3145;0,0671488
1448,2787;0,0676903
1449,2429;0,0681737
1450,2072;0,0685634
1451,1714;0,0688452
1452,1356;0,0690235
1453,0999;0,069109
1454,0641;0,0691099
1455,0283;0,0690347
1455,9926;0,0689096
1456,9568;0,0687918
1457,9210;0,0687241
1458,8853;0,0686793
1459,8495;0,068601
1460,8137;0,0684455
1461,7780;0,0681677
1462,7422;0,0677052
1463,7064;0,0669989
1464,6707;0,0660587
1465,6349;0,0650017
1466,5991;0,0639686
1467,5634;0,063005
1468,5276;0,0620471
1469,4918;0,0609724
1470,4561;0,0596446
1471,4203;0,0579796
1472,3845;0,0560701
1473,3488;0,0542335
1474,3130;0,0527696
1475,2772;0,0517062
1476,2415;0,0508963
1477,2057;0,0502088
1478,1699;0,049583
1479,1342;0,049004
1480,0984;0,0484761
1481,0626;0,0480117
1482,0269;0,0476265
1482,9911;0,0473319
1483,9553;0,0471252
1484,9196;0,0469867
1485,8838;0,046889
1486,8480;0,0468164
1487,8123;0,0467913
1488,7765;0,0468804
1489,7407;0,0471383
1490,7050;0,0475409
1491,6692;0,0480167
1492,6334;0,0485183
1493,5977;0,0490412
1494,5619;0,049611
1495,5261;0,0502713
1496,4904;0,0510658
1497,4546;0,0519975
1498,4188;0,0529964
1499,3831;0,0539603
1500,3473;0,054824
1501,3115;0,0555694
1502,2758;0,0561991
1503,2400;0,0567159
1504,2042;0,0571167
1505,1685;0,0573926
1506,1327;0,0575383
1507,0969;0,0575705
1508,0612;0,0575193
1509,0254;0,0573983
1509,9896;0,05721
1510,9539;0,0569541
1511,9181;0,0566183
1512,8823;0,0561737
1513,8466;0,0555842
1514,8108;0,0548337
1515,7750;0,0539531
1516,7393;0,0530105
1517,7035;0,0520548
1518,6677;0,0510671
1519,6320;0,0499835
1520,5962;0,048786
1521,5604;0,0475706
1522,5247;0,0464868
1523,4889;0,0456072
1524,4531;0,0448918
1525,4174;0,0442671
1526,3816;0,0437061
1527,3458;0,0432359
1528,3101;0,0428868
1529,2743;0,0426477
1530,2385;0,0424635
1531,2028;0,0422672
1532,1670;0,0420298
1533,1312;0,0417992
1534,0955;0,0416717
1535,0597;0,041702
1536,0239;0,0418611
1536,9882;0,0420677
1537,9524;0,0422211
1538,9166;0,0422211
1539,8809;0,0420436
1540,8451;0,0418712
1541,8093;0,0419593
1542,7736;0,0423132
1543,7378;0,0427868
1544,7020;0,0432863
1545,6663;0,0437806
1546,6305;0,0442607
1547,5947;0,0447208
1548,5590;0,0451585
1549,5232;0,0455818
1550,4874;0,0460107
1551,4517;0,0464669
1552,4159;0,0469552
1553,3801;0,0474553
1554,3444;0,0479324
1555,3086;0,0483577
1556,2728;0,0487326
1557,2371;0,0491317
1558,2013;0,0497135
1559,1655;0,0505246
1560,1298;0,051371
1561,0940;0,0521214
1562,0582;0,0528089
1563,0225;0,0534959
1563,9867;0,0542074
1564,9509;0,0549336
1565,9152;0,0556589
1566,8794;0,0563971
1567,8436;0,0572042
1568,8079;0,0581285
1569,7721;0,059131
1570,7363;0,060096
1571,7006;0,0609396
1572,6648;0,0616794
1573,6290;0,0624243
1574,5933;0,0633306
1575,5575;0,0645102
1576,5217;0,065891
1577,4860;0,0672306
1578,4502;0,0683672
1579,4144;0,0693397
1580,3787;0,070271
1581,3429;0,0712485
1582,3071;0,0722873
1583,2714;0,0733455
1584,2356;0,0743687
1585,1998;0,075333
1586,1641;0,0762483
1587,1283;0,077129
1588,0925;0,0779665
1589,0568;0,0787303
1590,0210;0,0793889
1590,9852;0,0799261
1591,9495;0,0803399
1592,9137;0,0806322
1593,8779;0,0808046
1594,8422;0,0808636
1595,8064;0,0808253
1596,7706;0,0807123
1597,7349;0,0805462
1598,6991;0,080344
1599,6633;0,0801213
1600,6276;0,0798945
1601,5918;0,0796778
1602,5560;0,079478
1603,5203;0,0792919
1604,4845;0,0791123
1605,4487;0,0789354
1606,4130;0,0787649
1607,3772;0,0786088
1608,3414;0,0784719
1609,3057;0,0783496
1610,2699;0,0782288
1611,2341;0,0780978
1612,1984;0,0779546
1613,1626;0,0778107
1614,1268;0,0776916
1615,0911;0,0776318
1616,0553;0,0776493
1617,0195;0,0777035
1617,9838;0,077712
1618,9480;0,0776211
1619,9122;0,0774302
1620,8765;0,0771631
1621,8407;0,0768456
1622,8049;0,0765027
1623,7692;0,0761524
1624,7334;0,0757921
1625,6976;0,0753953
1626,6619;0,074931
1627,6261;0,0743905
1628,5903;0,0738009
1629,5546;0,0732117
1630,5188;0,0726616
1631,4830;0,0721518
1632,4473;0,0716403
1633,4115;0,0710533
1634,3757;0,0703261
1635,3400;0,0694858
1636,3042;0,0686701
1637,2684;0,0679644
1638,2327;0,0673132
1639,1969;0,066636
1640,1611;0,0659133
1641,1254;0,065176
1642,0896;0,0644607
1643,0538;0,0637634
1644,0181;0,0630096
1644,9823;0,0620788
1645,9465;0,0609341
1646,9108;0,0597587
1647,8750;0,0588167
1648,8392;0,0581795
1649,8035;0,0577069
1650,7677;0,0571484
1651,7319;0,0561989
1652,6962;0,0547006
1653,6604;0,0530373
1654,6246;0,0518012
1655,5889;0,0510374
1656,5531;0,0504864
1657,5173;0,0499686
1658,4816;0,0494023
1659,4458;0,0487414
1660,4100;0,0479557
1661,3743;0,04706
1662,3385;0,0461459
1663,3027;0,0453373
1664,2670;0,0446949
1665,2312;0,0441821
1666,1954;0,0436979
1667,1597;0,0431195
1668,1239;0,0423568
1669,0881;0,0414353
1670,0524;0,0405209
1671,0166;0,0397791
1671,9808;0,0392226
1672,9451;0,0387413
1673,9093;0,0382218
1674,8735;0,0376292
1675,8378;0,0370254
1676,8020;0,036511
1677,7662;0,0361395
1678,7305;0,0358918
1679,6947;0,0357031
1680,6589;0,035481
1681,6232;0,0351093
1682,5874;0,0344916
1683,5516;0,0336836
1684,5159;0,0329337
1685,4801;0,0324245
1686,4443;0,0321159
1687,4086;0,031895
1688,3728;0,0316972
1689,3370;0,031514
1690,3013;0,0313644
1691,2655;0,0312647
1692,2297;0,0312097
1693,1940;0,0311707
1694,1582;0,0311075
1695,1224;0,0309898
1696,0867;0,0308167
1697,0509;0,0306202
1698,0151;0,0304437
1698,9794;0,0303152
1699,9436;0,0302413
1700,9078;0,0302195
1701,8721;0,0302486
1702,8363;0,0303293
1703,8005;0,0304616
1704,7648;0,0306431
1705,7290;0,0308684
1706,6932;0,0311282
1707,6575;0,031411
1708,6217;0,031708
1709,5859;0,0320169
1710,5502;0,032339
1711,5144;0,0326719
1712,4786;0,0330036
1713,4429;0,0333102
1714,4071;0,0335614
1715,3713;0,0337395
1716,3356;0,033872
1717,2998;0,0340282
1718,2640;0,0342501
1719,2283;0,0345205
1720,1925;0,0348094
1721,1567;0,0351026
1722,1210;0,035393
1723,0852;0,0356708
1724,0494;0,0359228
1725,0137;0,0361394
1725,9779;0,0363216
1726,9421;0,0364805
1727,9064;0,0366294
1728,8706;0,036773
1729,8348;0,036894
1730,7991;0,0369449
1731,7633;0,0368553
1732,7275;0,0365826
1733,6918;0,0361821
1734,6560;0,035783
1735,6202;0,0354629
1736,5845;0,0351998
1737,5487;0,0349259
1738,5129;0,0345778
1739,4772;0,0341244
1740,4414;0,0335819
1741,4056;0,0330029
1742,3699;0,0324358
1743,3341;0,0318936
1744,2983;0,0313611
1745,2626;0,0308145
1746,2268;0,0302266
1747,1910;0,0295595
1748,1553;0,0287749
1749,1195;0,0278778
1750,0837;0,0269525
1751,0480;0,0261164
1752,0122;0,0254273
1752,9764;0,0248583
1753,9407;0,0243433
1754,9049;0,0238278
1755,8691;0,0232963
1756,8334;0,0227692
1757,7976;0,0222725
1758,7618;0,0218037
1759,7261;0,0213291
1760,6903;0,020821
1761,6545;0,0202975
1762,6188;0,0198198
1763,5830;0,0194424
1764,5472;0,0191732
1765,5115;0,0189775
1766,4757;0,0188078
1767,4399;0,0186273
1768,4042;0,0184143
1769,3684;0,018153
1770,3326;0,0178283
1771,2969;0,0174435
1772,2611;0,0170481
1773,2253;0,0167241
1774,1896;0,0165246
1775,1538;0,0164419
1776,1180;0,0164283
1777,0823;0,0164295
1778,0465;0,0164061
1779,0107;0,016345
1779,9750;0,0162588
1780,9392;0,0161697
1781,9034;0,0160888
1782,8677;0,0160127
1783,8319;0,0159404
1784,7961;0,0158876
1785,7604;0,0158814
1786,7246;0,0159379
1787,6888;0,016044
1788,6531;0,016154
1789,6173;0,0162004
1790,5815;0,0161235
1791,5458;0,0159215
1792,5100;0,0156786
1793,4742;0,0155066
1794,4385;0,0154532
1795,4027;0,0154899
1796,3669;0,0155572
1797,3312;0,0155988
1798,2954;0,0155768
1799,2596;0,0154832
1800,2239;0,0153454
1801,1881;0,0152121
1802,1523;0,0151236
1803,1166;0,0150928
1804,0808;0,0151097
1805,0450;0,0151535
1806,0093;0,0152013
1806,9735;0,0152304
1807,9377;0,0152215
1808,9020;0,0151631
1809,8662;0,015059
1810,8304;0,0149287
1811,7947;0,0147994
1812,7589;0,0146924
1813,7231;0,0146172
1814,6874;0,0145752
1815,6516;0,0145665
1816,6158;0,0145943
1817,5801;0,014663
1818,5443;0,0147698
1819,5085;0,0148994
1820,4728;0,0150255
1821,4370;0,0151197
1822,4012;0,0151625
1823,3655;0,0151532
1824,3297;0,0151115
1825,2939;0,0150642
1826,2582;0,0150242
1827,2224;0,0149805
1828,1866;0,0149111
1829,1509;0,0148092
1830,1151;0,0146997
1831,0793;0,014624
1832,0436;0,0146053
1833,0078;0,014634
1833,9720;0,0146789
1834,9363;0,0147086
1835,9005;0,0147095
1836,8647;0,0146963
1837,8290;0,0147035
1838,7932;0,0147598
1839,7574;0,0148663
1840,7217;0,0149922
1841,6859;0,0150856
1842,6501;0,0150942
1843,6144;0,0149996
1844,5786;0,0148406
1845,5428;0,0146876
1846,5071;0,0145895
1847,4713;0,0145525
1848,4355;0,0145582
1849,3998;0,0145847
1850,3640;0,0146175
1851,3282;0,0146503
1852,2925;0,0146808
1853,2567;0,0147065
1854,2209;0,0147234
1855,1852;0,0147296
1856,1494;0,0147297
1857,1136;0,0147336
1858,0779;0,0147505
1859,0421;0,0147811
1860,0063;0,014816
1860,9706;0,0148422
1861,9348;0,0148529
1862,8990;0,0148517
1863,8633;0,0148481
1864,8275;0,0148482
1865,7917;0,0148473
1866,7560;0,0148328
1867,7202;0,0147962
1868,6844;0,0147444
1869,6487;0,0146957
1870,6129;0,0146639
1871,5771;0,0146508
1872,5414;0,0146493
1873,5056;0,014649
1874,4698;0,0146418
1875,4341;0,0146259
1876,3983;0,0146076
1877,3625;0,0145968
1878,3268;0,014601
1879,2910;0,0146205
1880,2552;0,0146498
1881,2195;0,014682
1882,1837;0,0147124
1883,1479;0,0147407
1884,1122;0,0147691
1885,0764;0,0147984
1886,0406;0,014825
1887,0049;0,014839
1887,9691;0,0148279
1888,9333;0,0147838
1889,8976;0,0147116
1890,8618;0,0146311
1891,8260;0,0145694
1892,7903;0,0145503
1893,7545;0,0145847
1894,7188;0,0146645
1895,6830;0,0147636
1896,6472;0,0148479
1897,6115;0,0148907
1898,5757;0,0148845
1899,5399;0,0148417
1900,5042;0,0147854
1901,4684;0,0147391
1902,4326;0,0147185
1903,3969;0,0147284
1904,3611;0,0147637
1905,3253;0,0148121
1906,2896;0,0148571
1907,2538;0,0148816
1908,2180;0,0148728
1909,1823;0,0148303
1910,1465;0,0147699
1911,1107;0,0147178
1912,0750;0,014697
1913,0392;0,0147165
1914,0034;0,0147692
1914,9677;0,0148373
1915,9319;0,0149006
1916,8961;0,0149443
1917,8604;0,014962
1918,8246;0,0149518
1919,7888;0,0149123
1920,7531;0,0148414
1921,7173;0,0147411
1922,6815;0,0146211
1923,6458;0,0144992
1924,6100;0,0143953
1925,5742;0,0143254
1926,5385;0,0142988
1927,5027;0,0143193
1928,4669;0,0143843
1929,4312;0,0144803
1930,3954;0,0145822
1931,3596;0,0146618
1932,3239;0,014703
1933,2881;0,0147126
1934,2523;0,0147156
1935,2166;0,0147353
1936,1808;0,0147739
1937,1450;0,014808
1938,1093;0,0148036
1939,0735;0,0147395
1940,0377;0,0146254
1941,0020;0,0145034
1941,9662;0,0144307
1942,9304;0,0144481
1943,8947;0,0145558
1944,8589;0,0147176
1945,8231;0,0148864
1946,7874;0,0150239
1947,7516;0,0151045
1948,7158;0,0151116
1949,6801;0,0150346
1950,6443;0,014871
1951,6085;0,0146298
1952,5728;0,0143349
1953,5370;0,0140266
1954,5012;0,0137583
1955,4655;0,0135874
1956,4297;0,0135602
1957,3939;0,0136958
1958,3582;0,0139751
1959,3224;0,0143402
1960,2866;0,0147088
1961,2509;0,015
1962,2151;0,0151598
1963,1793;0,0151729
1964,1436;0,0150576
1965,1078;0,0148543
1966,0720;0,0146132
1967,0363;0,0143816
1968,0005;0,0141887
1968,9647;0,0140374
1969,9290;0,0139127
1970,8932;0,0138054
1971,8574;0,0137399
1972,8217;0,0137866
1973,7859;0,0140465
1974,7501;0,0146016
1975,7144;0,0154486
1976,6786;0,0164589
1977,6428;0,0174091
1978,6071;0,0180805
1979,5713;0,0183614
1980,5355;0,0182829
1981,4998;0,0179785
1982,4640;0,0176107
1983,4282;0,0173052
1984,3925;0,017114
1985,3567;0,017012
1986,3209;0,0169273
1987,2852;0,0167925
1988,2494;0,0165903
1989,2136;0,0163715
1990,1779;0,0162298
1991,1421;0,0162438
1992,1063;0,016415
1993,0706;0,0166527
1994,0348;0,0168213
1994,9990;0,0168183
1995,9633;0,0166246
1996,9275;0,0163035
1997,8917;0,0159564
1998,8560;0,0156632
1999,8202;0,0154414
2000,7844;0,0152524
2001,7487;0,0150528
2002,7129;0,0148508
2003,6771;0,0147247
2004,6414;0,0147841
2005,6056;0,0150924
2006,5698;0,0155992
2007,5341;0,0161382
2008,4983;0,0165044
2009,4625;0,0165636
2010,4268;0,0163176
2011,3910;0,0158917
2012,3552;0,015464
2013,3195;0,0151864
2014,2837;0,0151332
2015,2479;0,0152891
2016,2122;0,0155737
2017,1764;0,015888
2018,1406;0,0161583
2019,1049;0,0163536
2020,0691;0,0164751
2021,0333;0,0165342
2021,9976;0,0165389
2022,9618;0,0164967
2023,9260;0,0164252
2024,8903;0,0163576
2025,8545;0,0163378
2026,8187;0,0164056
2027,7830;0,0165803
2028,7472;0,0168523
2029,7114;0,0171825
2030,6757;0,0175119
2031,6399;0,017779
2032,6041;0,017942
2033,5684;0,0179966
2034,5326;0,0179803
2035,4968;0,0179576
2036,4611;0,0179942
2037,4253;0,0181302
2038,3895;0,0183633
2039,3538;0,0186426
2040,3180;0,0188785
2041,2822;0,0189746
2042,2465;0,018877
2043,2107;0,0186191
2044,1749;0,0183264
2045,1392;0,0181675
2046,1034;0,0182641
2047,0676;0,0186073
2048,0320;0,0190427
2048,9961;0,0193545
2049,9604;0,0193965
2050,9246;0,0191693
2051,8889;0,0187994
2052,8530;0,0184535
2053,8174;0,0182479
2054,7815;0,0181999
2055,7458;0,0182378
2056,7100;0,01826
2057,6743;0,0182003
2058,6384;0,0180597
2059,6028;0,0178915
2060,5669;0,0177609
2061,5313;0,0177093
2062,4954;0,0177411
2063,4597;0,0178298
2064,4238;0,0179351
2065,3882;0,0180199
2066,3523;0,0180617
2067,3167;0,0180579
2068,2808;0,0180233
2069,2451;0,0179803
2070,2092;0,0179471
2071,1736;0,0179313
2072,1377;0,0179309
2073,1021;0,0179428
2074,0662;0,0179684
2075,0305;0,0180119
2075,9946;0,0180709
2076,9590;0,0181302
2077,9231;0,018165
2078,8875;0,0181567
2079,8516;0,0181062
2080,8159;0,0180375
2081,7800;0,017984
2082,7444;0,0179679
2083,7085;0,0179834
2084,6729;0,0179974
2085,6370;0,0179635
2086,6013;0,0178445
2087,5654;0,0176302
2088,5298;0,0173449
2089,4939;0,0170416
2090,4583;0,0167862
2091,4224;0,0166381
2092,3867;0,0166317
2093,3508;0,0167652
2094,3152;0,0169985
2095,2793;0,0172658
2096,2437;0,0174992
2097,2078;0,0176534
2098,1721;0,0177189
2099,1362;0,0177166
2100,1006;0,0176796
2101,0647;0,017638
2102,0291;0,0176083
2102,9932;0,0175983
2103,9575;0,0176115
2104,9216;0,0176488
2105,8860;0,0177051
2106,8501;0,0177664
2107,8145;0,0178138
2108,7786;0,0178348
2109,7429;0,0178334
2110,7070;0,0178292
2111,6714;0,0178437
2112,6355;0,0178803
2113,5999;0,017915
2114,5640;0,017905
2115,5283;0,0178141
2116,4924;0,0176365
2117,4568;0,017405
2118,4209;0,0171767
2119,3853;0,0170033
2120,3494;0,0169062
2121,3137;0,0168692
2122,2778;0,0168541
2123,2422;0,016824
2124,2063;0,0167611
2125,1707;0,016665
2126,1348;0,0165391
2127,0991;0,0163794
2128,0632;0,0161764
2129,0276;0,0159331
2129,9917;0,0156834
2130,9561;0,015494
2131,9202;0,0154432
2132,8845;0,0155813
2133,8486;0,0158962
2134,8130;0,0163067
2135,7771;0,0166954
2136,7415;0,0169619
2137,7056;0,0170643
2138,6699;0,0170241
2139,6340;0,0168997
2140,5984;0,0167517
2141,5625;0,0166232
2142,5269;0,0165381
2143,4910;0,0165098
2144,4553;0,0165466
2145,4194;0,0166471
2146,3838;0,016791
2147,3479;0,0169362
2148,3123;0,0170278
2149,2764;0,0170152
2150,2407;0,0168686
2151,2048;0,0165877
2152,1692;0,0162062
2153,1333;0,0157965
2154,0977;0,0154761
2155,0618;0,0154078
2156,0261;0,0157694
2156,9902;0,0166762
2157,9546;0,0180722
2158,9187;0,0196818
2159,8831;0,0211149
2160,8472;0,0220746
2161,8115;0,0224884
2162,7756;0,0224787
2163,7400;0,0222439
2164,7041;0,0219465
2165,6685;0,0216583
2166,6326;0,0213627
2167,5969;0,0210018
2168,5610;0,0205343
2169,5254;0,0199759
2170,4895;0,0194057
2171,4539;0,0189399
2172,4180;0,0186855
2173,3823;0,018691
2174,3464;0,018918
2175,3108;0,0192531
2176,2749;0,019561
2177,2393;0,0197513
2178,2034;0,0198164
2179,1677;0,0198192
2180,1318;0,0198398
2181,0962;0,0199173
2182,0603;0,020026
2183,0247;0,0201008
2183,9888;0,0200906
2184,9531;0,0199971
2185,9172;0,0198712
2186,8816;0,0197755
2187,8457;0,0197445
2188,8101;0,019771
2189,7742;0,0198226
2190,7385;0,0198699
2191,7026;0,0199046
2192,6670;0,0199342
2193,6311;0,019963
2194,5955;0,0199757
2195,5596;0,0199397
2196,5239;0,0198244
2197,4880;0,0196265
2198,4524;0,019382
2199,4165;0,019155
2200,3809;0,019007
2201,3450;0,0189653
2202,3093;0,0190098
2203,2734;0,019087
2204,2378;0,0191446
2205,2019;0,0191625
2206,1663;0,0191602
2207,1304;0,0191769
2208,0947;0,0192381
2209,0588;0,0193331
2210,0232;0,0194194
2210,9873;0,01945
2211,9517;0,0194025
2212,9158;0,0192918
2213,8801;0,0191594
2214,8442;0,0190501
2215,8086;0,0189936
2216,7727;0,0189992
2217,7371;0,0190625
2218,7012;0,0191722
2219,6655;0,0193123
2220,6296;0,0194583
2221,5940;0,0195765
2222,5581;0,0196307
2223,5225;0,0195961
2224,4866;0,0194726
2225,4509;0,0192915
2226,4150;0,0191079
2227,3794;0,0189825
2228,3435;0,0189572
2229,3079;0,0190374
2230,2720;0,0191888
2231,2363;0,0193534
2232,2004;0,0194777
2233,1648;0,0195369
2234,1289;0,0195411
2235,0933;0,0195201
2236,0574;0,019498
2237,0217;0,0194755
2237,9858;0,0194344
2238,9502;0,0193577
2239,9143;0,0192483
2240,8787;0,0191313
2241,8428;0,0190365
2242,8071;0,0189774
2243,7712;0,0189419
2244,7356;0,0189045
2245,6997;0,0188467
2246,6641;0,0187707
2247,6282;0,0186953
2248,5925;0,01864
2249,5566;0,0186122
2250,5210;0,0186075
2251,4851;0,0186203
2252,4495;0,0186534
2253,4136;0,0187151
2254,3779;0,018807
2255,3420;0,0189137
2256,3064;0,0190056
2257,2705;0,0190536
2258,2349;0,0190457
2259,1990;0,018994
2260,1633;0,0189272
2261,1274;0,018876
2262,0918;0,01886
2263,0559;0,018882
2264,0203;0,0189299
2264,9844;0,0189845
2265,9487;0,0190281
2266,9128;0,0190533
2267,8772;0,0190659
2268,8413;0,019081
2269,8057;0,0191131
2270,7698;0,0191654
2271,7341;0,0192265
2272,6982;0,0192776
2273,6626;0,0193061
2274,6267;0,0193156
2275,5911;0,0193236
2276,5552;0,01935
2277,5195;0,0194041
2278,4836;0,0194827
2279,4480;0,0195769
2280,4121;0,019683
2281,3765;0,0198042
2282,3406;0,0199428
2283,3049;0,0200887
2284,2690;0,0202161
2285,2334;0,0202924
2286,1975;0,0202942
2287,1619;0,0202213
2288,1260;0,0200971
2289,0903;0,0199577
2290,0544;0,0198348
2291,0188;0,0197436
2291,9829;0,0196821
2292,9473;0,019638
2293,9114;0,0195986
2294,8757;0,0195569
2295,8398;0,0195131
2296,8042;0,019473
2297,7683;0,0194457
2298,7327;0,0194408
2299,6968;0,0194653
2300,6611;0,0195181
2301,6252;0,0195872
2302,5896;0,0196509
2303,5537;0,0196865
2304,5181;0,0196828
2305,4822;0,019649
2306,4465;0,0196132
2307,4106;0,0196105
2308,3750;0,0196639
2309,3391;0,0197717
2310,3035;0,019909
2311,2676;0,0200439
2312,2319;0,0201554
2313,1960;0,0202413
2314,1604;0,0203133
2315,1245;0,0203872
2316,0889;0,0204785
2317,0530;0,0206057
2318,0173;0,0207896
2318,9814;0,0210421
2319,9458;0,0213421
2320,9099;0,0216168
2321,8743;0,0217581
2322,8384;0,0216764
2323,8027;0,0213552
2324,7668;0,0208613
2325,7312;0,0203104
2326,6953;0,0198169
2327,6597;0,0194558
2328,6238;0,0192456
2329,5881;0,0191537
2330,5522;0,019123
2331,5166;0,0191057
2332,4807;0,0190834
2333,4451;0,01906
2334,4092;0,0190415
2335,3735;0,019023
2336,3376;0,0189906
2337,3020;0,0189337
2338,2661;0,0188523
2339,2305;0,0187526
2340,1946;0,0186354
2341,1589;0,0184943
2342,1230;0,0183333
2343,0874;0,0181893
2344,0515;0,0181223
2345,0159;0,0181679
2345,9800;0,0183119
2346,9443;0,0185133
2347,9084;0,0187355
2348,8728;0,0189541
2349,8369;0,0191532
2350,8013;0,019324
2351,7654;0,0194677
2352,7297;0,0195968
2353,6938;0,0197229
2354,6582;0,0198325
2355,6223;0,0198841
2356,5867;0,0198433
2357,5508;0,0197228
2358,5151;0,0195801
2359,4792;0,0194684
2360,4436;0,0193883
2361,4077;0,0192889
2362,3721;0,0191178
2363,3362;0,0188683
2364,3005;0,018585
2365,2646;0,0183306
2366,2290;0,0181495
2367,1931;0,0180536
2368,1575;0,0180304
2369,1216;0,0180558
2370,0859;0,0181021
2371,0500;0,0181429
2372,0144;0,0181596
2372,9785;0,0181483
2373,9429;0,0181206
2374,9070;0,0180972
2375,8713;0,0180972
2376,8354;0,0181287
2377,7998;0,0181862
2378,7639;0,0182551
2379,7283;0,0183187
2380,6924;0,0183665
2381,6567;0,0183969
2382,6208;0,0184176
2383,5852;0,0184411
2384,5493;0,0184787
2385,5137;0,0185358
2386,4778;0,0186086
2387,4421;0,0186865
2388,4063;0,0187573
2389,3706;0,0188144
2390,3347;0,0188598
2391,2991;0,0189023
2392,2632;0,0189502
2393,2275;0,0190046
2394,1917;0,0190583
2395,1560;0,0191011
2396,1201;0,0191277
2397,0845;0,0191423
2398,0486;0,0191562
2399,0129;0,0191795
2399,9771;0,0192149
2400,9414;0,0192564
2401,9055;0,0192959
2402,8699;0,0193305
2403,8340;0,0193663
2404,7983;0,0194146
2405,7625;0,0194825
2406,7268;0,0195672
2407,6909;0,0196548
2408,6553;0,0197283
2409,6194;0,0197758
2410,5837;0,019796
2411,5479;0,0197973
2412,5122;0,019792
2413,4763;0,019791
2414,4407;0,0198013
2415,4048;0,0198266
2416,3691;0,0198683
2417,3333;0,0199257
2418,2976;0,0199954
2419,2617;0,0200705
2420,2261;0,0201421
2421,1902;0,0202026
2422,1545;0,0202477
2423,1187;0,020278
2424,0830;0,0202973
2425,0471;0,0203121
2426,0115;0,0203297
2426,9756;0,0203581
2427,9399;0,0204043
2428,9041;0,0204711
2429,8684;0,0205548
2430,8325;0,0206444
2431,7969;0,0207262
2432,7610;0,0207891
2433,7253;0,0208309
2434,6895;0,0208586
2435,6538;0,0208838
2436,6179;0,0209158
2437,5823;0,0209566
2438,5464;0,0210011
2439,5107;0,0210425
2440,4749;0,0210781
2441,4392;0,0211117
2442,4033;0,0211509
2443,3677;0,0212015
2444,3318;0,0212637
2445,2961;0,0213325
2446,2603;0,0214011
2447,2246;0,0214654
2448,1887;0,0215242
2449,1531;0,0215776
2450,1172;0,0216239
2451,0815;0,0216599
2452,0457;0,0216837
2453,0100;0,0216981
2453,9741;0,0217099
2454,9385;0,0217257
2455,9026;0,0217465
2456,8669;0,0217657
2457,8311;0,0217739
2458,7954;0,0217657
2459,7595;0,0217459
2460,7239;0,021728
2461,6880;0,0217277
2462,6523;0,0217541
2463,6165;0,0218037
2464,5808;0,021863
2465,5449;0,021915
2466,5093;0,0219477
2467,4734;0,021958
2468,4377;0,0219519
2469,4019;0,0219399
2470,3662;0,0219314
2471,3303;0,0219319
2472,2947;0,0219424
2473,2588;0,0219616
2474,2231;0,021988
2475,1873;0,0220209
2476,1516;0,0220592
2477,1157;0,0221004
2478,0801;0,0221405
2479,0442;0,0221758
2480,0085;0,0222046
2480,9727;0,0222289
2481,9370;0,0222526
2482,9011;0,0222788
2483,8655;0,0223078
2484,8296;0,0223375
2485,7939;0,0223664
2486,7581;0,0223951
2487,7224;0,022427
2488,6865;0,022465
2489,6509;0,0225085
2490,6150;0,022553
2491,5793;0,0225923
2492,5435;0,0226223
2493,5078;0,0226446
2494,4719;0,0226649
2495,4363;0,0226907
2496,4004;0,0227262
2497,3647;0,0227698
2498,3289;0,0228148
2499,2932;0,0228524
2500,2573;0,0228766
2501,2217;0,0228882
2502,1858;0,0228955
2503,1501;0,0229109
2504,1143;0,0229441
2505,0786;0,0229961
2506,0427;0,0230573
2507,0071;0,0231121
2507,9712;0,0231472
2508,9355;0,0231591
2509,8997;0,0231559
2510,8640;0,023152
2511,8281;0,0231599
2512,7925;0,0231833
2513,7566;0,0232169
2514,7209;0,0232509
2515,6851;0,0232771
2516,6494;0,0232924
2517,6135;0,0232988
2518,5779;0,0233013
2519,5420;0,0233054
2520,5063;0,0233169
2521,4705;0,0233411
2522,4348;0,0233821
2523,3989;0,0234407
2524,3633;0,0235124
2525,3274;0,0235877
2526,2917;0,0236541
2527,2559;0,0237
2528,2202;0,023718
2529,1843;0,0237078
2530,1487;0,0236765
2531,1128;0,0236377
2532,0771;0,0236081
2533,0413;0,0236021
2534,0056;0,0236275
2534,9697;0,0236823
2535,9341;0,0237557
2536,8982;0,0238333
2537,8625;0,0239025
2538,8267;0,0239564
2539,7910;0,0239935
2540,7551;0,024016
2541,7195;0,0240267
2542,6836;0,0240297
2543,6479;0,0240309
2544,6121;0,0240391
2545,5764;0,0240635
2546,5405;0,0241092
2547,5049;0,0241739
2548,4690;0,0242477
2549,4333;0,0243174
2550,3975;0,0243724
2551,3618;0,0244088
2552,3259;0,0244301
2553,2903;0,0244444
2554,2544;0,0244604
2555,2188;0,0244841
2556,1829;0,0245176
2557,1472;0,0245584
2558,1113;0,024601
2559,0757;0,0246381
2560,0398;0,0246642
2561,0042;0,0246778
2561,9683;0,0246832
2562,9326;0,0246888
2563,8967;0,0247035
2564,8611;0,0247332
2565,8252;0,0247786
2566,7896;0,0248359
2567,7537;0,024899
2568,7180;0,024962
2569,6821;0,0250202
2570,6465;0,0250707
2571,6106;0,0251125
2572,5750;0,0251454
2573,5391;0,0251702
2574,5034;0,0251873
2575,4675;0,0251967
2576,4319;0,0251985
2577,3960;0,0251946
2578,3604;0,0251902
2579,3245;0,0251937
2580,2888;0,0252138
2581,2529;0,0252554
2582,2173;0,0253174
2583,1814;0,0253918
2584,1458;0,0254674
2585,1099;0,0255341
2586,0742;0,0255869
2587,0383;0,0256269
2588,0027;0,02566
2588,9668;0,0256928
2589,9312;0,0257305
2590,8953;0,0257741
2591,8596;0,0258217
2592,8237;0,0258705
2593,7881;0,0259186
2594,7522;0,0259664
2595,7166;0,0260149
2596,6807;0,0260644
2597,6450;0,0261129
2598,6091;0,0261569
2599,5735;0,0261936
2600,5376;0,0262231
2601,5020;0,0262483
2602,4661;0,0262728
2603,4304;0,0262993
2604,3945;0,0263278
2605,3589;0,0263569
2606,3230;0,0263863
2607,2874;0,026418
2608,2515;0,0264561
2609,2158;0,0265041
2610,1799;0,0265622
2611,1443;0,0266261
2612,1084;0,0266881
2613,0728;0,0267409
2614,0369;0,0267807
2615,0012;0,0268089
2615,9653;0,026831
2616,9297;0,0268534
2617,8938;0,02688
2618,8582;0,0269102
2619,8223;0,0269406
2620,7866;0,0269683
2621,7507;0,0269938
2622,7151;0,0270215
2623,6792;0,0270569
2624,6436;0,0271022
2625,6077;0,0271542
2626,5720;0,0272055
2627,5361;0,0272488
2628,5005;0,0272816
2629,4646;0,0273069
2630,4290;0,0273308
2631,3931;0,0273581
2632,3574;0,0273893
2633,3215;0,0274214
2634,2859;0,0274511
2635,2500;0,0274782
2636,2144;0,0275055
2637,1785;0,0275362
2638,1428;0,0275711
2639,1069;0,0276071
2640,0713;0,0276399
2641,0354;0,0276667
2641,9998;0,0276889
2642,9639;0,0277106
2643,9282;0,0277353
2644,8923;0,0277634
2645,8567;0,0277912
2646,8208;0,0278141
2647,7852;0,0278292
2648,7493;0,0278369
2649,7136;0,0278397
2650,6777;0,0278406
2651,6421;0,0278413
2652,6062;0,0278419
2653,5706;0,0278421
2654,5347;0,027842
2655,4990;0,0278412
2656,4631;0,0278379
2657,4275;0,0278289
2658,3916;0,0278104
2659,3560;0,0277803
2660,3201;0,0277399
2661,2844;0,0276935
2662,2485;0,0276474
2663,2129;0,0276066
2664,1770;0,0275747
2665,1414;0,0275527
2666,1055;0,0275408
2667,0698;0,027538
2668,0339;0,0275433
2668,9983;0,0275546
2669,9624;0,02757
2670,9268;0,0275884
2671,8909;0,0276102
2672,8552;0,0276373
2673,8193;0,0276717
2674,7837;0,0277132
2675,7478;0,0277587
2676,7122;0,0278036
2677,6763;0,0278436
2678,6406;0,0278777
2679,6047;0,0279081
2680,5691;0,0279391
2681,5332;0,027974
2682,4976;0,0280135
2683,4617;0,0280553
2684,4260;0,0280963
2685,3901;0,0281338
2686,3545;0,0281675
2687,3186;0,0281981
2688,2830;0,0282268
2689,2471;0,0282544
2690,2114;0,0282814
2691,1755;0,028309
2692,1399;0,0283387
2693,1040;0,0283719
2694,0684;0,0284087
2695,0325;0,0284474
2695,9968;0,0284856
2696,9609;0,0285218
2697,9253;0,0285571
2698,8894;0,0285938
2699,8538;0,0286343
2700,8179;0,0286785
2701,7822;0,0287238
2702,7463;0,0287663
2703,7107;0,0288036
2704,6748;0,028836
2705,6392;0,0288666
2706,6033;0,028898
2707,5676;0,028931
2708,5317;0,0289638
2709,4961;0,028994
2710,4602;0,0290211
2711,4246;0,0290475
2712,3887;0,0290782
2713,3530;0,029117
2714,3171;0,0291639
2715,2815;0,0292147
2716,2456;0,0292625
2717,2100;0,0293015
2718,1741;0,0293302
2719,1384;0,0293514
2720,1025;0,0293705
2721,0669;0,0293921
2722,0310;0,0294176
2722,9954;0,0294449
2723,9595;0,0294709
2724,9238;0,0294943
2725,8879;0,0295172
2726,8523;0,0295446
2727,8164;0,0295811
2728,7808;0,0296282
2729,7449;0,0296829
2730,7092;0,0297382
2731,6733;0,029786
2732,6377;0,0298208
2733,6018;0,0298411
2734,5662;0,0298499
2735,5303;0,0298528
2736,4946;0,0298568
2737,4587;0,0298677
2738,4231;0,0298889
2739,3872;0,029921
2740,3516;0,0299613
2741,3157;0,0300052
2742,2800;0,0300472
2743,2441;0,0300834
2744,2085;0,0301123
2745,1726;0,0301351
2746,1370;0,0301552
2747,1011;0,0301761
2748,0654;0,0302008
2749,0295;0,0302309
2749,9939;0,0302662
2750,9580;0,0303051
2751,9224;0,0303454
2752,8865;0,030385
2753,8508;0,0304232
2754,8149;0,0304608
2755,7793;0,0304998
2756,7434;0,0305412
2757,7078;0,0305846
2758,6719;0,0306274
2759,6362;0,0306664
2760,6003;0,0306995
2761,5647;0,0307274
2762,5288;0,0307531
2763,4932;0,0307803
2764,4573;0,030812
2765,4216;0,0308501
2766,3857;0,0308949
2767,3501;0,0309457
2768,3142;0,031001
2769,2786;0,0310576
2770,2427;0,0311114
2771,2070;0,0311589
2772,1711;0,031199
2773,1355;0,0312341
2774,0996;0,0312691
2775,0640;0,0313088
2776,0281;0,0313557
2776,9924;0,0314081
2777,9565;0,0314623
2778,9209;0,031515
2779,8850;0,0315654
2780,8494;0,0316156
2781,8135;0,0316686
2782,7778;0,0317254
2783,7419;0,0317847
2784,7063;0,0318436
2785,6704;0,0319002
2786,6348;0,0319556
2787,5989;0,0320138
2788,5632;0,0320792
2789,5273;0,0321542
2790,4917;0,0322376
2791,4558;0,0323251
2792,4202;0,0324114
2793,3843;0,0324927
2794,3486;0,032568
2795,3127;0,0326386
2796,2771;0,0327081
2797,2412;0,0327804
2798,2056;0,0328589
2799,1697;0,0329458
2800,1340;0,0330404
2801,0981;0,0331399
2802,0625;0,03324
2803,0266;0,0333368
2803,9910;0,0334284
2804,9551;0,0335158
2805,9194;0,0336014
2806,8835;0,0336886
2807,8479;0,0337802
2808,8120;0,0338784
2809,7764;0,033985
2810,7405;0,0341008
2811,7048;0,0342251
2812,6689;0,0343553
2813,6333;0,0344878
2814,5974;0,0346194
2815,5618;0,0347484
2816,5259;0,0348755
2817,4902;0,0350027
2818,4543;0,0351331
2819,4187;0,0352692
2820,3828;0,0354134
2821,3472;0,0355667
2822,3113;0,035729
2823,2756;0,0358986
2824,2397;0,0360734
2825,2041;0,0362523
2826,1682;0,0364366
2827,1326;0,0366297
2828,0967;0,0368356
2829,0610;0,0370563
2830,0251;0,037291
2830,9895;0,0375365
2831,9536;0,0377885
2832,9180;0,038044
2833,8821;0,0383015
2834,8464;0,0385615
2835,8105;0,0388266
2836,7749;0,0391019
2837,7390;0,0393943
2838,7034;0,0397116
2839,6675;0,04006
2840,6318;0,0404425
2841,5959;0,0408588
2842,5603;0,0413069
2843,5244;0,0417854
2844,4888;0,0422932
2845,4529;0,0428272
2846,4172;0,0433769
2847,3813;0,0439221
2848,3457;0,0444331
2849,3098;0,044877
2850,2742;0,0452262
2851,2383;0,0454656
2852,2026;0,0455958
2853,1667;0,0456306
2854,1311;0,0455916
2855,0952;0,0455022
2856,0596;0,0453839
2857,0237;0,0452556
2857,9880;0,0451337
2858,9521;0,0450319
2859,9165;0,0449608
2860,8806;0,044926
2861,8450;0,0449274
2862,8091;0,0449608
2863,7734;0,0450199
2864,7375;0,0450985
2865,7019;0,045192
2866,6660;0,0452966
2867,6304;0,0454089
2868,5945;0,0455246
2869,5588;0,0456386
2870,5229;0,0457446
2871,4873;0,0458368
2872,4514;0,0459111
2873,4158;0,0459668
2874,3799;0,0460082
2875,3442;0,0460434
2876,3083;0,046082
2877,2727;0,0461315
2878,2368;0,046194
2879,2012;0,0462665
2880,1653;0,0463429
2881,1296;0,0464169
2882,0938;0,0464855
2883,0581;0,0465494
2884,0222;0,0466126
2884,9866;0,0466808
2885,9507;0,0467589
2886,9150;0,0468496
2887,8792;0,0469517
2888,8435;0,04706
2889,8076;0,0471675
2890,7720;0,047268
2891,7361;0,0473596
2892,7004;0,047445
2893,6646;0,0475296
2894,6289;0,0476183
2895,5930;0,0477132
2896,5574;0,0478137
2897,5215;0,0479188
2898,4858;0,0480293
2899,4500;0,0481477
2900,4143;0,0482758
2901,3784;0,0484128
2902,3428;0,0485548
2903,3069;0,048697
2904,2712;0,0488369
2905,2354;0,0489763
2906,1997;0,049121
2907,1638;0,0492793
2908,1282;0,0494601
2909,0923;0,0496722
2910,0566;0,0499238
2911,0208;0,0502205
2911,9851;0,0505623
2912,9492;0,0509409
2913,9136;0,0513384
2914,8777;0,0517311
2915,8420;0,0520941
2916,8062;0,0524073
2917,7705;0,0526587
2918,7346;0,052844
2919,6990;0,0529642
2920,6631;0,0530232
2921,6274;0,0530251
2922,5916;0,0529736
2923,5559;0,0528717
2924,5200;0,0527219
2925,4844;0,0525268
2926,4485;0,0522908
2927,4128;0,052021
2928,3770;0,0517268
2929,3413;0,0514185
2930,3054;0,0511034
2931,2698;0,0507844
2932,2339;0,0504598
2933,1982;0,0501264
2934,1624;0,0497831
2935,1267;0,0494326
2936,0908;0,0490803
2937,0552;0,0487311
2938,0193;0,0483873
2938,9836;0,0480479
2939,9478;0,047711
2940,9121;0,0473763
2941,8762;0,0470463
2942,8406;0,0467248
2943,8047;0,0464152
2944,7690;0,0461191
2945,7332;0,0458372
2946,6975;0,045571
2947,6616;0,0453239
2948,6260;0,0451005
2949,5901;0,0449036
2950,5544;0,0447321
2951,5186;0,0445797
2952,4829;0,0444366
2953,4470;0,0442925
2954,4114;0,0441395
2955,3755;0,0439743
2956,3398;0,0437978
2957,3040;0,043614
2958,2683;0,0434281
2959,2324;0,0432449
2960,1968;0,0430673
2961,1609;0,0428958
2962,1252;0,0427286
2963,0894;0,0425621
2964,0537;0,0423932
2965,0178;0,0422203
2965,9822;0,0420447
2966,9463;0,0418701
2967,9106;0,0417008
2968,8748;0,0415396
2969,8391;0,0413866
2970,8032;0,0412398
2971,7676;0,0410969
2972,7317;0,040957
2973,6960;0,0408214
2974,6602;0,0406925
2975,6245;0,0405711
2976,5886;0,0404559
2977,5530;0,0403438
2978,5171;0,0402321
2979,4814;0,0401209
2980,4456;0,0400137
2981,4099;0,0399156
2982,3740;0,0398309
2983,3384;0,0397604
2984,3025;0,0397018
2985,2668;0,0396508
2986,2310;0,0396031
2987,1953;0,0395559
2988,1594;0,0395086
2989,1238;0,0394625
2990,0879;0,03942
2991,0522;0,0393841
2992,0164;0,039357
2992,9807;0,0393392
2993,9448;0,0393294
2994,9092;0,0393259
2995,8733;0,0393282
2996,8376;0,0393376
2997,8018;0,0393568
2998,7661;0,0393875
2999,7302;0,0394287
3000,6946;0,039476
3001,6587;0,0395239
3002,6230;0,0395685
3003,5872;0,039609
3004,5515;0,0396471
3005,5156;0,0396843
3006,4800;0,0397202
3007,4441;0,0397519
3008,4084;0,0397762
3009,3726;0,0397926
3010,3369;0,0398049
3011,3010;0,0398208
3012,2654;0,0398489
3013,2295;0,0398954
3014,1938;0,0399614
3015,1580;0,0400436
3016,1223;0,040136
3017,0864;0,0402321
3018,0508;0,040327
3019,0149;0,0404173
3019,9792;0,0405021
3020,9434;0,0405822
3021,9077;0,040661
3022,8718;0,0407434
3023,8362;0,0408346
3024,8003;0,0409374
3025,7646;0,0410505
3026,7288;0,0411684
3027,6931;0,0412839
3028,6572;0,0413916
3029,6216;0,0414901
3030,5857;0,041582
3031,5500;0,0416718
3032,5142;0,0417632
3033,4785;0,0418578
3034,4426;0,0419556
3035,4070;0,042057
3036,3711;0,0421629
3037,3354;0,042274
3038,2996;0,0423898
3039,2639;0,0425082
3040,2280;0,0426266
3041,1924;0,0427445
3042,1565;0,0428631
3043,1208;0,0429847
3044,0850;0,0431097
3045,0493;0,0432354
3046,0134;0,0433575
3046,9778;0,0434725
3047,9419;0,0435812
3048,9063;0,0436881
3049,8704;0,0437987
3050,8347;0,0439156
3051,7988;0,0440372
3052,7632;0,0441586
3053,7273;0,0442758
3054,6917;0,0443886
3055,6558;0,044501
3056,6201;0,0446187
3057,5842;0,0447458
3058,5486;0,0448819
3059,5127;0,0450229
3060,4771;0,0451625
3061,4412;0,0452949
3062,4055;0,0454168
3063,3696;0,0455281
3064,3340;0,0456318
3065,2981;0,045733
3066,2625;0,0458374
3067,2266;0,0459485
3068,1909;0,0460667
3069,1550;0,0461886
3070,1194;0,0463097
3071,0835;0,0464267
3072,0479;0,0465395
3073,0120;0,0466506
3073,9763;0,0467629
3074,9404;0,0468767
3075,9048;0,0469888
3076,8689;0,0470947
3077,8333;0,0471915
3078,7974;0,0472805
3079,7617;0,0473676
3080,7258;0,0474595
3081,6902;0,0475609
3082,6543;0,0476715
3083,6187;0,0477871
3084,5828;0,0479016
3085,5471;0,0480102
3086,5112;0,0481116
3087,4756;0,0482081
3088,4397;0,0483037
3089,4041;0,0484025
3090,3682;0,0485063
3091,3325;0,0486142
3092,2966;0,0487232
3093,2610;0,0488305
3094,2251;0,0489354
3095,1895;0,0490393
3096,1536;0,0491449
3097,1179;0,0492541
3098,0820;0,0493663
3099,0464;0,0494797
3100,0105;0,0495925
3100,9749;0,0497059
3101,9390;0,0498234
3102,9033;0,0499486
3103,8674;0,0500819
3104,8318;0,0502195
3105,7959;0,0503546
3106,7603;0,050482
3107,7244;0,0506006
3108,6887;0,0507146
3109,6528;0,0508301
3110,6172;0,0509515
3111,5813;0,0510792
3112,5457;0,0512105
3113,5098;0,0513418
3114,4741;0,051471
3115,4382;0,0515978
3116,4026;0,0517224
3117,3667;0,0518447
3118,3311;0,0519639
3119,2952;0,0520793
3120,2595;0,0521909
3121,2236;0,0522999
3122,1880;0,0524087
3123,1521;0,0525208
3124,1165;0,0526406
3125,0806;0,0527711
3126,0449;0,0529121
3127,0090;0,0530589
3127,9734;0,0532027
3128,9375;0,0533359
3129,9019;0,0534562
3130,8660;0,0535693
3131,8303;0,053686
3132,7944;0,0538151
3133,7588;0,0539576
3134,7229;0,0541056
3135,6873;0,0542475
3136,6514;0,054376
3137,6157;0,0544928
3138,5798;0,0546071
3139,5442;0,0547295
3140,5083;0,0548646
3141,4727;0,0550087
3142,4368;0,0551521
3143,4011;0,0552858
3144,3652;0,0554061
3145,3296;0,0555155
3146,2937;0,0556195
3147,2581;0,0557226
3148,2222;0,0558263
3149,1865;0,0559305
3150,1506;0,0560375
3151,1150;0,0561531
3152,0791;0,0562848
3153,0435;0,056437
3154,0076;0,0566063
3154,9719;0,0567809
3155,9360;0,0569458
3156,9004;0,0570892
3157,8645;0,0572085
3158,8289;0,0573107
3159,7930;0,0574083
3160,7573;0,0575129
3161,7214;0,0576305
3162,6858;0,0577611
3163,6499;0,0579005
3164,6143;0,0580436
3165,5784;0,058186
3166,5427;0,0583246
3167,5068;0,0584571
3168,4712;0,0585821
3169,4353;0,0586992
3170,3997;0,0588098
3171,3638;0,058916
3172,3281;0,0590204
3173,2922;0,0591257
3174,2566;0,0592347
3175,2207;0,0593504
3176,1851;0,0594754
3177,1492;0,0596113
3178,1135;0,0597563
3179,0776;0,0599052
3180,0420;0,0600499
3181,0061;0,0601825
3181,9705;0,0602978
3182,9346;0,0603958
3183,8989;0,0604812
3184,8630;0,0605624
3185,8274;0,0606478
3186,7915;0,0607431
3187,7559;0,0608502
3188,7200;0,0609671
3189,6843;0,0610899
3190,6484;0,0612143
3191,6128;0,0613368
3192,5769;0,0614551
3193,5413;0,0615683
3194,5054;0,0616766
3195,4697;0,0617811
3196,4338;0,0618833
3197,3982;0,061984
3198,3623;0,0620835
3199,3267;0,0621816
3200,2908;0,0622781
3201,2551;0,0623735
3202,2192;0,0624688
3203,1836;0,0625642
3204,1477;0,0626592
3205,1121;0,0627521
3206,0762;0,0628409
3207,0405;0,0629252
3208,0046;0,0630058
3208,9690;0,0630848
3209,9331;0,0631646
3210,8975;0,0632468
3211,8616;0,0633324
3212,8259;0,0634221
3213,7900;0,063516
3214,7544;0,0636126
3215,7185;0,0637089
3216,6829;0,0638006
3217,6470;0,0638844
3218,6113;0,0639607
3219,5754;0,0640339
3220,5398;0,0641109
3221,5039;0,0641966
3222,4683;0,0642905
3223,4324;0,0643862
3224,3967;0,064475
3225,3608;0,0645511
3226,3252;0,0646151
3227,2893;0,0646743
3228,2537;0,0647381
3229,2178;0,0648125
3230,1821;0,0648968
3231,1462;0,064985
3232,1106;0,0650709
3233,0747;0,0651518
3234,0391;0,0652302
3235,0032;0,0653111
3235,9675;0,0653974
3236,9316;0,0654877
3237,8960;0,0655773
3238,8601;0,0656619
3239,8245;0,0657405
3240,7886;0,0658158
3241,7529;0,0658916
3242,7170;0,0659697
3243,6814;0,0660486
3244,6455;0,0661253
3245,6099;0,0661983
3246,5740;0,066269
3247,5383;0,066341
3248,5024;0,0664179
3249,4668;0,0665007
3250,4309;0,0665878
3251,3953;0,0666758
3252,3594;0,0667618
3253,3237;0,0668439
3254,2878;0,0669215
3255,2522;0,0669953
3256,2163;0,0670672
3257,1807;0,0671397
3258,1448;0,0672158
3259,1091;0,0672964
3260,0732;0,0673799
3261,0376;0,0674619
3262,0017;0,0675369
3262,9661;0,0676015
3263,9302;0,0676562
3264,8945;0,0677057
3265,8586;0,0677563
3266,8230;0,0678128
3267,7871;0,0678758
3268,7515;0,0679411
3269,7156;0,0680016
3270,6799;0,06805
3271,6440;0,0680821
3272,6084;0,0680988
3273,5725;0,0681059
3274,5369;0,0681121
3275,5010;0,0681258
3276,4653;0,0681522
3277,4294;0,0681915
3278,3938;0,0682385
3279,3579;0,0682844
3280,3223;0,0683196
3281,2864;0,0683374
3282,2507;0,0683378
3283,2148;0,068328
3284,1792;0,0683197
3285,1433;0,0683229
3286,1077;0,068341
3287,0718;0,0683685
3288,0361;0,0683951
3289,0002;0,068412
3289,9646;0,0684169
3290,9287;0,0684144
3291,8931;0,0684106
3292,8572;0,0684075
3293,8215;0,068401
3294,7856;0,0683842
3295,7500;0,0683542
3296,7141;0,0683159
3297,6785;0,0682806
3298,6426;0,06826
3299,6069;0,0682599
3300,5710;0,0682776
3301,5354;0,0683044
3302,4995;0,0683305
3303,4639;0,0683493
3304,4280;0,0683582
3305,3923;0,0683577
3306,3564;0,068349
3307,3208;0,068334
3308,2849;0,0683149
3309,2493;0,0682952
3310,2134;0,0682793
3311,1777;0,0682715
3312,1418;0,0682748
3313,1062;0,0682901
3314,0703;0,0683158
3315,0347;0,0683478
3315,9988;0,0683817
3316,9631;0,0684146
3317,9272;0,0684468
3318,8916;0,0684816
3319,8557;0,0685227
3320,8201;0,0685697
3321,7842;0,0686161
3322,7485;0,0686513
3323,7126;0,0686657
3324,6770;0,0686569
3325,6411;0,0686318
3326,6055;0,068603
3327,5696;0,068581
3328,5339;0,0685679
3329,4980;0,0685565
3330,4624;0,0685363
3331,4265;0,0685005
3332,3909;0,0684516
3333,3550;0,0683992
3334,3193;0,0683549
3335,2834;0,068325
3336,2478;0,0683067
3337,2119;0,0682903
3338,1763;0,0682639
3339,1404;0,0682189
3340,1047;0,068153
3341,0688;0,0680704
3342,0332;0,06798
3342,9973;0,0678925
3343,9617;0,0678165
3344,9258;0,0677547
3345,8901;0,0677014
3346,8542;0,0676445
3347,8186;0,0675705
3348,7827;0,0674722
3349,7471;0,0673536
3350,7112;0,067229
3351,6755;0,0671161
3352,6396;0,0670262
3353,6040;0,0669581
3354,5681;0,0668992
3355,5325;0,0668328
3356,4966;0,0667483
3357,4609;0,0666468
3358,4250;0,06654
3359,3894;0,0664425
3360,3535;0,066363
3361,3179;0,0663003
3362,2820;0,0662446
3363,2463;0,0661848
3364,2104;0,0661147
3365,1748;0,0660358
3366,1389;0,0659542
3367,1033;0,0658743
3368,0674;0,0657949
3369,0317;0,065709
3369,9958;0,065609
3370,9602;0,0654924
3371,9243;0,0653642
3372,8887;0,0652346
3373,8528;0,0651134
3374,8171;0,0650061
3375,7813;0,0649123
3376,7456;0,0648276
3377,7097;0,0647467
3378,6741;0,0646647
3379,6382;0,0645769
3380,6025;0,0644784
3381,5667;0,0643657
3382,5310;0,0642396
3383,4951;0,0641076
3384,4595;0,0639814
3385,4236;0,0638717
3386,3879;0,0637818
3387,3521;0,0637051
3388,3164;0,0636292
3389,2805;0,0635421
3390,2449;0,0634384
3391,2090;0,0633217
3392,1733;0,0632017
3393,1375;0,0630895
3394,1018;0,0629916
3395,0659;0,0629073
3396,0303;0,0628285
3396,9944;0,0627433
3397,9587;0,0626398
3398,9229;0,0625121
3399,8872;0,0623624
3400,8513;0,0622005
3401,8157;0,0620396
3402,7798;0,06189
3403,7441;0,0617564
3404,7083;0,0616374
3405,6726;0,0615285
3406,6367;0,0614242
3407,6011;0,0613194
3408,5652;0,061208
3409,5295;0,0610843
3410,4937;0,0609444
3411,4580;0,0607894
3412,4221;0,0606259
3413,3865;0,0604616
3414,3506;0,0603008
3415,3149;0,0601413
3416,2791;0,0599771
3417,2434;0,0598041
3418,2075;0,0596254
3419,1719;0,0594512
3420,1360;0,0592926
3421,1003;0,0591543
3422,0645;0,0590302
3423,0288;0,0589076
3423,9929;0,0587742
3424,9573;0,0586241
3425,9214;0,0584589
3426,8857;0,0582856
3427,8499;0,0581125
3428,8142;0,0579459
3429,7783;0,057788
3430,7427;0,0576364
3431,7068;0,0574855
3432,6711;0,057329
3433,6353;0,0571622
3434,5996;0,0569847
3435,5637;0,0567995
3436,5281;0,0566116
3437,4922;0,0564249
3438,4565;0,0562414
3439,4207;0,0560613
3440,3850;0,0558836
3441,3491;0,0557069
3442,3135;0,0555287
3443,2776;0,0553456
3444,2419;0,0551547
3445,2061;0,0549558
3446,1704;0,0547524
3447,1345;0,0545506
3448,0989;0,0543552
3449,0630;0,0541669
3450,0273;0,0539826
3450,9915;0,0537988
3451,9558;0,0536139
3452,9199;0,0534301
3453,8843;0,0532517
3454,8484;0,0530825
3455,8127;0,0529228
3456,7769;0,0527676
3457,7412;0,0526076
3458,7053;0,0524325
3459,6697;0,0522357
3460,6338;0,0520192
3461,5981;0,0517943
3462,5623;0,051577
3463,5266;0,0513805
3464,4907;0,051207
3465,4551;0,0510468
3466,4192;0,0508831
3467,3835;0,0507002
3468,3477;0,0504908
3469,3120;0,0502576
3470,2761;0,0500102
3471,2405;0,0497611
3472,2046;0,0495223
3473,1689;0,0493039
3474,1331;0,0491112
3475,0974;0,0489414
3476,0615;0,0487821
3477,0259;0,0486155
3477,9900;0,0484267
3478,9543;0,0482121
3479,9185;0,047983
3480,8828;0,0477591
3481,8469;0,0475565
3482,8113;0,0473765
3483,7754;0,0472056
3484,7397;0,0470261
3485,7039;0,0468277
3486,6682;0,0466125
3487,6323;0,0463917
3488,5967;0,0461769
3489,5608;0,045972
3490,5251;0,0457724
3491,4893;0,0455699
3492,4536;0,0453594
3493,4177;0,0451433
3494,3821;0,044931
3495,3462;0,044733
3496,3105;0,0445542
3497,2747;0,0443882
3498,2390;0,0442183
3499,2031;0,0440241
3500,1675;0,0437916
3501,1316;0,0435227
3502,0959;0,0432388
3503,0601;0,0429711
3504,0244;0,0427409
3504,9885;0,0425466
3505,9529;0,0423677
3506,9170;0,0421791
3507,8813;0,0419664
3508,8455;0,0417319
3509,8098;0,0414918
3510,7739;0,0412629
3511,7383;0,0410516
3512,7024;0,0408515
3513,6667;0,040652
3514,6309;0,0404473
3515,5952;0,0402405
3516,5593;0,0400412
3517,5237;0,0398576
3518,4878;0,0396897
3519,4521;0,0395284
3520,4163;0,0393597
3521,3806;0,0391719
3522,3447;0,038961
3523,3091;0,0387308
3524,2732;0,038488
3525,2375;0,038238
3526,2017;0,0379842
3527,1660;0,0377319
3528,1301;0,037492
3529,0945;0,0372771
3530,0586;0,0370936
3531,0229;0,0369357
3531,9871;0,0367864
3532,9514;0,0366248
3533,9155;0,0364358
3534,8799;0,0362178
3535,8440;0,0359852
3536,8083;0,0357615
3537,7725;0,0355665
3538,7368;0,0354063
3539,7009;0,0352703
3540,6653;0,035135
3541,6294;0,0349714
3542,5938;0,034755
3543,5579;0,03448
3544,5222;0,0341704
3545,4863;0,0338727
3546,4507;0,0336267
3547,4148;0,033438
3548,3792;0,0332791
3549,3433;0,03311
3550,3076;0,0329023
3551,2717;0,0326546
3552,2361;0,0323939
3553,2002;0,0321574
3554,1646;0,0319665
3555,1287;0,0318135
3556,0930;0,0316722
3557,0571;0,031519
3558,0215;0,0313508
3558,9856;0,0311892
3559,9500;0,0310661
3560,9141;0,0309972
3561,8784;0,0309611
3562,8425;0,0308963
3563,8069;0,0307181
3564,7710;0,0303584
3565,7354;0,0298307
3566,6995;0,0292678
3567,6638;0,0288378
3568,6279;0,0286058
3569,5923;0,0285159
3570,5564;0,0284734
3571,5208;0,0284043
3572,4849;0,0282712
3573,4492;0,0280723
3574,4133;0,0278342
3575,3777;0,0275945
3576,3418;0,0273813
3577,3062;0,0272036
3578,2703;0,0270613
3579,2346;0,0269573
3580,1987;0,0269004
3581,1631;0,0268915
3582,1272;0,0269078
3583,0916;0,0268943
3584,0557;0,0267709
3585,0200;0,0264659
3585,9841;0,0259815
3586,9485;0,0254441
3587,9126;0,0250376
3588,8770;0,0248516
3589,8411;0,024835
3590,8054;0,024874
3591,7695;0,0248663
3592,7339;0,0247533
3593,6980;0,0245342
3594,6624;0,0242615
3595,6265;0,0239992
3596,5908;0,0237744
3597,5549;0,0235694
3598,5193;0,0233581
3599,4834;0,023145
3600,4478;0,02297
3601,4119;0,0228745
3602,3762;0,0228622
3603,3403;0,0228905
3604,3047;0,0228938
3605,2688;0,0228152
3606,2332;0,0226364
3607,1973;0,0223902
3608,1616;0,0221386
3609,1257;0,021923
3610,0901;0,0217398
3611,0542;0,0215663
3612,0186;0,0213992
3612,9827;0,021263
3613,9470;0,0211816
3614,9111;0,0211407
3615,8755;0,0210756
3616,8396;0,0208972
3617,8040;0,0205541
3618,7681;0,0200983
3619,7324;0,0196825
3620,6965;0,0194568
3621,6609;0,0194704
3622,6250;0,019675
3623,5894;0,0199745
3624,5535;0,0202462
3625,5178;0,0203367
3626,4819;0,0200845
3627,4463;0,0194356
3628,4104;0,0185925
3629,3748;0,017913
3630,3389;0,0175719
3631,3032;0,0174819
3632,2673;0,0174818
3633,2317;0,0174606
3634,1958;0,0173752
3635,1602;0,0172328
3636,1243;0,017067
3637,0886;0,0169112
3638,0527;0,0167843
3639,0171;0,0166971
3639,9812;0,0166659
3640,9456;0,016719
3641,9097;0,0168839
3642,8740;0,0171645
3643,8381;0,0175197
3644,8025;0,0178436
3645,7666;0,017949
3646,7310;0,0175962
3647,6951;0,0166781
3648,6594;0,0155169
3649,6235;0,0147096
3650,5879;0,0144864
3651,5520;0,0146316
3652,5164;0,0148585
3653,4805;0,0149757
3654,4448;0,0148891
3655,4089;0,0146065
3656,3733;0,0142405
3657,3374;0,013939
3658,3018;0,0137778
3659,2659;0,0137308
3660,2302;0,0137325
3661,1943;0,0137464
3662,1587;0,0137886
3663,1228;0,0139033
3664,0872;0,0141118
3665,0513;0,0143748
3666,0156;0,0145936
3666,9797;0,0146487
3667,9441;0,0144813
3668,9082;0,014183
3669,8726;0,0139617
3670,8367;0,013944
3671,8010;0,0140501
3672,7651;0,014067
3673,7295;0,0137913
3674,6936;0,0131805
3675,6580;0,0124512
3676,6221;0,011921
3677,5864;0,011716
3678,5505;0,0117482
3679,5149;0,0118912
3680,4790;0,0120795
3681,4434;0,0123095
3682,4075;0,012604
3683,3718;0,0129716
3684,3359;0,0133756
3685,3003;0,0137211
3686,2644;0,013865
3687,2288;0,0136705
3688,1929;0,0131306
3689,1572;0,0124666
3690,1213;0,011988
3691,0857;0,0118254
3692,0498;0,0119041
3693,0142;0,0120982
3693,9783;0,0123228
3694,9426;0,0125384
3695,9067;0,0127276
3696,8711;0,012873
3697,8352;0,0129444
3698,7996;0,0129054
3699,7637;0,0127405
3700,7280;0,0124914
3701,6921;0,0122626
3702,6565;0,0121693
3703,6206;0,0122671
3704,5850;0,0125318
3705,5491;0,0128865
3706,5134;0,0132252
3707,4775;0,0134186
3708,4419;0,0133315
3709,4060;0,0128971
3710,3704;0,012233
3711,3345;0,0116312
3712,2988;0,0113254
3713,2629;0,0113276
3714,2273;0,0115184
3715,1914;0,011778
3716,1558;0,012027
3717,1199;0,0122214
3718,0842;0,0123441
3719,0483;0,0124012
3720,0127;0,01241
3720,9768;0,0123795
3721,9412;0,0123014
3722,9053;0,0121667
3723,8696;0,0119981
3724,8337;0,0118627
3725,7981;0,0118424
3726,7622;0,0119848
3727,7266;0,0122812
3728,6907;0,0126793
3729,6550;0,0131022
3730,6191;0,0134522
3731,5835;0,0136098
3732,5476;0,0134555
3733,5120;0,0129511
3734,4761;0,0122491
3735,4404;0,01166
3736,4045;0,0114189
3737,3689;0,0115452
3738,3330;0,0119304
3739,2974;0,0124461
3740,2615;0,0129657
3741,2258;0,0133482
3742,1899;0,0134592
3743,1543;0,0132689
3744,1184;0,0129533
3745,0828;0,0127821
3746,0469;0,0128572
3747,0112;0,013053
3747,9753;0,0131424
3748,9397;0,0129272
3749,9038;0,012389
3750,8682;0,0117906
3751,8323;0,0114639
3752,7966;0,0114839
3753,7607;0,0117008
3754,7251;0,0119359
3755,6892;0,0120613
3756,6536;0,0120135
3757,6177;0,0118176
3758,5820;0,0115897
3759,5461;0,0114638
3760,5105;0,011496
3761,4746;0,0116481
3762,4390;0,0118428
3763,4031;0,0120122
3764,3674;0,0121169
3765,3315;0,0121433
3766,2959;0,0120914
3767,2600;0,0119624
3768,2244;0,0117626
3769,1885;0,0115233
3770,1528;0,0113109
3771,1169;0,0112023
3772,0813;0,01124
3773,0454;0,0114097
3774,0098;0,0116503
3774,9739;0,0118763
3775,9382;0,0120034
3776,9023;0,0119827
3777,8667;0,0118374
3778,8308;0,0116597
3779,7952;0,0115459
3780,7593;0,0115266
3781,7236;0,0115633
3782,6877;0,0115952
3783,6521;0,0115827
3784,6162;0,0115247
3785,5806;0,0114516
3786,5447;0,0114027
3787,5090;0,0114052
3788,4731;0,0114673
3789,4375;0,011581
3790,4016;0,0117264
3791,3660;0,0118767
3792,3301;0,0120054
3793,2944;0,012101
3794,2585;0,0121795
3795,2229;0,0122783
3796,1870;0,0124239
3797,1514;0,0125933
3798,1155;0,0127083
3799,0798;0,0126781
3800,0439;0,0124794
3801,0083;0,0122052
3801,9724;0,011999
3802,9368;0,0119191
3803,9009;0,0118997
3804,8652;0,0118273
3805,8293;0,0116401
3806,7937;0,0113909
3807,7578;0,011224
3808,7222;0,0112592
3809,6863;0,0115061
3810,6506;0,0118843
3811,6147;0,0122807
3812,5791;0,0125875
3813,5432;0,0127371
3814,5076;0,0127458
3815,4717;0,0127083
3816,4360;0,0127049
3817,4001;0,012711
3818,3645;0,0126209
3819,3286;0,0123555
3820,2930;0,0119605
3821,2571;0,0115959
3822,2214;0,0113987
3823,1855;0,0113817
3824,1499;0,0114753
3825,1140;0,0116069
3826,0784;0,0117364
3827,0425;0,0118541
3828,0068;0,0119664
3828,9709;0,0120824
3829,9353;0,012208
3830,8994;0,0123494
3831,8638;0,0125145
3832,8279;0,0127023
3833,7922;0,0128852
3834,7563;0,0130002
3835,7207;0,0129691
3836,6848;0,012749
3837,6492;0,012385
3838,6133;0,0119991
3839,5776;0,0117005
3840,5417;0,0115149
3841,5061;0,0114057
3842,4702;0,0113395
3843,4346;0,0113246
3844,3987;0,0114061
3845,3630;0,0116348
3846,3271;0,012036
3847,2915;0,0125948
3848,2556;0,0132503
3849,2200;0,0138784
3850,1841;0,0142659
3851,1484;0,0141314
3852,1125;0,0133323
3853,0769;0,0122019
3854,0410;0,0113648
3855,0054;0,0110679
3855,9695;0,0111561
3856,9338;0,0114383
3857,8979;0,0117999
3858,8623;0,0121604
3859,8264;0,0124401
3860,7908;0,01257
3861,7549;0,0125348
3862,7192;0,0124082
3863,6833;0,0123184
3864,6477;0,0123506
3865,6118;0,012491
3866,5762;0,0126531
3867,5403;0,0127347
3868,5046;0,0126639
3869,4688;0,0124349
3870,4331;0,0121182
3871,3972;0,0118268
3872,3616;0,0116536
3873,3257;0,0116343
3874,2900;0,0117512
3875,2542;0,0119535
3876,2185;0,0121744
3877,1826;0,0123469
3878,1470;0,0124249
3879,1111;0,0124068
3880,0754;0,0123373
3881,0396;0,0122688
3882,0039;0,0122145
3882,9680;0,0121499
3883,9324;0,0120614
3884,8965;0,011983
3885,8608;0,0119733
3886,8250;0,0120534
3887,7893;0,0121714
3888,7534;0,0122267
3889,7178;0,0121336
3890,6819;0,011897
3891,6462;0,0116459
3892,6104;0,011552
3893,5747;0,011695
3894,5388;0,0120276
3895,5032;0,0124387
3896,4673;0,0128137
3897,4316;0,0130641
3898,3958;0,013148
3899,3601;0,0130746
3900,3242;0,0128795
3901,2886;0,0125894
3902,2527;0,012227
3903,2170;0,0118442
3904,1812;0,0115221
3905,1455;0,0113243
3906,1096;0,0112605
3907,0740;0,0112977
3908,0381;0,0113915
3909,0024;0,0115088
3909,9666;0,0116347
3910,9309;0,0117686
3911,8950;0,0119112
3912,8594;0,0120496
3913,8235;0,0121542
3914,7878;0,0121905
3915,7520;0,0121457
3916,7163;0,0120494
3917,6804;0,011962
3918,6448;0,0119305
3919,6089;0,0119545
3920,5732;0,0119929
3921,5374;0,0119968
3922,5017;0,0119427
3923,4658;0,0118527
3924,4302;0,011784
3925,3943;0,0117878
3926,3586;0,0118702
3927,3228;0,011988
3928,2871;0,0120747
3929,2512;0,0120746
3930,2156;0,0119727
3931,1797;0,011808
3932,1440;0,011652
3933,1082;0,0115639
3934,0725;0,0115623
3935,0366;0,0116324
3936,0010;0,0117462
3936,9651;0,0118732
3937,9294;0,0119824
3938,8936;0,012045
3939,8579;0,012045
3940,8220;0,0119918
3941,7864;0,0119231
3942,7505;0,0118857
3943,7148;0,0119026
3944,6790;0,0119569
3945,6433;0,0120043
3946,6074;0,0120017
3947,5718;0,0119355
3948,5359;0,0118319
3949,5002;0,0117407
3950,4644;0,0117002
3951,4287;0,0117137
3952,3928;0,0117557
3953,3572;0,0117947
3954,3213;0,0118137
3955,2856;0,0118153
3956,2498;0,0118128
3957,2141;0,0118161
3958,1782;0,0118234
3959,1426;0,0118246
3960,1067;0,0118126
3961,0710;0,0117911
3962,0352;0,0117732
3962,9995;0,0117714
3963,9636;0,0117887
3964,9280;0,0118168
3965,8921;0,0118426
3966,8564;0,0118561
3967,8206;0,0118548
3968,7849;0,0118429
3969,7490;0,0118268
3970,7134;0,0118105
3971,6775;0,0117959
3972,6418;0,0117841
3973,6060;0,0117778
3974,5703;0,0117798
3975,5344;0,0117898
3976,4988;0,0118034
3977,4629;0,0118139
3978,4272;0,0118166
3979,3914;0,0118121
3980,3557;0,0118057
3981,3198;0,0118035
3982,2842;0,0118085
3983,2483;0,0118189
3984,2126;0,0118304
3985,1768;0,01184
3986,1411;0,011848
3987,1052;0,0118568
3988,0696;0,0118678
3989,0337;0,0118792
3989,9980;0,0118866
3990,9622;0,0118855
3991,9265;0,0118745
3992,8906;0,0118561
3993,8550;0,0118356
3994,8191;0,0118185
3995,7834;0,0118073
3996,7476;0,0118014
3997,7119;0,011798
3998,6760;0,011795
3999,6404;0,0117924
4000,6045;0,0116617

##### Extended Information
[Comments]
Sample name
Comment
Username
Division
Organization;UNIVERSIDAD INDUSTRIAL DE SANTANDER

[Detailed Information]
Creation date;28/03/2025 7:09 p.m.

Data array type;Linear data array
Horizontal axis;Wavenumber [cm-1]
Vertical axis;Abs
Start;399,193 cm-1
End;4000,6 cm-1
Data interval;0,964233 cm-1
Data points;3736    

[Measurement Information]
Model name;FT/IR-4X1typeA
Serial No.;A035162111

Accessory;ATR PRO 4X
Accessory S/N;A021162126
Incident angle;45 deg

Measurement date;28/03/2025 7:07 p.m.

Light source;Standard
Detector;TGS
Accumulation;40
Resolution;4 cm-1
Zero filling;On
Apodization;Cosine
Gain;Auto (8)
Aperture;Auto (7 mm)
Scan speed;Auto (2 mm/sec)
Filter;Auto (12800 Hz)

