TITLE;
DATA TYPE;INFRARED SPECTRUM
ORIGIN;JASCO
OWNER;
DATE;25/02/28
TIME;17:07:42
SPECTROMETER/DATA SYSTEM;
LOCALE;9226
RESOLUTION;
DELTAX;0,964233
XUNITS;1/CM
YUNITS;ABSORBANCE
FIRSTX;  399,1927
LASTX; 4000,6047
NPOINTS;    3736
FIRSTY;     0,14106
MAXY;     0,20045
MINY;     0,01243
XYDATA
399,1927;0,14106
400,1569;0,142623
401,1211;0,142768
402,0854;0,142375
403,0496;0,142195
404,0138;0,142671
404,9781;0,143914
405,9423;0,145718
406,9065;0,14766
407,8708;0,149302
408,8350;0,150383
409,7992;0,150898
410,7635;0,15104
411,7277;0,151051
412,6919;0,151074
413,6562;0,151099
414,6204;0,15104
415,5846;0,150877
416,5489;0,150787
417,5131;0,151195
418,4773;0,152538
419,4416;0,154712
420,4058;0,156975
421,3700;0,158676
422,3343;0,159707
423,2985;0,160289
424,2627;0,160662
425,2270;0,160947
426,1912;0,161137
427,1554;0,161189
428,1197;0,161137
429,0839;0,161128
430,0481;0,16136
431,0124;0,161957
431,9766;0,162884
432,9408;0,163949
433,9051;0,164917
434,8693;0,165628
435,8335;0,166061
436,7978;0,166285
437,7620;0,166376
438,7262;0,166364
439,6905;0,166243
440,6547;0,166028
441,6189;0,165786
442,5832;0,165621
443,5474;0,165607
444,5116;0,165736
445,4759;0,165934
446,4401;0,166135
447,4043;0,16633
448,3686;0,16655
449,3328;0,1668
450,2970;0,167007
451,2613;0,167035
452,2255;0,16677
453,1897;0,166218
454,1540;0,165541
455,1182;0,165004
456,0824;0,164852
457,0467;0,165162
458,0109;0,165747
458,9751;0,166262
459,9394;0,166456
460,9036;0,166333
461,8678;0,166085
462,8321;0,165931
463,7963;0,165982
464,7605;0,166194
465,7248;0,166393
466,6890;0,166372
467,6532;0,166016
468,6175;0,165355
469,5817;0,16456
470,5459;0,163869
471,5102;0,163488
472,4744;0,163478
473,4386;0,163708
474,4029;0,163943
475,3671;0,163993
476,3313;0,163807
477,2956;0,163456
478,2598;0,163065
479,2240;0,162739
480,1883;0,162518
481,1525;0,162382
482,1167;0,16229
483,0810;0,162219
484,0452;0,162185
485,0094;0,16222
485,9737;0,162343
486,9379;0,162537
487,9021;0,162764
488,8664;0,162985
489,8306;0,16316
490,7948;0,163257
491,7591;0,163256
492,7233;0,163157
493,6875;0,162998
494,6518;0,162848
495,6160;0,162775
496,5802;0,162813
497,5445;0,162937
498,5087;0,16307
499,4729;0,163119
500,4372;0,163028
501,4014;0,162812
502,3656;0,162558
503,3299;0,162365
504,2941;0,162294
505,2583;0,162342
506,2226;0,162481
507,1868;0,162693
508,1510;0,162987
509,1153;0,163376
510,0795;0,163838
511,0437;0,164299
512,0080;0,164668
512,9722;0,164881
513,9365;0,164943
514,9007;0,16493
515,8649;0,164959
516,8292;0,165123
517,7934;0,165436
518,7576;0,165818
519,7219;0,166151
520,6861;0,16635
521,6503;0,166406
522,6146;0,166365
523,5788;0,1663
524,5430;0,166274
525,5073;0,166313
526,4715;0,166397
527,4357;0,166473
528,4000;0,166489
529,3642;0,166414
530,3284;0,166245
531,2927;0,165988
532,2569;0,165654
533,2211;0,16526
534,1854;0,16483
535,1496;0,164394
536,1138;0,163983
537,0781;0,163609
538,0423;0,163255
539,0065;0,162892
539,9708;0,162496
540,9350;0,162079
541,8992;0,161687
542,8635;0,161383
543,8277;0,161212
544,7919;0,16118
545,7562;0,16126
546,7204;0,161407
547,6846;0,161592
548,6489;0,161807
549,6131;0,162056
550,5773;0,162335
551,5416;0,162623
552,5058;0,162897
553,4700;0,163144
554,4343;0,16338
555,3985;0,163627
556,3627;0,16389
557,3270;0,164122
558,2912;0,164232
559,2554;0,164115
560,2197;0,163707
561,1839;0,163023
562,1481;0,162156
563,1124;0,161245
564,0766;0,16041
565,0408;0,15972
566,0051;0,159175
566,9693;0,158737
567,9335;0,158359
568,8978;0,158018
569,8620;0,157717
570,8262;0,15747
571,7905;0,157282
572,7547;0,157137
573,7189;0,156998
574,6832;0,156815
575,6474;0,156547
576,6116;0,156176
577,5759;0,155717
578,5401;0,15521
579,5043;0,154704
580,4686;0,154245
581,4328;0,153864
582,3970;0,153582
583,3613;0,153403
584,3255;0,153318
585,2897;0,153304
586,2540;0,153322
587,2182;0,153328
588,1824;0,153284
589,1467;0,153174
590,1109;0,153009
591,0751;0,152821
592,0394;0,152645
593,0036;0,152503
593,9678;0,152386
594,9321;0,152263
595,8963;0,152095
596,8605;0,151857
597,8248;0,15155
598,7890;0,151204
599,7532;0,150864
600,7175;0,150575
601,6817;0,150356
602,6459;0,150195
603,6102;0,150056
604,5744;0,149892
605,5386;0,149656
606,5029;0,149317
607,4671;0,148864
608,4313;0,148314
609,3956;0,147707
610,3598;0,147095
611,3240;0,146522
612,2883;0,145998
613,2525;0,145499
614,2167;0,144975
615,1810;0,144375
616,1452;0,143676
617,1094;0,142893
618,0737;0,142068
619,0379;0,141241
620,0021;0,140433
620,9664;0,139638
621,9306;0,138846
622,8948;0,138053
623,8591;0,13727
624,8233;0,136517
625,7875;0,135809
626,7518;0,135163
627,7160;0,134591
628,6802;0,134096
629,6445;0,133669
630,6087;0,133282
631,5729;0,132896
632,5372;0,13248
633,5014;0,132021
634,4656;0,131531
635,4299;0,131035
636,3941;0,130547
637,3583;0,130065
638,3226;0,129575
639,2868;0,12907
640,2510;0,128566
641,2153;0,128087
642,1795;0,127649
643,1437;0,127239
644,1080;0,126825
645,0722;0,126375
646,0364;0,125885
647,0007;0,125388
647,9649;0,124933
648,9291;0,124565
649,8934;0,124295
650,8576;0,124103
651,8218;0,123958
652,7861;0,123845
653,7503;0,123771
654,7145;0,123751
655,6788;0,123793
656,6430;0,123887
657,6072;0,124003
658,5715;0,124116
659,5357;0,124212
660,4999;0,124296
661,4642;0,124376
662,4284;0,124455
663,3926;0,124515
664,3569;0,124515
665,3211;0,124372
666,2853;0,123952
667,2496;0,123125
668,2138;0,12196
669,1780;0,120817
670,1423;0,119961
671,1065;0,119294
672,0707;0,118598
673,0350;0,117722
673,9992;0,116619
674,9634;0,115338
675,9277;0,114002
676,8919;0,112745
677,8561;0,111635
678,8204;0,110662
679,7846;0,10978
680,7488;0,108962
681,7131;0,108212
682,6773;0,107549
683,6415;0,106991
684,6058;0,106541
685,5700;0,106191
686,5342;0,105918
687,4985;0,105685
688,4627;0,105452
689,4269;0,105198
690,3912;0,104933
691,3554;0,104689
692,3196;0,104495
693,2839;0,104358
694,2481;0,104257
695,2123;0,104159
696,1766;0,104035
697,1408;0,103869
698,1050;0,103658
699,0693;0,103402
700,0335;0,103104
700,9977;0,102776
701,9620;0,10244
702,9262;0,102122
703,8904;0,101847
704,8547;0,101619
705,8189;0,101421
706,7831;0,101215
707,7474;0,100962
708,7116;0,100634
709,6758;0,100217
710,6401;0,0997203
711,6043;0,0991661
712,5685;0,0985891
713,5328;0,0980255
714,4970;0,0975022
715,4612;0,0970587
716,4255;0,0966108
717,3897;0,0961604
718,3539;0,0956676
719,3182;0,0951005
720,2824;0,0944503
721,2466;0,0937375
722,2109;0,0930038
723,1751;0,0922927
724,1393;0,0916313
725,1036;0,0910213
726,0678;0,0904417
727,0320;0,089861
727,9963;0,089256
728,9605;0,0886268
729,9247;0,0879985
730,8890;0,0874065
731,8532;0,0868739
732,8174;0,0863971
733,7817;0,0859492
734,7459;0,0854999
735,7101;0,0850391
736,6744;0,0845853
737,6386;0,0841741
738,6028;0,0838348
739,5671;0,0835696
740,5313;0,0833514
741,4955;0,0831392
742,4598;0,0829009
743,4240;0,0826277
744,3882;0,082333
745,3525;0,082038
746,3167;0,0817564
747,2809;0,0814864
748,2452;0,0812146
749,2094;0,0809271
750,1736;0,0806199
751,1379;0,0803018
752,1021;0,0799897
753,0663;0,0796981
754,0306;0,0794308
754,9948;0,0791793
755,9590;0,0789283
756,9233;0,0786643
757,8875;0,0783822
758,8517;0,0780857
759,8160;0,0777826
760,7802;0,0774788
761,7444;0,0771741
762,7087;0,0768641
763,6729;0,0765442
764,6371;0,0762144
765,6014;0,0758805
766,5656;0,0755507
767,5298;0,07523
768,4941;0,0749152
769,4583;0,0745951
770,4225;0,0742571
771,3868;0,0738953
772,3510;0,0735168
773,3152;0,07314
774,2795;0,0727862
775,2437;0,0724703
776,2079;0,0721947
777,1722;0,0719507
778,1364;0,0717226
779,1006;0,0714922
780,0649;0,0712405
781,0291;0,0709498
781,9933;0,0706086
782,9576;0,0702193
783,9218;0,0698036
784,8860;0,0693971
785,8503;0,0690363
786,8145;0,068742
787,7787;0,0685111
788,7430;0,0683216
789,7072;0,0681465
790,6714;0,0679672
791,6357;0,0677784
792,5999;0,0675835
793,5641;0,0673881
794,5284;0,0671959
795,4926;0,06701
796,4568;0,0668348
797,4211;0,0666744
798,3853;0,0665281
799,3495;0,0663882
800,3138;0,0662424
801,2780;0,0660817
802,2422;0,0659062
803,2065;0,0657244
804,1707;0,0655461
805,1349;0,0653742
806,0992;0,0652036
807,0634;0,0650275
808,0276;0,0648461
808,9919;0,0646701
809,9561;0,0645156
810,9203;0,0643927
811,8846;0,0642979
812,8488;0,0642145
813,8130;0,0641228
814,7773;0,064012
815,7415;0,0638865
816,7057;0,0637635
817,6700;0,063662
818,6342;0,0635923
819,5984;0,0635499
820,5627;0,063518
821,5269;0,0634768
822,4911;0,0634144
823,4554;0,0633342
824,4196;0,0632551
825,3839;0,0632033
826,3481;0,0631993
827,3123;0,0632462
828,2766;0,0633259
829,2408;0,0634055
830,2050;0,0634512
831,1693;0,0634416
832,1335;0,0633743
833,0977;0,0632606
834,0620;0,0631163
835,0262;0,0629525
835,9904;0,0627742
836,9547;0,0625846
837,9189;0,0623916
838,8831;0,0622086
839,8474;0,0620499
840,8116;0,0619241
841,7758;0,0618291
842,7401;0,0617546
843,7043;0,0616878
844,6685;0,0616209
845,6328;0,0615536
846,5970;0,0614921
847,5612;0,0614441
848,5255;0,061415
849,4897;0,0614046
850,4539;0,0614075
851,4182;0,0614156
852,3824;0,0614215
853,3466;0,0614219
854,3109;0,0614184
855,2751;0,0614152
856,2393;0,0614156
857,2036;0,06142
858,1678;0,0614265
859,1320;0,0614344
860,0963;0,0614469
861,0605;0,0614704
862,0247;0,0615092
862,9890;0,0615604
863,9532;0,0616132
864,9174;0,0616534
865,8817;0,0616706
866,8459;0,0616638
867,8101;0,0616405
868,7744;0,0616122
869,7386;0,0615892
870,7028;0,0615782
871,6671;0,0615828
872,6313;0,0616033
873,5955;0,0616351
874,5598;0,0616663
875,5240;0,0616795
876,4882;0,0616581
877,4525;0,0615972
878,4167;0,061511
879,3809;0,0614327
880,3452;0,0614052
881,3094;0,0614667
882,2736;0,0616396
883,2379;0,0619255
884,2021;0,0623093
885,1663;0,0627687
886,1306;0,0632827
887,0948;0,0638376
888,0590;0,0644276
889,0233;0,0650515
889,9875;0,0657077
890,9517;0,0663893
891,9160;0,067081
892,8802;0,0677573
893,8444;0,0683847
894,8087;0,0689261
895,7729;0,0693478
896,7371;0,0696278
897,7014;0,0697606
898,6656;0,0697581
899,6298;0,069644
900,5941;0,0694449
901,5583;0,0691833
902,5225;0,0688753
903,4868;0,0685343
904,4510;0,068177
905,4152;0,0678275
906,3795;0,0675149
907,3437;0,0672659
908,3079;0,0670976
909,2722;0,0670133
910,2364;0,0670044
911,2007;0,067057
912,1649;0,0671581
913,1292;0,0673005
914,0934;0,0674823
915,0576;0,0677046
916,0219;0,0679662
916,9861;0,0682616
917,9503;0,0685806
918,9146;0,0689119
919,8788;0,0692476
920,8430;0,0695853
921,8073;0,069926
922,7715;0,0702681
923,7357;0,0706024
924,7000;0,0709122
925,6642;0,0711792
926,6284;0,071394
927,5927;0,0715607
928,5569;0,0716957
929,5211;0,0718184
930,4854;0,0719411
931,4496;0,072066
932,4138;0,0721891
933,3781;0,0723089
934,3423;0,0724317
935,3065;0,0725705
936,2708;0,0727379
937,2350;0,0729404
938,1992;0,0731776
939,1635;0,0734476
940,1277;0,0737531
941,0919;0,0741036
942,0562;0,0745117
943,0204;0,0749881
943,9846;0,0755384
944,9489;0,0761645
945,9131;0,0768678
946,8773;0,0776508
947,8416;0,0785149
948,8058;0,0794575
949,7700;0,0804706
950,7343;0,0815438
951,6985;0,0826697
952,6627;0,083848
953,6270;0,0850853
954,5912;0,086392
955,5554;0,0877774
956,5197;0,089245
957,4839;0,090789
958,4481;0,0923928
959,4124;0,0940315
960,3766;0,0956789
961,3408;0,097317
962,3051;0,0989441
963,2693;0,100575
964,2335;0,102233
965,1978;0,103935
966,1620;0,105682
967,1262;0,107467
968,0905;0,109279
969,0547;0,111121
970,0189;0,113009
970,9832;0,114969
971,9474;0,117029
972,9116;0,119206
973,8759;0,121513
974,8401;0,123962
975,8043;0,126566
976,7686;0,129335
977,7328;0,132266
978,6970;0,135334
979,6613;0,138487
980,6255;0,141654
981,5897;0,144753
982,5540;0,147704
983,5182;0,15044
984,4824;0,152916
985,4467;0,155114
986,4109;0,157041
987,3751;0,158722
988,3394;0,160198
989,3036;0,161506
990,2678;0,162682
991,2321;0,163748
992,1963;0,164716
993,1605;0,165588
994,1248;0,166366
995,0890;0,167058
996,0532;0,167681
997,0175;0,16826
997,9817;0,16882
998,9459;0,169383
999,9102;0,169961
1000,8744;0,170563
1001,8386;0,171197
1002,8029;0,171881
1003,7671;0,172642
1004,7313;0,173518
1005,6956;0,174544
1006,6598;0,175757
1007,6240;0,177176
1008,5883;0,178807
1009,5525;0,18063
1010,5167;0,182603
1011,4810;0,184664
1012,4452;0,186747
1013,4094;0,188786
1014,3737;0,190724
1015,3379;0,192509
1016,3021;0,194095
1017,2664;0,195444
1018,2306;0,196534
1019,1948;0,19737
1020,1591;0,197982
1021,1233;0,198427
1022,0875;0,198766
1023,0518;0,199052
1024,0160;0,19932
1024,9802;0,199582
1025,9445;0,199837
1026,9087;0,200075
1027,8729;0,200278
1028,8372;0,200417
1029,8014;0,20045
1030,7656;0,200325
1031,7299;0,199986
1032,6941;0,199388
1033,6583;0,198506
1034,6226;0,19735
1035,5868;0,195973
1036,5510;0,19446
1037,5153;0,192921
1038,4795;0,191467
1039,4437;0,190183
1040,4080;0,189118
1041,3722;0,188271
1042,3364;0,187607
1043,3007;0,18707
1044,2649;0,186597
1045,2291;0,186128
1046,1934;0,185609
1047,1576;0,185001
1048,1218;0,184274
1049,0861;0,183413
1050,0503;0,182412
1051,0145;0,181271
1051,9788;0,179991
1052,9430;0,178574
1053,9072;0,177031
1054,8715;0,175376
1055,8357;0,173619
1056,7999;0,171753
1057,7642;0,169748
1058,7284;0,167561
1059,6926;0,16516
1060,6569;0,162556
1061,6211;0,159815
1062,5853;0,157042
1063,5496;0,154356
1064,5138;0,15185
1065,4780;0,149579
1066,4423;0,147558
1067,4065;0,145776
1068,3707;0,144214
1069,3350;0,142841
1070,2992;0,141621
1071,2634;0,140505
1072,2277;0,139432
1073,1919;0,138344
1074,1561;0,13719
1075,1204;0,13594
1076,0846;0,134579
1077,0488;0,133115
1078,0131;0,131567
1078,9773;0,12997
1079,9415;0,128364
1080,9058;0,126794
1081,8700;0,125302
1082,8342;0,123921
1083,7985;0,12267
1084,7627;0,121555
1085,7269;0,120567
1086,6912;0,11969
1087,6554;0,118911
1088,6196;0,118217
1089,5839;0,117608
1090,5481;0,117085
1091,5123;0,116655
1092,4766;0,116326
1093,4408;0,116101
1094,4050;0,11598
1095,3693;0,115959
1096,3335;0,116023
1097,2977;0,116155
1098,2620;0,116329
1099,2262;0,116525
1100,1904;0,116724
1101,1547;0,116908
1102,1189;0,117063
1103,0831;0,117164
1104,0474;0,117184
1105,0116;0,117097
1105,9758;0,116889
1106,9401;0,116564
1107,9043;0,116141
1108,8685;0,11564
1109,8328;0,115069
1110,7970;0,114414
1111,7612;0,113649
1112,7255;0,112749
1113,6897;0,111715
1114,6539;0,11058
1115,6182;0,109406
1116,5824;0,10826
1117,5466;0,107196
1118,5109;0,106236
1119,4751;0,105368
1120,4393;0,104549
1121,4036;0,103722
1122,3678;0,102825
1123,3320;0,101804
1124,2963;0,100619
1125,2605;0,0992522
1126,2247;0,0977094
1127,1890;0,0960199
1128,1532;0,09423
1129,1174;0,0923908
1130,0817;0,0905471
1131,0459;0,0887316
1132,0101;0,0869673
1132,9744;0,0852765
1133,9386;0,0836885
1134,9028;0,0822419
1135,8671;0,0809781
1136,8313;0,07993
1137,7955;0,0791137
1138,7598;0,0785256
1139,7240;0,078148
1140,6882;0,077957
1141,6525;0,0779285
1142,6167;0,0780397
1143,5809;0,0782672
1144,5452;0,0785845
1145,5094;0,0789632
1146,4736;0,079377
1147,4379;0,0798066
1148,4021;0,0802417
1149,3663;0,0806794
1150,3306;0,0811184
1151,2948;0,0815529
1152,2590;0,0819679
1153,2233;0,0823384
1154,1875;0,0826318
1155,1517;0,0828116
1156,1160;0,0828413
1157,0802;0,0826851
1158,0444;0,0823083
1159,0087;0,0816769
1159,9729;0,0807589
1160,9371;0,0795301
1161,9014;0,0779812
1162,8656;0,0761254
1163,8298;0,0740029
1164,7941;0,0716787
1165,7583;0,0692359
1166,7225;0,0667639
1167,6868;0,0643462
1168,6510;0,0620498
1169,6152;0,0599203
1170,5795;0,0579819
1171,5437;0,0562422
1172,5079;0,0546983
1173,4722;0,0533405
1174,4364;0,0521545
1175,4006;0,0511224
1176,3649;0,0502246
1177,3291;0,0494437
1178,2933;0,0487682
1179,2576;0,0481933
1180,2218;0,0477174
1181,1860;0,0473369
1182,1503;0,0470423
1183,1145;0,0468191
1184,0787;0,0466528
1185,0430;0,0465344
1186,0072;0,0464633
1186,9714;0,0464465
1187,9357;0,0464948
1188,8999;0,046618
1189,8641;0,0468219
1190,8284;0,0471071
1191,7926;0,0474694
1192,7568;0,0479016
1193,7211;0,048395
1194,6853;0,0489411
1195,6495;0,0495312
1196,6138;0,0501556
1197,5780;0,0508025
1198,5422;0,0514594
1199,5065;0,0521068
1200,4707;0,0527608
1201,4349;0,0534125
1202,3992;0,0540662
1203,3634;0,0547229
1204,3276;0,0553762
1205,2919;0,0560133
1206,2561;0,0566226
1207,2203;0,0572029
1208,1846;0,0577688
1209,1488;0,0583485
1210,1130;0,0589749
1211,0773;0,0596736
1212,0415;0,0604541
1213,0057;0,0613083
1213,9700;0,062216
1214,9342;0,0631529
1215,8984;0,0640979
1216,8627;0,0650349
1217,8269;0,0659529
1218,7911;0,0668436
1219,7554;0,0677015
1220,7196;0,068524
1221,6838;0,0693129
1222,6481;0,070073
1223,6123;0,0708096
1224,5765;0,0715247
1225,5408;0,0722155
1226,5050;0,0728743
1227,4692;0,0734916
1228,4335;0,0740601
1229,3977;0,0745767
1230,3619;0,0750421
1231,3262;0,0754582
1232,2904;0,0758257
1233,2546;0,0761429
1234,2189;0,0764069
1235,1831;0,0766167
1236,1473;0,0767755
1237,1116;0,0768899
1238,0758;0,0769674
1239,0400;0,0770116
1240,0043;0,0770203
1240,9685;0,076986
1241,9327;0,0768998
1242,8970;0,0767551
1243,8612;0,0765505
1244,8254;0,0762888
1245,7897;0,0759754
1246,7539;0,0756163
1247,7181;0,0752179
1248,6824;0,0747879
1249,6466;0,0743351
1250,6108;0,0738684
1251,5751;0,0733955
1252,5393;0,0729201
1253,5035;0,0724423
1254,4678;0,0719587
1255,4320;0,0714646
1256,3962;0,0709564
1257,3605;0,0704328
1258,3247;0,0698949
1259,2889;0,0693444
1260,2532;0,0687809
1261,2174;0,0682
1262,1816;0,0675938
1263,1459;0,0669546
1264,1101;0,0662791
1265,0743;0,0655703
1266,0386;0,0648356
1267,0028;0,0640832
1267,9670;0,0633187
1268,9313;0,0625452
1269,8955;0,0617653
1270,8597;0,0609842
1271,8240;0,0602083
1272,7882;0,0594434
1273,7524;0,0586916
1274,7167;0,057953
1275,6809;0,0572278
1276,6451;0,0565195
1277,6094;0,0558334
1278,5736;0,0551735
1279,5378;0,0545393
1280,5021;0,0539258
1281,4663;0,0533287
1282,4305;0,0527485
1283,3948;0,0521928
1284,3590;0,0516737
1285,3232;0,0512024
1286,2875;0,0507857
1287,2517;0,0504252
1288,2159;0,05012
1289,1802;0,0498697
1290,1444;0,0496756
1291,1086;0,0495397
1292,0729;0,0494642
1293,0371;0,0494501
1294,0013;0,0494981
1294,9656;0,049609
1295,9298;0,0497833
1296,8940;0,0500202
1297,8583;0,0503161
1298,8225;0,0506644
1299,7867;0,0510566
1300,7510;0,0514838
1301,7152;0,0519392
1302,6794;0,0524199
1303,6437;0,0529274
1304,6079;0,0534652
1305,5721;0,054036
1306,5364;0,0546377
1307,5006;0,0552628
1308,4648;0,0559002
1309,4291;0,0565386
1310,3933;0,0571681
1311,3575;0,0577796
1312,3218;0,0583608
1313,2860;0,0588948
1314,2502;0,0593599
1315,2145;0,0597331
1316,1787;0,0599953
1317,1429;0,0601367
1318,1072;0,0601616
1319,0714;0,0600901
1320,0356;0,0599539
1320,9999;0,0597863
1321,9641;0,0596131
1322,9283;0,0594501
1323,8926;0,0593059
1324,8568;0,0591863
1325,8210;0,0590947
1326,7853;0,0590306
1327,7495;0,0589866
1328,7137;0,0589483
1329,6780;0,058898
1330,6422;0,0588212
1331,6064;0,0587108
1332,5707;0,0585683
1333,5349;0,0583976
1334,4991;0,0581965
1335,4634;0,0579505
1336,4276;0,0576341
1337,3918;0,0572244
1338,3561;0,0567234
1339,3203;0,0561742
1340,2845;0,0556475
1341,2488;0,0552031
1342,2130;0,054862
1343,1772;0,0546121
1344,1415;0,054429
1345,1057;0,0542932
1346,0699;0,0541964
1347,0342;0,0541408
1347,9984;0,0541345
1348,9626;0,054187
1349,9269;0,0543053
1350,8911;0,0544912
1351,8553;0,0547412
1352,8196;0,055048
1353,7838;0,0554047
1354,7480;0,0558065
1355,7123;0,0562496
1356,6765;0,0567286
1357,6407;0,0572337
1358,6050;0,0577517
1359,5692;0,0582681
1360,5334;0,0587677
1361,4977;0,0592376
1362,4619;0,0596714
1363,4261;0,0600723
1364,3904;0,0604496
1365,3546;0,0608096
1366,3188;0,061151
1367,2831;0,0614644
1368,2473;0,0617358
1369,2115;0,0619502
1370,1758;0,062093
1371,1400;0,062148
1372,1042;0,0620962
1373,0685;0,0619218
1374,0327;0,0616254
1374,9969;0,0612301
1375,9612;0,0607649
1376,9254;0,0602382
1377,8896;0,0596319
1378,8539;0,0589239
1379,8181;0,05812
1380,7823;0,0572665
1381,7466;0,056428
1382,7108;0,0556433
1383,6750;0,0548992
1384,6393;0,0541423
1385,6035;0,0533272
1386,5677;0,0524725
1387,5320;0,0516753
1388,4962;0,0510455
1389,4604;0,0506221
1390,4247;0,0503638
1391,3889;0,0501976
1392,3531;0,0500629
1393,3174;0,0499298
1394,2816;0,0497988
1395,2458;0,0496899
1396,2101;0,049624
1397,1743;0,0496133
1398,1385;0,0496632
1399,1028;0,0497763
1400,0670;0,0499497
1401,0313;0,0501698
1401,9955;0,0504147
1402,9597;0,050663
1403,9240;0,0509052
1404,8882;0,0511505
1405,8524;0,0514202
1406,8167;0,051732
1407,7809;0,052088
1408,7451;0,0524791
1409,7094;0,0528977
1410,6736;0,0533448
1411,6378;0,053827
1412,6021;0,0543454
1413,5663;0,0548871
1414,5305;0,0554254
1415,4948;0,0559247
1416,4590;0,0563457
1417,4232;0,0566583
1418,3875;0,0568654
1419,3517;0,0570083
1420,3159;0,0571244
1421,2802;0,0572077
1422,2444;0,0572209
1423,2086;0,0571337
1424,1729;0,0569467
1425,1371;0,0566841
1426,1013;0,0563641
1427,0656;0,0559716
1428,0298;0,0554676
1428,9940;0,0548353
1429,9583;0,0541255
1430,9225;0,053442
1431,8867;0,0528644
1432,8510;0,0523864
1433,8152;0,0519195
1434,7794;0,0513513
1435,7437;0,0506373
1436,7079;0,0498792
1437,6721;0,0492699
1438,6364;0,0489223
1439,6006;0,0488084
1440,5648;0,0488408
1441,5291;0,0489509
1442,4933;0,0491081
1443,4575;0,049308
1444,4218;0,0495534
1445,3860;0,0498417
1446,3502;0,0501628
1447,3145;0,0505048
1448,2787;0,0508599
1449,2429;0,051226
1450,2072;0,0516023
1451,1714;0,0519829
1452,1356;0,0523529
1453,0999;0,0526795
1454,0641;0,0528977
1455,0283;0,0528978
1455,9926;0,0525716
1456,9568;0,0519911
1457,9210;0,0514863
1458,8853;0,0512999
1459,8495;0,0513727
1460,8137;0,0515273
1461,7780;0,0515999
1462,7422;0,0514456
1463,7064;0,0509546
1464,6707;0,0501338
1465,6349;0,049155
1466,5991;0,0482332
1467,5634;0,0474539
1468,5276;0,0467506
1469,4918;0,0459739
1470,4561;0,04495
1471,4203;0,0435469
1472,3845;0,041805
1473,3488;0,0400152
1474,3130;0,038512
1475,2772;0,0373924
1476,2415;0,0365532
1477,2057;0,0358713
1478,1699;0,0352784
1479,1342;0,0347495
1480,0984;0,0342807
1481,0626;0,0338776
1482,0269;0,0335534
1482,9911;0,0333227
1483,9553;0,0331904
1484,9196;0,0331427
1485,8838;0,0331466
1486,8480;0,0331605
1487,8123;0,0331574
1488,7765;0,0331569
1489,7407;0,0332238
1490,7050;0,0334083
1491,6692;0,0337067
1492,6334;0,0340876
1493,5977;0,0345252
1494,5619;0,0350063
1495,5261;0,0355271
1496,4904;0,0360888
1497,4546;0,0366918
1498,4188;0,0373271
1499,3831;0,0379747
1500,3473;0,0386137
1501,3115;0,0392274
1502,2758;0,0397985
1503,2400;0,0402983
1504,2042;0,0406679
1505,1685;0,0407988
1506,1327;0,0405714
1507,0969;0,040045
1508,0612;0,0395251
1509,0254;0,0392011
1509,9896;0,0390182
1510,9539;0,0388707
1511,9181;0,0386863
1512,8823;0,0384165
1513,8466;0,0380284
1514,8108;0,0375153
1515,7750;0,0369118
1516,7393;0,0362806
1517,7035;0,0356692
1518,6677;0,0350762
1519,6320;0,0344674
1520,5962;0,0338327
1521,5604;0,0332263
1522,5247;0,0327335
1523,4889;0,0323984
1524,4531;0,0322036
1525,4174;0,0321074
1526,3816;0,0320815
1527,3458;0,0321171
1528,3101;0,03221
1529,2743;0,0323477
1530,2385;0,0325102
1531,2028;0,0326829
1532,1670;0,0328708
1533,1312;0,033102
1534,0955;0,0334047
1535,0597;0,033777
1536,0239;0,0341868
1536,9882;0,034584
1537,9524;0,0348968
1538,9166;0,0350229
1539,8809;0,0348835
1540,8451;0,0345795
1541,8093;0,0343728
1542,7736;0,0343699
1543,7378;0,0344872
1544,7020;0,0346351
1545,6663;0,034778
1546,6305;0,0349125
1547,5947;0,0350409
1548,5590;0,0351589
1549,5232;0,0352593
1550,4874;0,0353446
1551,4517;0,0354368
1552,4159;0,0355683
1553,3801;0,0357588
1554,3444;0,0359953
1555,3086;0,036224
1556,2728;0,0363445
1557,2371;0,0362338
1558,2013;0,0358994
1559,1655;0,035634
1560,1298;0,0356863
1561,0940;0,03599
1562,0582;0,0364051
1563,0225;0,0368584
1563,9867;0,0373165
1564,9509;0,037754
1565,9152;0,0381477
1566,8794;0,0384925
1567,8436;0,0388215
1568,8079;0,0392001
1569,7721;0,0396745
1570,7363;0,0402259
1571,7006;0,0407942
1572,6648;0,0413275
1573,6290;0,0418017
1574,5933;0,0422213
1575,5575;0,0426206
1576,5217;0,0430514
1577,4860;0,0435405
1578,4502;0,044072
1579,4144;0,0446203
1580,3787;0,0451732
1581,3429;0,0457285
1582,3071;0,0462872
1583,2714;0,0468533
1584,2356;0,047435
1585,1998;0,0480406
1586,1641;0,0486703
1587,1283;0,0493095
1588,0925;0,0499297
1589,0568;0,0504967
1590,0210;0,0509799
1590,9852;0,0513575
1591,9495;0,0516145
1592,9137;0,0517418
1593,8779;0,0517407
1594,8422;0,051629
1595,8064;0,0514383
1596,7706;0,0512023
1597,7349;0,0509445
1598,6991;0,0506756
1599,6633;0,0504004
1600,6276;0,0501251
1601,5918;0,049862
1602,5560;0,0496258
1603,5203;0,0494263
1604,4845;0,0492604
1605,4487;0,0491115
1606,4130;0,0489573
1607,3772;0,048786
1608,3414;0,0486143
1609,3057;0,0484883
1610,2699;0,0484557
1611,2341;0,0485305
1612,1984;0,0486817
1613,1626;0,0488454
1614,1268;0,0489471
1615,0911;0,0489393
1616,0553;0,048857
1617,0195;0,0488197
1617,9838;0,0489238
1618,9480;0,04916
1619,9122;0,0494548
1620,8765;0,0497335
1621,8407;0,049947
1622,8049;0,050083
1623,7692;0,0501682
1624,7334;0,0502446
1625,6976;0,0503363
1626,6619;0,0504464
1627,6261;0,0505784
1628,5903;0,0507488
1629,5546;0,0509761
1630,5188;0,0512592
1631,4830;0,0515648
1632,4473;0,0518228
1633,4115;0,0519268
1634,3757;0,0517706
1635,3400;0,0513681
1636,3042;0,0509385
1637,2684;0,0507119
1638,2327;0,050712
1639,1969;0,050841
1640,1611;0,0510174
1641,1254;0,0512036
1642,0896;0,0513782
1643,0538;0,0515025
1644,0181;0,0515025
1644,9823;0,0512967
1645,9465;0,0509008
1646,9108;0,050505
1647,8750;0,0503235
1648,8392;0,0503871
1649,8035;0,0505556
1650,7677;0,0505979
1651,7319;0,0502285
1652,6962;0,049302
1653,6604;0,0481973
1654,6246;0,0475095
1655,5889;0,0473069
1656,5531;0,047333
1657,5173;0,0473869
1658,4816;0,0473569
1659,4458;0,047165
1660,4100;0,0467568
1661,3743;0,0461475
1662,3385;0,0454653
1663,3027;0,0448858
1664,2670;0,0444973
1665,2312;0,0442575
1666,1954;0,0440422
1667,1597;0,043703
1668,1239;0,04313
1669,0881;0,0423436
1670,0524;0,0415259
1671,0166;0,0408717
1671,9808;0,0404112
1672,9451;0,0400269
1673,9093;0,0395809
1674,8735;0,0390197
1675,8378;0,0384125
1676,8020;0,0378935
1677,7662;0,0375497
1678,7305;0,037372
1679,6947;0,0372799
1680,6589;0,0371458
1681,6232;0,0368001
1682,5874;0,0360854
1683,5516;0,0350412
1684,5159;0,0340037
1685,4801;0,0332772
1686,4443;0,0328543
1687,4086;0,0325781
1688,3728;0,0323349
1689,3370;0,0320932
1690,3013;0,0318736
1691,2655;0,0317072
1692,2297;0,0316035
1693,1940;0,0315387
1694,1582;0,0314648
1695,1224;0,0313327
1696,0867;0,0311176
1697,0509;0,0308351
1698,0151;0,0305347
1698,9794;0,030278
1699,9436;0,0301137
1700,9078;0,0300598
1701,8721;0,0301049
1702,8363;0,0302245
1703,8005;0,030397
1704,7648;0,030611
1705,7290;0,0308655
1706,6932;0,0311664
1707,6575;0,0315201
1708,6217;0,0319294
1709,5859;0,0323948
1710,5502;0,0329137
1711,5144;0,0334751
1712,4786;0,0340531
1713,4429;0,0346052
1714,4071;0,0350782
1715,3713;0,0354331
1716,3356;0,0356894
1717,2998;0,0359376
1718,2640;0,036261
1719,2283;0,0366676
1720,1925;0,0371261
1721,1567;0,037611
1722,1210;0,0381073
1723,0852;0,0386017
1724,0494;0,0390808
1725,0137;0,0395367
1725,9779;0,0399724
1726,9421;0,0403987
1727,9064;0,0408237
1728,8706;0,0412396
1729,8348;0,0416109
1730,7991;0,0418687
1731,7633;0,0419254
1732,7275;0,0417369
1733,6918;0,0413858
1734,6560;0,0410435
1735,6202;0,0408085
1736,5845;0,0406449
1737,5487;0,0404541
1738,5129;0,040146
1739,4772;0,0396762
1740,4414;0,0390664
1741,4056;0,0383889
1742,3699;0,0377113
1743,3341;0,0370536
1744,2983;0,036396
1745,2626;0,0357084
1746,2268;0,0349597
1747,1910;0,0341082
1748,1553;0,0331081
1749,1195;0,0319596
1750,0837;0,0307609
1751,0480;0,0296656
1752,0122;0,0287661
1752,9764;0,0280434
1753,9407;0,0274117
1754,9049;0,0267851
1755,8691;0,0261228
1756,8334;0,0254385
1757,7976;0,0247714
1758,7618;0,0241412
1759,7261;0,0235291
1760,6903;0,0229076
1761,6545;0,0222856
1762,6188;0,0217171
1763,5830;0,0212585
1764,5472;0,0209222
1765,5115;0,020673
1766,4757;0,0204558
1767,4399;0,0202226
1768,4042;0,0199442
1769,3684;0,0196076
1770,3326;0,0192129
1771,2969;0,0187832
1772,2611;0,0183774
1773,2253;0,0180684
1774,1896;0,0178933
1775,1538;0,0178341
1776,1180;0,0178398
1777,0823;0,0178548
1778,0465;0,0178365
1779,0107;0,0177675
1779,9750;0,0176601
1780,9392;0,0175444
1781,9034;0,0174449
1782,8677;0,0173679
1783,8319;0,0173093
1784,7961;0,0172699
1785,7604;0,01726
1786,7246;0,0172902
1787,6888;0,0173576
1788,6531;0,0174385
1789,6173;0,0174912
1790,5815;0,0174721
1791,5458;0,0173668
1792,5100;0,0172138
1793,4742;0,0170785
1794,4385;0,0169994
1795,4027;0,0169729
1796,3669;0,0169735
1797,3312;0,0169733
1798,2954;0,016952
1799,2596;0,0169026
1800,2239;0,0168329
1801,1881;0,01676
1802,1523;0,0166998
1803,1166;0,0166615
1804,0808;0,016649
1805,0450;0,0166618
1806,0093;0,0166944
1806,9735;0,0167346
1807,9377;0,0167652
1808,9020;0,0167682
1809,8662;0,016733
1810,8304;0,0166639
1811,7947;0,0165782
1812,7589;0,0164972
1813,7231;0,0164361
1814,6874;0,0164005
1815,6516;0,0163881
1816,6158;0,0163935
1817,5801;0,0164125
1818,5443;0,0164435
1819,5085;0,0164848
1820,4728;0,0165315
1821,4370;0,0165733
1822,4012;0,0165975
1823,3655;0,0165949
1824,3297;0,0165658
1825,2939;0,0165184
1826,2582;0,0164611
1827,2224;0,0163962
1828,1866;0,0163239
1829,1509;0,0162528
1830,1151;0,0162035
1831,0793;0,0161945
1832,0436;0,0162252
1833,0078;0,0162746
1833,9720;0,0163132
1834,9363;0,0163176
1835,9005;0,0162833
1836,8647;0,0162315
1837,8290;0,0161997
1838,7932;0,0162179
1839,7574;0,0162891
1840,7217;0,0163874
1841,6859;0,0164682
1842,6501;0,0164865
1843,6144;0,0164244
1844,5786;0,0163094
1845,5428;0,016196
1846,5071;0,016124
1847,4713;0,0160995
1848,4355;0,0161069
1849,3998;0,0161247
1850,3640;0,0161376
1851,3282;0,0161399
1852,2925;0,0161356
1853,2567;0,0161334
1854,2209;0,0161406
1855,1852;0,0161601
1856,1494;0,0161891
1857,1136;0,0162207
1858,0779;0,0162454
1859,0421;0,0162557
1860,0063;0,0162501
1860,9706;0,0162362
1861,9348;0,0162289
1862,8990;0,0162435
1863,8633;0,0162869
1864,8275;0,0163508
1865,7917;0,0164119
1866,7560;0,016439
1867,7202;0,0164117
1868,6844;0,0163384
1869,6487;0,0162544
1870,6129;0,016195
1871,5771;0,0161735
1872,5414;0,0161807
1873,5056;0,0161944
1874,4698;0,0161907
1875,4341;0,0161558
1876,3983;0,0160946
1877,3625;0,0160304
1878,3268;0,0159917
1879,2910;0,0159969
1880,2552;0,0160446
1881,2195;0,0161165
1882,1837;0,0161876
1883,1479;0,0162384
1884,1122;0,0162621
1885,0764;0,0162621
1886,0406;0,016246
1887,0049;0,0162199
1887,9691;0,0161891
1888,9333;0,0161583
1889,8976;0,0161302
1890,8618;0,0161022
1891,8260;0,0160666
1892,7903;0,0160163
1893,7545;0,0159533
1894,7188;0,0158935
1895,6830;0,0158612
1896,6472;0,0158752
1897,6115;0,0159341
1898,5757;0,0160163
1899,5399;0,0160926
1900,5042;0,0161433
1901,4684;0,0161667
1902,4326;0,0161754
1903,3969;0,0161842
1904,3611;0,016197
1905,3253;0,0162035
1906,2896;0,0161859
1907,2538;0,0161305
1908,2180;0,0160385
1909,1823;0,0159289
1910,1465;0,0158324
1911,1107;0,0157778
1912,0750;0,0157793
1913,0392;0,0158322
1914,0034;0,0159151
1914,9677;0,0159965
1915,9319;0,0160453
1916,8961;0,0160447
1917,8604;0,0160018
1918,8246;0,0159425
1919,7888;0,0158937
1920,7531;0,015869
1921,7173;0,0158678
1922,6815;0,015884
1923,6458;0,0159136
1924,6100;0,0159545
1925,5742;0,0160006
1926,5385;0,0160375
1927,5027;0,0160456
1928,4669;0,0160103
1929,4312;0,0159314
1930,3954;0,0158262
1931,3596;0,0157207
1932,3239;0,0156348
1933,2881;0,0155725
1934,2523;0,015525
1935,2166;0,0154809
1936,1808;0,0154366
1937,1450;0,0153978
1938,1093;0,0153732
1939,0735;0,015368
1940,0377;0,015383
1941,0020;0,0154181
1941,9662;0,0154764
1942,9304;0,01556
1943,8947;0,0156604
1944,8589;0,0157519
1945,8231;0,0157971
1946,7874;0,0157619
1947,7516;0,0156334
1948,7158;0,0154325
1949,6801;0,0152115
1950,6443;0,0150339
1951,6085;0,0149434
1952,5728;0,0149418
1953,5370;0,0149889
1954,5012;0,0150226
1955,4655;0,0149905
1956,4297;0,0148747
1957,3939;0,0146985
1958,3582;0,0145159
1959,3224;0,0143865
1960,2866;0,0143473
1961,2509;0,0143944
1962,2151;0,0144858
1963,1793;0,0145662
1964,1436;0,0145964
1965,1078;0,0145699
1966,0720;0,0145051
1967,0363;0,0144158
1968,0005;0,0142842
1968,9647;0,014064
1969,9290;0,0137196
1970,8932;0,0132734
1971,8574;0,0128253
1972,8217;0,0125258
1973,7859;0,012511
1974,7501;0,0128277
1975,7144;0,0133918
1976,6786;0,0140139
1977,6428;0,0144918
1978,6071;0,0147113
1979,5713;0,0146918
1980,5355;0,0145539
1981,4998;0,0144446
1982,4640;0,0144698
1983,4282;0,0146537
1984,3925;0,0149347
1985,3567;0,0151985
1986,3209;0,0153387
1987,2852;0,0153139
1988,2494;0,0151682
1989,2136;0,0150031
1990,1779;0,0149199
1991,1421;0,0149654
1992,1063;0,0151144
1993,0706;0,0152979
1994,0348;0,0154504
1994,9990;0,0155386
1995,9633;0,0155566
1996,9275;0,0155079
1997,8917;0,0153956
1998,8560;0,0152273
1999,8202;0,0150247
2000,7844;0,0148217
2001,7487;0,0146545
2002,7129;0,0145502
2003,6771;0,0145257
2004,6414;0,0145907
2005,6056;0,0147431
2006,5698;0,0149542
2007,5341;0,0151567
2008,4983;0,0152601
2009,4625;0,0151925
2010,4268;0,0149429
2011,3910;0,0145707
2012,3552;0,0141752
2013,3195;0,0138484
2014,2837;0,0136455
2015,2479;0,0135857
2016,2122;0,0136743
2017,1764;0,0139167
2018,1406;0,0143051
2019,1049;0,0147903
2020,0691;0,01527
2021,0333;0,0156167
2021,9976;0,0157329
2022,9618;0,0156024
2023,9260;0,0153042
2024,8903;0,0149768
2025,8545;0,0147516
2026,8187;0,0146965
2027,7830;0,0147984
2028,7472;0,0149876
2029,7114;0,0151789
2030,6757;0,0153072
2031,6399;0,015348
2032,6041;0,015321
2033,5684;0,0152819
2034,5326;0,0152993
2035,4968;0,0154223
2036,4611;0,0156545
2037,4253;0,0159477
2038,3895;0,0162228
2039,3538;0,0164043
2040,3180;0,0164528
2041,2822;0,0163789
2042,2465;0,0162346
2043,2107;0,016089
2044,1749;0,0160037
2045,1392;0,0160191
2046,1034;0,016147
2047,0676;0,0163667
2048,0320;0,0166259
2048,9961;0,0168558
2049,9604;0,0169964
2050,9246;0,0170187
2051,8889;0,016931
2052,8530;0,0167704
2053,8174;0,0165877
2054,7815;0,0164329
2055,7458;0,0163439
2056,7100;0,0163392
2057,6743;0,0164165
2058,6384;0,0165541
2059,6028;0,0167166
2060,5669;0,0168655
2061,5313;0,0169724
2062,4954;0,01703
2063,4597;0,0170541
2064,4238;0,0170726
2065,3882;0,0171074
2066,3523;0,01716
2067,3167;0,0172117
2068,2808;0,0172371
2069,2451;0,0172227
2070,2092;0,0171772
2071,1736;0,0171297
2072,1377;0,0171151
2073,1021;0,0171549
2074,0662;0,0172446
2075,0305;0,017354
2075,9946;0,0174416
2076,9590;0,0174754
2077,9231;0,0174482
2078,8875;0,0173796
2079,8516;0,0173028
2080,8159;0,0172462
2081,7800;0,0172198
2082,7444;0,017215
2083,7085;0,0172159
2084,6729;0,0172121
2085,6370;0,0172045
2086,6013;0,0172017
2087,5654;0,0172098
2088,5298;0,0172261
2089,4939;0,0172399
2090,4583;0,0172387
2091,4224;0,0172153
2092,3867;0,0171712
2093,3508;0,0171161
2094,3152;0,0170658
2095,2793;0,0170401
2096,2437;0,0170591
2097,2078;0,017136
2098,1721;0,0172679
2099,1362;0,0174321
2100,1006;0,0175902
2101,0647;0,017703
2102,0291;0,0177445
2102,9932;0,0177141
2103,9575;0,0176357
2104,9216;0,0175464
2105,8860;0,0174823
2106,8501;0,0174676
2107,8145;0,0175096
2108,7786;0,0176007
2109,7429;0,0177211
2110,7070;0,0178437
2111,6714;0,017939
2112,6355;0,0179819
2113,5999;0,0179592
2114,5640;0,0178735
2115,5283;0,0177422
2116,4924;0,0175919
2117,4568;0,0174504
2118,4209;0,0173402
2119,3853;0,0172763
2120,3494;0,0172651
2121,3137;0,0173044
2122,2778;0,0173818
2123,2422;0,0174748
2124,2063;0,017553
2125,1707;0,0175853
2126,1348;0,0175499
2127,0991;0,0174432
2128,0632;0,017283
2129,0276;0,0171056
2129,9917;0,0169563
2130,9561;0,0168772
2131,9202;0,0168943
2132,8845;0,017006
2133,8486;0,0171779
2134,8130;0,0173511
2135,7771;0,0174661
2136,7415;0,0174924
2137,7056;0,017445
2138,6699;0,0173731
2139,6340;0,0173253
2140,5984;0,0173151
2141,5625;0,0173102
2142,5269;0,0172585
2143,4910;0,0171318
2144,4553;0,0169563
2145,4194;0,0168019
2146,3838;0,0167354
2147,3479;0,0167719
2148,3123;0,0168642
2149,2764;0,0169385
2150,2407;0,0169469
2151,2048;0,0168938
2152,1692;0,0168161
2153,1333;0,0167393
2154,0977;0,0166501
2155,0618;0,0165127
2156,0261;0,0163223
2156,9902;0,0161502
2157,9546;0,0161286
2158,9187;0,0163604
2159,8831;0,0168259
2160,8472;0,017383
2161,8115;0,0178596
2162,7756;0,0181419
2163,7400;0,0182014
2164,7041;0,0180743
2165,6685;0,0178297
2166,6326;0,0175439
2167,5969;0,0172831
2168,5610;0,0170913
2169,5254;0,0169815
2170,4895;0,0169368
2171,4539;0,0169227
2172,4180;0,0169057
2173,3823;0,0168696
2174,3464;0,0168184
2175,3108;0,0167679
2176,2749;0,0167366
2177,2393;0,0167438
2178,2034;0,0168109
2179,1677;0,0169549
2180,1318;0,0171693
2181,0962;0,0174064
2182,0603;0,0175835
2183,0247;0,0176226
2183,9888;0,0175021
2184,9531;0,0172803
2185,9172;0,0170689
2186,8816;0,0169713
2187,8457;0,0170278
2188,8101;0,0172005
2189,7742;0,0174027
2190,7385;0,0175489
2191,7026;0,0175938
2192,6670;0,0175398
2193,6311;0,0174222
2194,5955;0,017286
2195,5596;0,0171708
2196,5239;0,0171042
2197,4880;0,0170982
2198,4524;0,0171465
2199,4165;0,0172253
2200,3809;0,0173032
2201,3450;0,0173553
2202,3093;0,017375
2203,2734;0,017372
2204,2378;0,0173613
2205,2019;0,0173507
2206,1663;0,0173396
2207,1304;0,0173267
2208,0947;0,0173192
2209,0588;0,0173322
2210,0232;0,0173778
2210,9873;0,0174536
2211,9517;0,0175405
2212,9158;0,0176129
2213,8801;0,0176541
2214,8442;0,0176645
2215,8086;0,0176594
2216,7727;0,0176588
2217,7371;0,0176788
2218,7012;0,0177266
2219,6655;0,0178001
2220,6296;0,0178872
2221,5940;0,0179671
2222,5581;0,0180164
2223,5225;0,0180196
2224,4866;0,0179794
2225,4509;0,0179168
2226,4150;0,0178586
2227,3794;0,0178209
2228,3435;0,0177996
2229,3079;0,0177781
2230,2720;0,0177457
2231,2363;0,0177114
2232,2004;0,0177003
2233,1648;0,0177353
2234,1289;0,0178168
2235,0933;0,0179184
2236,0574;0,0180024
2237,0217;0,0180418
2237,9858;0,0180353
2238,9502;0,0180023
2239,9143;0,0179673
2240,8787;0,0179439
2241,8428;0,0179327
2242,8071;0,0179304
2243,7712;0,0179404
2244,7356;0,0179748
2245,6997;0,018044
2246,6641;0,018143
2247,6282;0,0182455
2248,5925;0,0183136
2249,5566;0,0183164
2250,5210;0,0182487
2251,4851;0,0181352
2252,4495;0,0180198
2253,4136;0,0179445
2254,3779;0,01793
2255,3420;0,0179695
2256,3064;0,018036
2257,2705;0,0180983
2258,2349;0,0181349
2259,1990;0,0181388
2260,1633;0,0181151
2261,1274;0,0180753
2262,0918;0,018032
2263,0559;0,0179964
2264,0203;0,0179765
2264,9844;0,0179757
2265,9487;0,0179925
2266,9128;0,0180208
2267,8772;0,0180526
2268,8413;0,0180798
2269,8057;0,0180962
2270,7698;0,0180983
2271,7341;0,0180872
2272,6982;0,0180694
2273,6626;0,0180561
2274,6267;0,0180586
2275,5911;0,0180822
2276,5552;0,0181219
2277,5195;0,0181665
2278,4836;0,0182066
2279,4480;0,0182431
2280,4121;0,0182864
2281,3765;0,0183474
2282,3406;0,0184272
2283,3049;0,0185129
2284,2690;0,0185854
2285,2334;0,0186307
2286,1975;0,0186481
2287,1619;0,018647
2288,1260;0,0186378
2289,0903;0,0186228
2290,0544;0,0185982
2291,0188;0,018563
2291,9829;0,0185275
2292,9473;0,0185131
2293,9114;0,0185393
2294,8757;0,0186099
2295,8398;0,018707
2296,8042;0,0188003
2297,7683;0,0188653
2298,7327;0,0188982
2299,6968;0,0189178
2300,6611;0,0189521
2301,6252;0,0190209
2302,5896;0,0191248
2303,5537;0,0192463
2304,5181;0,0193612
2305,4822;0,0194507
2306,4465;0,0195084
2307,4106;0,0195396
2308,3750;0,0195565
2309,3391;0,0195727
2310,3035;0,0196004
2311,2676;0,0196491
2312,2319;0,0197248
2313,1960;0,0198278
2314,1604;0,0199519
2315,1245;0,0200854
2316,0889;0,0202143
2317,0530;0,020325
2318,0173;0,0204066
2318,9814;0,0204507
2319,9458;0,0204507
2320,9099;0,0204012
2321,8743;0,0202986
2322,8384;0,0201448
2323,8027;0,019951
2324,7668;0,0197385
2325,7312;0,0195354
2326,6953;0,0193694
2327,6597;0,0192605
2328,6238;0,0192138
2329,5881;0,0192145
2330,5522;0,01923
2331,5166;0,0192209
2332,4807;0,0191587
2333,4451;0,0190354
2334,4092;0,0188593
2335,3735;0,0186455
2336,3376;0,0184092
2337,3020;0,0181669
2338,2661;0,0179401
2339,2305;0,0177544
2340,1946;0,0176341
2341,1589;0,0175999
2342,1230;0,0176687
2343,0874;0,0178418
2344,0515;0,0180813
2345,0159;0,0183142
2345,9800;0,018488
2346,9443;0,0186116
2347,9084;0,018734
2348,8728;0,0188987
2349,8369;0,019114
2350,8013;0,0193491
2351,7654;0,0195491
2352,7297;0,019666
2353,6938;0,0196854
2354,6582;0,0196231
2355,6223;0,0194961
2356,5867;0,019311
2357,5508;0,0190815
2358,5151;0,0188391
2359,4792;0,0186169
2360,4436;0,018423
2361,4077;0,0182418
2362,3721;0,018062
2363,3362;0,0179006
2364,3005;0,0177984
2365,2646;0,017796
2366,2290;0,0179109
2367,1931;0,0181313
2368,1575;0,0184209
2369,1216;0,0187302
2370,0859;0,0190103
2371,0500;0,0192253
2372,0144;0,0193611
2372,9785;0,0194238
2373,9429;0,01943
2374,9070;0,0193963
2375,8713;0,0193344
2376,8354;0,0192519
2377,7998;0,0191573
2378,7639;0,0190617
2379,7283;0,018978
2380,6924;0,0189161
2381,6567;0,0188796
2382,6208;0,0188654
2383,5852;0,0188659
2384,5493;0,0188723
2385,5137;0,0188773
2386,4778;0,0188769
2387,4421;0,0188711
2388,4063;0,0188632
2389,3706;0,0188586
2390,3347;0,0188619
2391,2991;0,0188739
2392,2632;0,0188908
2393,2275;0,0189057
2394,1917;0,0189125
2395,1560;0,0189098
2396,1201;0,0189022
2397,0845;0,0188977
2398,0486;0,0189036
2399,0129;0,018924
2399,9771;0,018959
2400,9414;0,0190056
2401,9055;0,0190594
2402,8699;0,0191142
2403,8340;0,0191626
2404,7983;0,0191964
2405,7625;0,0192104
2406,7268;0,0192051
2407,6909;0,019188
2408,6553;0,0191713
2409,6194;0,0191667
2410,5837;0,0191799
2411,5479;0,0192087
2412,5122;0,0192443
2413,4763;0,0192765
2414,4407;0,0192982
2415,4048;0,0193079
2416,3691;0,01931
2417,3333;0,0193106
2418,2976;0,0193146
2419,2617;0,0193226
2420,2261;0,0193311
2421,1902;0,0193354
2422,1545;0,0193329
2423,1187;0,0193268
2424,0830;0,0193254
2425,0471;0,019339
2426,0115;0,0193742
2426,9756;0,0194296
2427,9399;0,0194956
2428,9041;0,0195582
2429,8684;0,0196058
2430,8325;0,0196332
2431,7969;0,0196434
2432,7610;0,0196436
2433,7253;0,0196413
2434,6895;0,0196415
2435,6538;0,0196464
2436,6179;0,0196573
2437,5823;0,019675
2438,5464;0,0196998
2439,5107;0,019729
2440,4749;0,0197572
2441,4392;0,0197782
2442,4033;0,0197884
2443,3677;0,0197897
2444,3318;0,0197888
2445,2961;0,0197939
2446,2603;0,0198089
2447,2246;0,0198306
2448,1887;0,0198492
2449,1531;0,0198543
2450,1172;0,019841
2451,0815;0,0198149
2452,0457;0,019791
2453,0100;0,0197858
2453,9741;0,0198084
2454,9385;0,0198538
2455,9026;0,0199047
2456,8669;0,0199407
2457,8311;0,0199494
2458,7954;0,0199333
2459,7595;0,0199081
2460,7239;0,0198933
2461,6880;0,019902
2462,6523;0,0199354
2463,6165;0,0199843
2464,5808;0,0200355
2465,5449;0,0200781
2466,5093;0,0201056
2467,4734;0,0201159
2468,4377;0,0201103
2469,4019;0,0200931
2470,3662;0,0200728
2471,3303;0,02006
2472,2947;0,0200641
2473,2588;0,0200883
2474,2231;0,0201275
2475,1873;0,0201709
2476,1516;0,0202078
2477,1157;0,0202338
2478,0801;0,0202523
2479,0442;0,0202715
2480,0085;0,0202982
2480,9727;0,0203332
2481,9370;0,0203709
2482,9011;0,0204026
2483,8655;0,020421
2484,8296;0,0204239
2485,7939;0,0204137
2486,7581;0,0203966
2487,7224;0,0203791
2488,6865;0,0203669
2489,6509;0,0203635
2490,6150;0,0203705
2491,5793;0,0203867
2492,5435;0,0204083
2493,5078;0,0204296
2494,4719;0,0204449
2495,4363;0,0204515
2496,4004;0,0204516
2497,3647;0,020452
2498,3289;0,020461
2499,2932;0,0204841
2500,2573;0,0205202
2501,2217;0,0205615
2502,1858;0,0205973
2503,1501;0,0206199
2504,1143;0,0206294
2505,0786;0,0206329
2506,0427;0,0206403
2507,0071;0,0206581
2507,9712;0,0206858
2508,9355;0,020717
2509,8997;0,0207449
2510,8640;0,020766
2511,8281;0,0207808
2512,7925;0,0207909
2513,7566;0,0207947
2514,7209;0,0207877
2515,6851;0,0207653
2516,6494;0,020728
2517,6135;0,0206837
2518,5779;0,0206449
2519,5420;0,0206233
2520,5063;0,0206242
2521,4705;0,0206453
2522,4348;0,0206794
2523,3989;0,0207181
2524,3633;0,0207547
2525,3274;0,0207847
2526,2917;0,0208046
2527,2559;0,0208125
2528,2202;0,0208099
2529,1843;0,0208033
2530,1487;0,0208025
2531,1128;0,0208163
2532,0771;0,0208456
2533,0413;0,0208808
2534,0056;0,0209057
2534,9697;0,0209067
2535,9341;0,020882
2536,8982;0,0208445
2537,8625;0,020815
2538,8267;0,0208102
2539,7910;0,0208324
2540,7551;0,020869
2541,7195;0,0209012
2542,6836;0,0209158
2543,6479;0,0209119
2544,6121;0,0208993
2545,5764;0,0208902
2546,5405;0,0208928
2547,5049;0,0209082
2548,4690;0,0209328
2549,4333;0,0209611
2550,3975;0,0209866
2551,3618;0,0210027
2552,3259;0,0210048
2553,2903;0,0209953
2554,2544;0,0209849
2555,2188;0,0209886
2556,1829;0,0210167
2557,1472;0,0210653
2558,1113;0,0211171
2559,0757;0,0211502
2560,0398;0,0211519
2561,0042;0,0211255
2561,9683;0,0210873
2562,9326;0,0210554
2563,8967;0,0210403
2564,8611;0,0210432
2565,8252;0,0210602
2566,7896;0,0210882
2567,7537;0,0211254
2568,7180;0,0211684
2569,6821;0,0212088
2570,6465;0,0212354
2571,6106;0,0212403
2572,5750;0,0212231
2573,5391;0,0211921
2574,5034;0,0211586
2575,4675;0,0211322
2576,4319;0,0211168
2577,3960;0,0211121
2578,3604;0,0211157
2579,3245;0,0211255
2580,2888;0,0211404
2581,2529;0,0211599
2582,2173;0,021184
2583,1814;0,0212127
2584,1458;0,0212451
2585,1099;0,0212786
2586,0742;0,021309
2587,0383;0,021332
2588,0027;0,0213452
2588,9668;0,0213499
2589,9312;0,02135
2590,8953;0,0213502
2591,8596;0,0213545
2592,8237;0,0213656
2593,7881;0,0213854
2594,7522;0,0214152
2595,7166;0,0214544
2596,6807;0,0215001
2597,6450;0,0215469
2598,6091;0,0215889
2599,5735;0,0216216
2600,5376;0,0216431
2601,5020;0,0216544
2602,4661;0,0216583
2603,4304;0,0216594
2604,3945;0,0216638
2605,3589;0,0216786
2606,3230;0,0217088
2607,2874;0,0217544
2608,2515;0,0218077
2609,2158;0,0218555
2610,1799;0,0218838
2611,1443;0,0218847
2612,1084;0,0218611
2613,0728;0,021826
2614,0369;0,0217978
2615,0012;0,0217925
2615,9653;0,0218176
2616,9297;0,0218703
2617,8938;0,0219389
2618,8582;0,0220081
2619,8223;0,0220647
2620,7866;0,0221016
2621,7507;0,0221191
2622,7151;0,0221242
2623,6792;0,0221268
2624,6436;0,0221359
2625,6077;0,0221562
2626,5720;0,0221864
2627,5361;0,0222205
2628,5005;0,0222512
2629,4646;0,0222738
2630,4290;0,0222888
2631,3931;0,0223016
2632,3574;0,0223189
2633,3215;0,0223444
2634,2859;0,0223766
2635,2500;0,0224093
2636,2144;0,0224353
2637,1785;0,022451
2638,1428;0,0224588
2639,1069;0,0224663
2640,0713;0,0224819
2641,0354;0,022511
2641,9998;0,0225528
2642,9639;0,0226011
2643,9282;0,0226475
2644,8923;0,0226857
2645,8567;0,0227145
2646,8208;0,0227379
2647,7852;0,0227616
2648,7493;0,0227896
2649,7136;0,0228221
2650,6777;0,0228552
2651,6421;0,0228848
2652,6062;0,0229087
2653,5706;0,0229287
2654,5347;0,0229488
2655,4990;0,0229719
2656,4631;0,0229981
2657,4275;0,0230244
2658,3916;0,0230473
2659,3560;0,0230649
2660,3201;0,0230785
2661,2844;0,023091
2662,2485;0,0231048
2663,2129;0,0231204
2664,1770;0,0231364
2665,1414;0,0231504
2666,1055;0,0231609
2667,0698;0,0231677
2668,0339;0,0231716
2668,9983;0,023174
2669,9624;0,0231767
2670,9268;0,0231828
2671,8909;0,0231959
2672,8552;0,0232196
2673,8193;0,0232548
2674,7837;0,0232979
2675,7478;0,0233418
2676,7122;0,0233779
2677,6763;0,0234012
2678,6406;0,0234121
2679,6047;0,0234168
2680,5691;0,0234239
2681,5332;0,0234399
2682,4976;0,0234664
2683,4617;0,0235013
2684,4260;0,0235407
2685,3901;0,023582
2686,3545;0,0236249
2687,3186;0,0236693
2688,2830;0,0237141
2689,2471;0,023756
2690,2114;0,0237911
2691,1755;0,0238176
2692,1399;0,0238372
2693,1040;0,0238545
2694,0684;0,0238751
2695,0325;0,0239022
2695,9968;0,0239352
2696,9609;0,02397
2697,9253;0,0240012
2698,8894;0,0240247
2699,8538;0,0240402
2700,8179;0,0240516
2701,7822;0,024066
2702,7463;0,0240904
2703,7107;0,0241286
2704,6748;0,0241783
2705,6392;0,0242326
2706,6033;0,0242825
2707,5676;0,0243217
2708,5317;0,024349
2709,4961;0,0243684
2710,4602;0,0243853
2711,4246;0,0244037
2712,3887;0,0244247
2713,3530;0,0244477
2714,3171;0,0244722
2715,2815;0,0244991
2716,2456;0,0245303
2717,2100;0,0245669
2718,1741;0,0246082
2719,1384;0,0246521
2720,1025;0,0246959
2721,0669;0,0247371
2722,0310;0,0247746
2722,9954;0,024808
2723,9595;0,024838
2724,9238;0,0248661
2725,8879;0,0248939
2726,8523;0,0249229
2727,8164;0,0249532
2728,7808;0,0249841
2729,7449;0,0250148
2730,7092;0,0250457
2731,6733;0,0250786
2732,6377;0,0251146
2733,6018;0,0251521
2734,5662;0,0251867
2735,5303;0,0252122
2736,4946;0,0252247
2737,4587;0,0252253
2738,4231;0,0252201
2739,3872;0,0252178
2740,3516;0,0252262
2741,3157;0,0252494
2742,2800;0,0252864
2743,2441;0,025332
2744,2085;0,0253788
2745,1726;0,0254193
2746,1370;0,0254481
2747,1011;0,0254637
2748,0654;0,0254694
2749,0295;0,0254722
2749,9939;0,02548
2750,9580;0,0254988
2751,9224;0,0255302
2752,8865;0,0255721
2753,8508;0,0256202
2754,8149;0,0256703
2755,7793;0,0257194
2756,7434;0,025766
2757,7078;0,0258089
2758,6719;0,0258469
2759,6362;0,0258786
2760,6003;0,0259038
2761,5647;0,0259237
2762,5288;0,0259414
2763,4932;0,0259609
2764,4573;0,0259863
2765,4216;0,0260203
2766,3857;0,0260637
2767,3501;0,0261146
2768,3142;0,026169
2769,2786;0,0262217
2770,2427;0,0262678
2771,2070;0,0263038
2772,1711;0,0263298
2773,1355;0,0263496
2774,0996;0,02637
2775,0640;0,0263985
2776,0281;0,0264408
2776,9924;0,026498
2777,9565;0,0265669
2778,9209;0,026641
2779,8850;0,0267142
2780,8494;0,0267829
2781,8135;0,0268472
2782,7778;0,0269095
2783,7419;0,0269718
2784,7063;0,0270332
2785,6704;0,0270899
2786,6348;0,0271375
2787,5989;0,0271743
2788,5632;0,0272042
2789,5273;0,0272362
2790,4917;0,0272809
2791,4558;0,0273443
2792,4202;0,0274248
2793,3843;0,0275126
2794,3486;0,0275953
2795,3127;0,0276644
2796,2771;0,02772
2797,2412;0,0277706
2798,2056;0,027828
2799,1697;0,0279008
2800,1340;0,0279905
2801,0981;0,0280925
2802,0625;0,0281998
2803,0266;0,0283072
2803,9910;0,0284123
2804,9551;0,0285144
2805,9194;0,0286127
2806,8835;0,0287056
2807,8479;0,0287934
2808,8120;0,0288796
2809,7764;0,0289717
2810,7405;0,0290776
2811,7048;0,0292014
2812,6689;0,029341
2813,6333;0,0294881
2814,5974;0,029633
2815,5618;0,0297687
2816,5259;0,0298945
2817,4902;0,0300154
2818,4543;0,0301397
2819,4187;0,030275
2820,3828;0,0304248
2821,3472;0,0305883
2822,3113;0,030762
2823,2756;0,0309427
2824,2397;0,0311306
2825,2041;0,0313295
2826,1682;0,0315438
2827,1326;0,0317752
2828,0967;0,0320205
2829,0610;0,0322729
2830,0251;0,0325266
2830,9895;0,0327816
2831,9536;0,0330445
2832,9180;0,0333256
2833,8821;0,0336342
2834,8464;0,0339746
2835,8105;0,0343474
2836,7749;0,034752
2837,7390;0,0351903
2838,7034;0,0356678
2839,6675;0,0361938
2840,6318;0,0367824
2841,5959;0,0374534
2842,5603;0,0382297
2843,5244;0,039128
2844,4888;0,0401421
2845,4529;0,0412268
2846,4172;0,042294
2847,3813;0,0432281
2848,3457;0,04392
2849,3098;0,0443029
2850,2742;0,0443754
2851,2383;0,0441964
2852,2026;0,0438587
2853,1667;0,0434536
2854,1311;0,0430465
2855,0952;0,0426685
2856,0596;0,0423261
2857,0237;0,0420157
2857,9880;0,0417364
2858,9521;0,0414948
2859,9165;0,0413021
2860,8806;0,0411683
2861,8450;0,0410967
2862,8091;0,041082
2863,7734;0,041113
2864,7375;0,041177
2865,7019;0,0412638
2866,6660;0,0413673
2867,6304;0,0414826
2868,5945;0,0416032
2869,5588;0,0417193
2870,5229;0,0418196
2871,4873;0,0418966
2872,4514;0,0419498
2873,4158;0,041987
2874,3799;0,04202
2875,3442;0,0420598
2876,3083;0,0421122
2877,2727;0,042178
2878,2368;0,0422553
2879,2012;0,0423424
2880,1653;0,042439
2881,1296;0,0425465
2882,0938;0,0426669
2883,0581;0,042802
2884,0222;0,0429533
2884,9866;0,0431205
2885,9507;0,0433007
2886,9150;0,0434882
2887,8792;0,0436759
2888,8435;0,043858
2889,8076;0,0440328
2890,7720;0,0442029
2891,7361;0,0443735
2892,7004;0,0445494
2893,6646;0,0447328
2894,6289;0,044923
2895,5930;0,0451181
2896,5574;0,0453173
2897,5215;0,0455212
2898,4858;0,0457307
2899,4500;0,0459458
2900,4143;0,0461644
2901,3784;0,0463838
2902,3428;0,0466029
2903,3069;0,0468254
2904,2712;0,0470605
2905,2354;0,0473235
2906,1997;0,0476333
2907,1638;0,0480104
2908,1282;0,0484747
2909,0923;0,0490417
2910,0566;0,0497189
2911,0208;0,0504997
2911,9851;0,0513578
2912,9492;0,0522444
2913,9136;0,0530924
2914,8777;0,0538272
2915,8420;0,0543833
2916,8062;0,0547196
2917,7705;0,0548284
2918,7346;0,0547337
2919,6990;0,054481
2920,6631;0,0541214
2921,6274;0,053698
2922,5916;0,0532382
2923,5559;0,0527538
2924,5200;0,0522461
2925,4844;0,0517145
2926,4485;0,0511621
2927,4128;0,0505986
2928,3770;0,0500376
2929,3413;0,0494916
2930,3054;0,0489673
2931,2698;0,0484637
2932,2339;0,0479748
2933,1982;0,0474937
2934,1624;0,0470174
2935,1267;0,0465474
2936,0908;0,0460885
2937,0552;0,0456456
2938,0193;0,0452215
2938,9836;0,044816
2939,9478;0,0444269
2940,9121;0,044052
2941,8762;0,0436905
2942,8406;0,0433436
2943,8047;0,0430153
2944,7690;0,0427111
2945,7332;0,0424366
2946,6975;0,0421961
2947,6616;0,0419902
2948,6260;0,0418162
2949,5901;0,0416671
2950,5544;0,0415334
2951,5186;0,0414043
2952,4829;0,0412692
2953,4470;0,0411197
2954,4114;0,0409505
2955,3755;0,0407599
2956,3398;0,0405481
2957,3040;0,0403155
2958,2683;0,0400618
2959,2324;0,0397861
2960,1968;0,0394898
2961,1609;0,0391779
2962,1252;0,0388596
2963,0894;0,0385451
2964,0537;0,0382415
2965,0178;0,0379505
2965,9822;0,0376672
2966,9463;0,037384
2967,9106;0,0370936
2968,8748;0,0367919
2969,8391;0,0364789
2970,8032;0,0361587
2971,7676;0,0358384
2972,7317;0,0355274
2973,6960;0,0352358
2974,6602;0,0349715
2975,6245;0,0347372
2976,5886;0,0345292
2977,5530;0,034339
2978,5171;0,0341576
2979,4814;0,0339792
2980,4456;0,0338036
2981,4099;0,0336347
2982,3740;0,033477
2983,3384;0,0333339
2984,3025;0,0332065
2985,2668;0,0330947
2986,2310;0,0329977
2987,1953;0,0329133
2988,1594;0,0328369
2989,1238;0,0327625
2990,0879;0,0326851
2991,0522;0,0326041
2992,0164;0,0325246
2992,9807;0,0324556
2993,9448;0,032405
2994,9092;0,0323757
2995,8733;0,0323654
2996,8376;0,0323689
2997,8018;0,0323818
2998,7661;0,0324029
2999,7302;0,0324321
3000,6946;0,0324674
3001,6587;0,0325032
3002,6230;0,0325316
3003,5872;0,0325468
3004,5515;0,0325494
3005,5156;0,0325473
3006,4800;0,0325515
3007,4441;0,0325708
3008,4084;0,0326062
3009,3726;0,0326506
3010,3369;0,0326927
3011,3010;0,0327234
3012,2654;0,0327406
3013,2295;0,0327492
3014,1938;0,0327582
3015,1580;0,0327751
3016,1223;0,0328036
3017,0864;0,0328436
3018,0508;0,0328934
3019,0149;0,0329515
3019,9792;0,0330159
3020,9434;0,0330844
3021,9077;0,0331542
3022,8718;0,0332238
3023,8362;0,0332942
3024,8003;0,0333688
3025,7646;0,0334509
3026,7288;0,0335402
3027,6931;0,0336321
3028,6572;0,0337195
3029,6216;0,0337969
3030,5857;0,0338638
3031,5500;0,0339249
3032,5142;0,0339869
3033,4785;0,0340547
3034,4426;0,0341296
3035,4070;0,0342103
3036,3711;0,034295
3037,3354;0,0343836
3038,2996;0,0344765
3039,2639;0,0345734
3040,2280;0,0346722
3041,1924;0,0347699
3042,1565;0,0348636
3043,1208;0,0349527
3044,0850;0,0350385
3045,0493;0,0351232
3046,0134;0,0352092
3046,9778;0,0352989
3047,9419;0,0353952
3048,9063;0,0355015
3049,8704;0,0356204
3050,8347;0,0357513
3051,7988;0,0358892
3052,7632;0,0360257
3053,7273;0,0361525
3054,6917;0,0362645
3055,6558;0,0363626
3056,6201;0,036453
3057,5842;0,0365441
3058,5486;0,0366426
3059,5127;0,036751
3060,4771;0,0368676
3061,4412;0,0369877
3062,4055;0,0371064
3063,3696;0,0372204
3064,3340;0,03733
3065,2981;0,0374383
3066,2625;0,0375502
3067,2266;0,0376684
3068,1909;0,0377921
3069,1550;0,0379165
3070,1194;0,0380361
3071,0835;0,0381488
3072,0479;0,0382586
3073,0120;0,0383739
3073,9763;0,0385023
3074,9404;0,0386451
3075,9048;0,0387948
3076,8689;0,0389382
3077,8333;0,0390631
3078,7974;0,0391652
3079,7617;0,0392504
3080,7258;0,0393313
3081,6902;0,0394203
3082,6543;0,0395235
3083,6187;0,0396389
3084,5828;0,0397588
3085,5471;0,0398753
3086,5112;0,0399848
3087,4756;0,0400893
3088,4397;0,0401945
3089,4041;0,0403067
3090,3682;0,0404288
3091,3325;0,0405594
3092,2966;0,0406937
3093,2610;0,0408256
3094,2251;0,0409507
3095,1895;0,0410673
3096,1536;0,041177
3097,1179;0,0412839
3098,0820;0,0413927
3099,0464;0,0415074
3100,0105;0,0416297
3100,9749;0,0417587
3101,9390;0,0418919
3102,9033;0,0420263
3103,8674;0,0421595
3104,8318;0,0422907
3105,7959;0,0424202
3106,7603;0,0425487
3107,7244;0,0426764
3108,6887;0,0428033
3109,6528;0,04293
3110,6172;0,0430577
3111,5813;0,0431892
3112,5457;0,0433284
3113,5098;0,0434784
3114,4741;0,0436399
3115,4382;0,0438095
3116,4026;0,04398
3117,3667;0,0441421
3118,3311;0,0442883
3119,2952;0,0444157
3120,2595;0,0445268
3121,2236;0,0446286
3122,1880;0,0447297
3123,1521;0,0448379
3124,1165;0,0449592
3125,0806;0,0450973
3126,0449;0,0452532
3127,0090;0,0454238
3127,9734;0,0456008
3128,9375;0,0457727
3129,9019;0,0459287
3130,8660;0,0460637
3131,8303;0,0461813
3132,7944;0,046292
3133,7588;0,0464078
3134,7229;0,0465369
3135,6873;0,0466813
3136,6514;0,0468385
3137,6157;0,0470045
3138,5798;0,0471757
3139,5442;0,0473483
3140,5083;0,0475168
3141,4727;0,0476752
3142,4368;0,0478201
3143,4011;0,0479542
3144,3652;0,0480865
3145,3296;0,0482285
3146,2937;0,0483871
3147,2581;0,0485609
3148,2222;0,0487406
3149,1865;0,0489142
3150,1506;0,0490739
3151,1150;0,0492196
3152,0791;0,0493581
3153,0435;0,0494984
3154,0076;0,0496473
3154,9719;0,0498073
3155,9360;0,0499766
3156,9004;0,0501512
3157,8645;0,0503261
3158,8289;0,0504968
3159,7930;0,0506603
3160,7573;0,0508169
3161,7214;0,0509701
3162,6858;0,0511257
3163,6499;0,0512882
3164,6143;0,0514578
3165,5784;0,0516293
3166,5427;0,0517954
3167,5068;0,0519517
3168,4712;0,0521007
3169,4353;0,052243
3170,3997;0,0524018
3171,3638;0,0525724
3172,3281;0,0527487
3173,2922;0,0529192
3174,2566;0,053074
3175,2207;0,0532112
3176,1851;0,0533381
3177,1492;0,0534664
3178,1135;0,0536056
3179,0776;0,053758
3180,0420;0,053919
3181,0061;0,0540817
3181,9705;0,0542411
3182,9346;0,0543963
3183,8989;0,0545487
3184,8630;0,0546995
3185,8274;0,0548482
3186,7915;0,0549936
3187,7559;0,055136
3188,7200;0,0552778
3189,6843;0,0554223
3190,6484;0,0555718
3191,6128;0,0557255
3192,5769;0,0558804
3193,5413;0,0560333
3194,5054;0,0561831
3195,4697;0,0563303
3196,4338;0,0564758
3197,3982;0,0566187
3198,3623;0,0567564
3199,3267;0,0568875
3200,2908;0,057014
3201,2551;0,0571422
3202,2192;0,0572795
3203,1836;0,0574297
3204,1477;0,0575905
3205,1121;0,0577538
3206,0762;0,0579104
3207,0405;0,0580545
3208,0046;0,0581852
3208,9690;0,0583043
3209,9331;0,0584139
3210,8975;0,0585147
3211,8616;0,0586084
3212,8259;0,0587001
3213,7900;0,0587991
3214,7544;0,0589142
3215,7185;0,0590485
3216,6829;0,0591964
3217,6470;0,0593465
3218,6113;0,0594881
3219,5754;0,0596176
3220,5398;0,0597398
3221,5039;0,0598626
3222,4683;0,05999
3223,4324;0,0601191
3224,3967;0,0602422
3225,3608;0,0603543
3226,3252;0,0604582
3227,2893;0,0605652
3228,2537;0,0606885
3229,2178;0,0608351
3230,1821;0,0610004
3231,1462;0,0611696
3232,1106;0,0613245
3233,0747;0,0614521
3234,0391;0,0615507
3235,0032;0,0616293
3235,9675;0,0617039
3236,9316;0,0617904
3237,8960;0,0618996
3238,8601;0,0620338
3239,8245;0,062187
3240,7886;0,0623473
3241,7529;0,0625005
3242,7170;0,0626359
3243,6814;0,0627504
3244,6455;0,0628507
3245,6099;0,0629507
3246,5740;0,063065
3247,5383;0,0632009
3248,5024;0,0633552
3249,4668;0,063516
3250,4309;0,0636694
3251,3953;0,0638062
3252,3594;0,0639259
3253,3237;0,0640353
3254,2878;0,0641439
3255,2522;0,0642603
3256,2163;0,0643901
3257,1807;0,0645365
3258,1448;0,0647
3259,1091;0,0648771
3260,0732;0,0650587
3261,0376;0,065231
3262,0017;0,0653807
3262,9661;0,0655028
3263,9302;0,065604
3264,8945;0,0657017
3265,8586;0,0658144
3266,8230;0,0659522
3267,7871;0,0661103
3268,7515;0,0662713
3269,7156;0,0664136
3270,6799;0,0665216
3271,6440;0,0665923
3272,6084;0,0666353
3273,5725;0,066667
3274,5369;0,0667032
3275,5010;0,0667525
3276,4653;0,066815
3277,4294;0,0668848
3278,3938;0,0669542
3279,3579;0,0670182
3280,3223;0,0670759
3281,2864;0,0671297
3282,2507;0,0671838
3283,2148;0,067242
3284,1792;0,0673055
3285,1433;0,067373
3286,1077;0,0674398
3287,0718;0,0674997
3288,0361;0,0675466
3289,0002;0,0675779
3289,9646;0,0675953
3290,9287;0,0676049
3291,8931;0,0676137
3292,8572;0,0676254
3293,8215;0,0676385
3294,7856;0,0676477
3295,7500;0,0676483
3296,7141;0,0676403
3297,6785;0,0676292
3298,6426;0,0676237
3299,6069;0,0676306
3300,5710;0,0676517
3301,5354;0,0676834
3302,4995;0,0677184
3303,4639;0,0677493
3304,4280;0,0677699
3305,3923;0,0677765
3306,3564;0,0677676
3307,3208;0,0677454
3308,2849;0,0677155
3309,2493;0,0676868
3310,2134;0,0676694
3311,1777;0,0676712
3312,1418;0,0676955
3313,1062;0,0677401
3314,0703;0,0677989
3315,0347;0,0678652
3315,9988;0,0679345
3316,9631;0,0680062
3317,9272;0,0680826
3318,8916;0,0681657
3319,8557;0,0682547
3320,8201;0,0683444
3321,7842;0,0684272
3322,7485;0,0684973
3323,7126;0,0685534
3324,6770;0,0686007
3325,6411;0,0686479
3326,6055;0,0687033
3327,5696;0,0687708
3328,5339;0,0688481
3329,4980;0,0689276
3330,4624;0,0689988
3331,4265;0,0690513
3332,3909;0,069078
3333,3550;0,0690778
3334,3193;0,0690566
3335,2834;0,0690261
3336,2478;0,0689988
3337,2119;0,0689815
3338,1763;0,0689718
3339,1404;0,0689588
3340,1047;0,0689299
3341,0688;0,0688775
3342,0332;0,0688027
3342,9973;0,068714
3343,9617;0,0686209
3344,9258;0,0685289
3345,8901;0,0684376
3346,8542;0,0683432
3347,8186;0,0682427
3348,7827;0,0681364
3349,7471;0,0680265
3350,7112;0,0679139
3351,6755;0,0677976
3352,6396;0,0676746
3353,6040;0,0675437
3354,5681;0,0674075
3355,5325;0,0672722
3356,4966;0,0671445
3357,4609;0,0670282
3358,4250;0,0669227
3359,3894;0,0668236
3360,3535;0,0667259
3361,3179;0,0666263
3362,2820;0,0665244
3363,2463;0,0664221
3364,2104;0,0663213
3365,1748;0,0662216
3366,1389;0,0661197
3367,1033;0,0660099
3368,0674;0,0658871
3369,0317;0,0657494
3369,9958;0,0655995
3370,9602;0,0654439
3371,9243;0,06529
3372,8887;0,0651436
3373,8528;0,0650068
3374,8171;0,0648787
3375,7813;0,0647578
3376,7456;0,064643
3377,7097;0,0645343
3378,6741;0,0644304
3379,6382;0,0643269
3380,6025;0,064216
3381,5667;0,0640901
3382,5310;0,0639465
3383,4951;0,0637921
3384,4595;0,0636415
3385,4236;0,0635113
3386,3879;0,0634106
3387,3521;0,0633349
3388,3164;0,0632683
3389,2805;0,0631918
3390,2449;0,0630924
3391,2090;0,0629693
3392,1733;0,0628316
3393,1375;0,06269
3394,1018;0,0625496
3395,0659;0,0624076
3396,0303;0,0622588
3396,9944;0,0621022
3397,9587;0,0619439
3398,9229;0,0617934
3399,8872;0,0616568
3400,8513;0,0615318
3401,8157;0,0614103
3402,7798;0,0612842
3403,7441;0,0611515
3404,7083;0,0610169
3405,6726;0,060887
3406,6367;0,0607628
3407,6011;0,0606366
3408,5652;0,0604946
3409,5295;0,0603248
3410,4937;0,0601255
3411,4580;0,0599084
3412,4221;0,0596948
3413,3865;0,0595052
3414,3506;0,0593496
3415,3149;0,0592217
3416,2791;0,0591023
3417,2434;0,0589685
3418,2075;0,0588049
3419,1719;0,0586102
3420,1360;0,0583973
3421,1003;0,0581851
3422,0645;0,057989
3423,0288;0,0578138
3423,9929;0,0576548
3424,9573;0,0575025
3425,9214;0,0573489
3426,8857;0,0571892
3427,8499;0,0570221
3428,8142;0,0568471
3429,7783;0,0566629
3430,7427;0,0564677
3431,7068;0,0562613
3432,6711;0,0560465
3433,6353;0,0558296
3434,5996;0,0556177
3435,5637;0,0554158
3436,5281;0,0552242
3437,4922;0,0550403
3438,4565;0,0548618
3439,4207;0,0546894
3440,3850;0,054525
3441,3491;0,0543665
3442,3135;0,0542031
3443,2776;0,0540168
3444,2419;0,0537908
3445,2061;0,0535227
3446,1704;0,0532317
3447,1345;0,0529528
3448,0989;0,0527176
3449,0630;0,0525362
3450,0273;0,0523931
3450,9915;0,0522588
3451,9558;0,0521074
3452,9199;0,0519289
3453,8843;0,0517299
3454,8484;0,0515249
3455,8127;0,0513241
3456,7769;0,051127
3457,7412;0,0509245
3458,7053;0,0507083
3459,6697;0,0504782
3460,6338;0,0502437
3461,5981;0,0500187
3462,5623;0,0498125
3463,5266;0,0496248
3464,4907;0,0494462
3465,4551;0,0492647
3466,4192;0,0490731
3467,3835;0,0488717
3468,3477;0,0486662
3469,3120;0,0484604
3470,2761;0,048252
3471,2405;0,0480344
3472,2046;0,0478045
3473,1689;0,0475699
3474,1331;0,0473487
3475,0974;0,0471586
3476,0615;0,0470036
3477,0259;0,0468667
3477,9900;0,0467179
3478,9543;0,0465307
3479,9185;0,046299
3480,8828;0,0460424
3481,8469;0,0457937
3482,8113;0,0455772
3483,7754;0,0453935
3484,7397;0,0452219
3485,7039;0,0450371
3486,6682;0,0448264
3487,6323;0,0445967
3488,5967;0,0443691
3489,5608;0,044163
3490,5251;0,0439836
3491,4893;0,0438192
3492,4536;0,0436501
3493,4177;0,0434624
3494,3821;0,0432585
3495,3462;0,0430571
3496,3105;0,0428809
3497,2747;0,0427385
3498,2390;0,0426135
3499,2031;0,0424696
3500,1675;0,0422699
3501,1316;0,0420014
3502,0959;0,0416897
3503,0601;0,0413899
3504,0244;0,0411517
3504,9885;0,0409866
3505,9529;0,040864
3506,9170;0,0407339
3507,8813;0,0405576
3508,8455;0,0403279
3509,8098;0,0400704
3510,7739;0,0398234
3511,7383;0,0396134
3512,7024;0,0394425
3513,6667;0,0392967
3514,6309;0,0391607
3515,5952;0,0390281
3516,5593;0,0389005
3517,5237;0,0387797
3518,4878;0,0386611
3519,4521;0,0385329
3520,4163;0,0383826
3521,3806;0,0382031
3522,3447;0,0379963
3523,3091;0,0377691
3524,2732;0,0375279
3525,2375;0,0372755
3526,2017;0,0370145
3527,1660;0,0367536
3528,1301;0,0365091
3529,0945;0,0362981
3530,0586;0,0361269
3531,0229;0,0359861
3531,9871;0,0358539
3532,9514;0,035707
3533,9155;0,035531
3534,8799;0,0353269
3535,8440;0,0351115
3536,8083;0,0349108
3537,7725;0,0347484
3538,7368;0,034635
3539,7009;0,0345626
3540,6653;0,0345048
3541,6294;0,0344212
3542,5938;0,0342691
3543,5579;0,0340233
3544,5222;0,0336974
3545,4863;0,0333475
3546,4507;0,0330405
3547,4148;0,0328105
3548,3792;0,0326418
3549,3433;0,0324865
3550,3076;0,0322978
3551,2717;0,0320585
3552,2361;0,0317916
3553,2002;0,031545
3554,1646;0,0313568
3555,1287;0,0312306
3556,0930;0,031138
3557,0571;0,0310426
3558,0215;0,0309266
3558,9856;0,0308033
3559,9500;0,0307081
3560,9141;0,030669
3561,8784;0,0306753
3562,8425;0,0306659
3563,8069;0,0305425
3564,7710;0,0302113
3565,7354;0,029658
3566,6995;0,0290081
3567,6638;0,0284656
3568,6279;0,0281537
3569,5923;0,0280486
3570,5564;0,0280486
3571,5208;0,0280551
3572,4849;0,0280072
3573,4492;0,0278864
3574,4133;0,027707
3575,3777;0,0274966
3576,3418;0,0272752
3577,3062;0,0270507
3578,2703;0,0268321
3579,2346;0,0266439
3580,1987;0,0265222
3581,1631;0,0264909
3582,1272;0,0265343
3583,0916;0,0265873
3584,0557;0,0265476
3585,0200;0,0263138
3585,9841;0,0258562
3586,9485;0,0252827
3587,9126;0,0247943
3588,8770;0,0245265
3589,8411;0,0244616
3590,8054;0,0244869
3591,7695;0,0244837
3592,7339;0,0243789
3593,6980;0,0241686
3594,6624;0,0239104
3595,6265;0,0236752
3596,5908;0,0234884
3597,5549;0,0233188
3598,5193;0,0231206
3599,4834;0,0228851
3600,4478;0,0226582
3601,4119;0,0225056
3602,3762;0,022459
3603,3403;0,0224912
3604,3047;0,0225337
3605,2688;0,0225148
3606,2332;0,0223962
3607,1973;0,0221941
3608,1616;0,0219662
3609,1257;0,0217644
3610,0901;0,0215999
3611,0542;0,021454
3612,0186;0,0213136
3612,9827;0,0211874
3613,9470;0,02109
3614,9111;0,0210109
3615,8755;0,0208992
3616,8396;0,0206818
3617,8040;0,0203152
3618,7681;0,0198452
3619,7324;0,0194109
3620,6965;0,019157
3621,6609;0,019139
3622,6250;0,0193155
3623,5894;0,0195942
3624,5535;0,0198587
3625,5178;0,0199695
3626,4819;0,0197794
3627,4463;0,0192243
3628,4104;0,0184581
3629,3748;0,0178016
3630,3389;0,0174546
3631,3032;0,0173757
3632,2673;0,0174216
3633,2317;0,0174767
3634,1958;0,0174869
3635,1602;0,0174501
3636,1243;0,0173909
3637,0886;0,0173324
3638,0527;0,0172813
3639,0171;0,0172348
3639,9812;0,0171995
3640,9456;0,0172025
3641,9097;0,0172818
3642,8740;0,0174602
3643,8381;0,0177202
3644,8025;0,0179848
3645,7666;0,0181053
3646,7310;0,0178799
3647,6951;0,0171846
3648,6594;0,0162153
3649,6235;0,0154441
3650,5879;0,0151411
3651,5520;0,0152036
3652,5164;0,0154071
3653,4805;0,0155742
3654,4448;0,0156037
3655,4089;0,0154767
3656,3733;0,0152604
3657,3374;0,0150611
3658,3018;0,0149432
3659,2659;0,0148961
3660,2302;0,0148738
3661,1943;0,0148501
3662,1587;0,0148433
3663,1228;0,0148983
3664,0872;0,0150422
3665,0513;0,0152467
3666,0156;0,0154264
3666,9797;0,0154708
3667,9441;0,0153141
3668,9082;0,0150179
3669,8726;0,0147641
3670,8367;0,0146974
3671,8010;0,0147935
3672,7651;0,0148943
3673,7295;0,0148187
3674,6936;0,0144815
3675,6580;0,0139865
3676,6221;0,0135566
3677,5864;0,0133271
3678,5505;0,0132773
3679,5149;0,0133288
3680,4790;0,0134291
3681,4434;0,0135687
3682,4075;0,0137614
3683,3718;0,0140129
3684,3359;0,014295
3685,3003;0,0145331
3686,2644;0,014613
3687,2288;0,0144206
3688,1929;0,0139381
3689,1572;0,0133302
3690,1213;0,0128551
3691,0857;0,0126466
3692,0498;0,0126619
3693,0142;0,0127937
3693,9783;0,0129598
3694,9426;0,0131215
3695,9067;0,0132693
3696,8711;0,0134
3697,8352;0,0134977
3698,7996;0,0135279
3699,7637;0,0134547
3700,7280;0,0132767
3701,6921;0,0130547
3702,6565;0,0128914
3703,6206;0,0128704
3704,5850;0,0130115
3705,5491;0,0132725
3706,5134;0,0135691
3707,4775;0,0137898
3708,4419;0,013815
3709,4060;0,013575
3710,3704;0,0131393
3711,3345;0,0127226
3712,2988;0,0125198
3713,2629;0,0125624
3714,2273;0,0127621
3715,1914;0,0130125
3716,1558;0,0132344
3717,1199;0,013381
3718,0842;0,0134364
3719,0483;0,0134151
3720,0127;0,0133502
3720,9768;0,0132697
3721,9412;0,0131775
3722,9053;0,0130602
3723,8696;0,0129167
3724,8337;0,0127816
3725,7981;0,0127152
3726,7622;0,012766
3727,7266;0,0129437
3728,6907;0,0132204
3729,6550;0,0135439
3730,6191;0,0138438
3731,5835;0,0140302
3732,5476;0,0140028
3733,5120;0,0137017
3734,4761;0,0131971
3735,4404;0,0127079
3736,4045;0,0124558
3737,3689;0,0125175
3738,3330;0,0128372
3739,2974;0,0133062
3740,2615;0,0138008
3741,2258;0,014184
3742,1899;0,0143235
3743,1543;0,0141723
3744,1184;0,0138665
3745,0828;0,0136551
3746,0469;0,0136679
3747,0112;0,0138231
3747,9753;0,0139219
3748,9397;0,0137703
3749,9038;0,0133166
3750,8682;0,0127643
3751,8323;0,0124314
3752,7966;0,0124457
3753,7607;0,0127034
3754,7251;0,0130306
3755,6892;0,0132803
3756,6536;0,0133595
3757,6177;0,0132559
3758,5820;0,0130551
3759,5461;0,0128917
3760,5105;0,0128549
3761,4746;0,0129434
3762,4390;0,0130985
3763,4031;0,0132531
3764,3674;0,0133609
3765,3315;0,0134023
3766,2959;0,013375
3767,2600;0,0132815
3768,2244;0,0131276
3769,1885;0,0129381
3770,1528;0,0127684
3771,1169;0,0126864
3772,0813;0,0127326
3773,0454;0,0128962
3774,0098;0,0131215
3774,9739;0,0133299
3775,9382;0,013445
3776,9023;0,0134234
3777,8667;0,0132856
3778,8308;0,0131136
3779,7952;0,0129971
3780,7593;0,0129703
3781,7236;0,0130044
3782,6877;0,0130463
3783,6521;0,0130566
3784,6162;0,0130266
3785,5806;0,0129743
3786,5447;0,0129282
3787,5090;0,0129124
3788,4731;0,0129407
3789,4375;0,0130165
3790,4016;0,0131323
3791,3660;0,0132687
3792,3301;0,013399
3793,2944;0,0135011
3794,2585;0,0135716
3795,2229;0,0136293
3796,1870;0,0136947
3797,1514;0,0137601
3798,1155;0,0137765
3799,0798;0,013682
3800,0439;0,0134644
3801,0083;0,0132056
3801,9724;0,0130311
3802,9368;0,0129956
3803,9009;0,0130391
3804,8652;0,0130483
3805,8293;0,0129459
3806,7937;0,0127573
3807,7578;0,0126061
3808,7222;0,0126189
3809,6863;0,0128301
3810,6506;0,0131784
3811,6147;0,0135561
3812,5791;0,0138511
3813,5432;0,0139833
3814,5076;0,01395
3815,4717;0,0138368
3816,4360;0,0137439
3817,4001;0,0136896
3818,3645;0,0136035
3819,3286;0,0134099
3820,2930;0,0131203
3821,2571;0,012847
3822,2214;0,0127057
3823,1855;0,012721
3824,1499;0,0128396
3825,1140;0,0129931
3826,0784;0,0131366
3827,0425;0,0132546
3828,0068;0,0133533
3828,9709;0,0134458
3829,9353;0,0135413
3830,8994;0,0136436
3831,8638;0,0137529
3832,8279;0,0138643
3833,7922;0,0139599
3834,7563;0,0140048
3835,7207;0,0139564
3836,6848;0,0137937
3837,6492;0,0135478
3838,6133;0,0132945
3839,5776;0,0131012
3840,5417;0,0129829
3841,5061;0,0129155
3842,4702;0,0128759
3843,4346;0,0128696
3844,3987;0,0129294
3845,3630;0,0130955
3846,3271;0,0133926
3847,2915;0,0138159
3848,2556;0,0143244
3849,2200;0,0148272
3850,1841;0,0151614
3851,1484;0,0150984
3852,1125;0,0144882
3853,0769;0,0135386
3854,0410;0,0127587
3855,0054;0,0124351
3855,9695;0,012496
3856,9338;0,0127761
3857,8979;0,0131517
3858,8623;0,013532
3859,8264;0,0138352
3860,7908;0,0139912
3861,7549;0,0139764
3862,7192;0,0138483
3863,6833;0,013726
3864,6477;0,0137072
3865,6118;0,0138031
3866,5762;0,0139465
3867,5403;0,0140395
3868,5046;0,0140021
3869,4688;0,0138116
3870,4331;0,0135212
3871,3972;0,0132353
3872,3616;0,0130517
3873,3257;0,0130172
3874,2900;0,0131234
3875,2542;0,0133238
3876,2185;0,013553
3877,1826;0,0137425
3878,1470;0,013842
3879,1111;0,0138421
3880,0754;0,0137804
3881,0396;0,0137109
3882,0039;0,0136559
3882,9680;0,0135947
3883,9324;0,013503
3884,8965;0,0133973
3885,8608;0,0133337
3886,8250;0,0133558
3887,7893;0,0134473
3888,7534;0,0135337
3889,7178;0,0135289
3890,6819;0,0134026
3891,6462;0,0132255
3892,6104;0,0131297
3893,5747;0,0132053
3894,5388;0,0134454
3895,5032;0,0137764
3896,4673;0,0141061
3897,4316;0,0143552
3898,3958;0,014476
3899,3601;0,0144591
3900,3242;0,0143174
3901,2886;0,0140649
3902,2527;0,0137235
3903,2170;0,0133499
3904,1812;0,0130324
3905,1455;0,0128429
3906,1096;0,0127958
3907,0740;0,0128548
3908,0381;0,012966
3909,0024;0,0130875
3909,9666;0,0132017
3910,9309;0,013313
3911,8950;0,0134336
3912,8594;0,0135633
3913,8235;0,0136792
3914,7878;0,0137429
3915,7520;0,0137254
3916,7163;0,0136353
3917,6804;0,0135237
3918,6448;0,0134519
3919,6089;0,0134485
3920,5732;0,0134955
3921,5374;0,0135458
3922,5017;0,0135559
3923,4658;0,0135141
3924,4302;0,0134508
3925,3943;0,0134169
3926,3586;0,0134454
3927,3228;0,013528
3928,2871;0,0136203
3929,2512;0,0136654
3930,2156;0,0136243
3931,1797;0,0135006
3932,1440;0,0133423
3933,1082;0,0132116
3934,0725;0,0131514
3935,0366;0,0131735
3936,0010;0,0132656
3936,9651;0,0134018
3937,9294;0,0135483
3938,8936;0,0136681
3939,8579;0,0137304
3940,8220;0,0137257
3941,7864;0,0136755
3942,7505;0,0136236
3943,7148;0,0136079
3944,6790;0,0136346
3945,6433;0,0136741
3946,6074;0,0136809
3947,5718;0,0136228
3948,5359;0,013504
3949,5002;0,013366
3950,4644;0,0132605
3951,4287;0,0132172
3952,3928;0,013232
3953,3572;0,0132783
3954,3213;0,0133286
3955,2856;0,013369
3956,2498;0,0133999
3957,2141;0,0134274
3958,1782;0,0134521
3959,1426;0,0134668
3960,1067;0,0134619
3961,0710;0,013436
3962,0352;0,0133994
3962,9995;0,0133695
3963,9636;0,0133601
3964,9280;0,0133742
3965,8921;0,013404
3966,8564;0,0134369
3967,8206;0,0134631
3968,7849;0,013479
3969,7490;0,0134859
3970,7134;0,013486
3971,6775;0,0134793
3972,6418;0,0134645
3973,6060;0,0134418
3974,5703;0,013415
3975,5344;0,0133905
3976,4988;0,0133739
3977,4629;0,0133667
3978,4272;0,0133671
3979,3914;0,0133718
3980,3557;0,0133798
3981,3198;0,0133926
3982,2842;0,0134121
3983,2483;0,0134374
3984,2126;0,0134632
3985,1768;0,0134811
3986,1411;0,0134848
3987,1052;0,0134739
3988,0696;0,0134555
3989,0337;0,0134408
3989,9980;0,0134387
3990,9622;0,01345
3991,9265;0,0134672
3992,8906;0,013479
3993,8550;0,013478
3994,8191;0,0134654
3995,7834;0,0134492
3996,7476;0,0134379
3997,7119;0,0134343
3998,6760;0,0134342
3999,6404;0,0134314
4000,6045;0,0133387

##### Extended Information
[Comments]
Sample name
Comment
Username
Division
Organization;UNIVERSIDAD INDUSTRIAL DE SANTANDER

[Detailed Information]
Creation date;28/02/2025 5:07 p.m.

Data array type;Linear data array
Horizontal axis;Wavenumber [cm-1]
Vertical axis;Abs
Start;399,193 cm-1
End;4000,6 cm-1
Data interval;0,964233 cm-1
Data points;3736    

[Measurement Information]
Model name;FT/IR-4X1typeA
Serial No.;A035162111

Accessory;ATR PRO 4X
Accessory S/N;A021162126
Incident angle;45 deg

Measurement date;28/02/2025 5:07 p.m.

Light source;Standard
Detector;TGS
Accumulation;40
Resolution;4 cm-1
Zero filling;On
Apodization;Cosine
Gain;Auto (8)
Aperture;Auto (7 mm)
Scan speed;Auto (2 mm/sec)
Filter;Auto (12800 Hz)

