TITLE;
DATA TYPE;INFRARED SPECTRUM
ORIGIN;JASCO
OWNER;
DATE;25/02/28
TIME;17:27:07
SPECTROMETER/DATA SYSTEM;
LOCALE;9226
RESOLUTION;
DELTAX;0,964233
XUNITS;1/CM
YUNITS;ABSORBANCE
FIRSTX;  399,1927
LASTX; 4000,6047
NPOINTS;    3736
FIRSTY;     0,15891
MAXY;     0,24988
MINY;     0,01092
XYDATA
399,1927;0,158909
400,1569;0,161206
401,1211;0,162153
402,0854;0,162473
403,0496;0,162839
404,0138;0,163672
404,9781;0,16508
405,9423;0,166852
406,9065;0,168568
407,8708;0,169811
408,8350;0,170392
409,7992;0,170429
410,7635;0,170277
411,7277;0,170329
412,6919;0,170781
413,6562;0,171538
414,6204;0,172324
415,5846;0,172877
416,5489;0,173144
417,5131;0,17344
418,4773;0,174405
419,4416;0,176447
420,4058;0,179182
421,3700;0,181829
422,3343;0,183901
423,2985;0,185319
424,2627;0,186221
425,2270;0,186805
426,1912;0,187235
427,1554;0,187605
428,1197;0,187946
429,0839;0,188266
430,0481;0,188583
431,0124;0,188918
431,9766;0,189273
432,9408;0,189614
433,9051;0,189879
434,8693;0,190006
435,8335;0,189962
436,7978;0,189744
437,7620;0,189385
438,7262;0,188944
439,6905;0,18852
440,6547;0,18824
441,6189;0,188221
442,5832;0,188499
443,5474;0,18897
444,5116;0,189435
445,4759;0,189727
446,4401;0,189822
447,4043;0,189831
448,3686;0,189895
449,3328;0,190062
450,2970;0,190232
451,2613;0,1902
452,2255;0,189787
453,1897;0,188971
454,1540;0,187929
455,1182;0,18697
456,0824;0,186406
457,0467;0,186392
458,0109;0,18682
458,9751;0,187383
459,9394;0,18782
460,9036;0,188102
461,8678;0,188381
462,8321;0,188818
463,7963;0,18943
464,7605;0,190036
465,7248;0,190334
466,6890;0,190086
467,6532;0,189266
468,6175;0,188076
469,5817;0,186832
470,5459;0,185823
471,5102;0,185197
472,4744;0,184932
473,4386;0,18489
474,4029;0,184939
475,3671;0,185027
476,3313;0,185157
477,2956;0,185325
478,2598;0,185475
479,2240;0,185522
480,1883;0,185392
481,1525;0,185077
482,1167;0,184647
483,0810;0,184228
484,0452;0,183947
485,0094;0,183882
485,9737;0,184049
486,9379;0,184413
487,9021;0,184928
488,8664;0,185543
489,8306;0,1862
490,7948;0,186822
491,7591;0,187328
492,7233;0,187659
493,6875;0,187819
494,6518;0,187865
495,6160;0,187884
496,5802;0,187947
497,5445;0,188087
498,5087;0,188294
499,4729;0,188532
500,4372;0,188765
501,4014;0,18898
502,3656;0,189194
503,3299;0,189443
504,2941;0,189748
505,2583;0,190094
506,2226;0,190433
507,1868;0,190707
508,1510;0,190882
509,1153;0,190973
510,0795;0,19104
511,0437;0,191171
512,0080;0,191443
512,9722;0,191902
513,9365;0,19255
514,9007;0,193343
515,8649;0,194182
516,8292;0,194945
517,7934;0,195523
518,7576;0,195885
519,7219;0,196087
520,6861;0,196231
521,6503;0,196387
522,6146;0,196558
523,5788;0,196696
524,5430;0,196742
525,5073;0,196678
526,4715;0,196552
527,4357;0,196442
528,4000;0,19639
529,3642;0,196371
530,3284;0,196309
531,2927;0,196126
532,2569;0,195791
533,2211;0,195336
534,1854;0,194834
535,1496;0,194359
536,1138;0,193944
537,0781;0,193576
538,0423;0,193222
539,0065;0,192863
539,9708;0,19251
540,9350;0,192202
541,8992;0,191985
542,8635;0,191888
543,8277;0,191922
544,7919;0,19208
545,7562;0,192341
546,7204;0,192676
547,6846;0,193049
548,6489;0,193416
549,6131;0,193743
550,5773;0,194029
551,5416;0,194309
552,5058;0,194641
553,4700;0,19507
554,4343;0,195589
555,3985;0,196118
556,3627;0,196526
557,3270;0,196676
558,2912;0,196473
559,2554;0,195894
560,2197;0,194989
561,1839;0,193867
562,1481;0,19267
563,1124;0,191544
564,0766;0,190602
565,0408;0,1899
566,0051;0,189424
566,9693;0,189101
567,9335;0,188835
568,8978;0,188545
569,8620;0,188192
570,8262;0,187785
571,7905;0,187363
572,7547;0,18696
573,7189;0,186598
574,6832;0,186278
575,6474;0,185985
576,6116;0,185697
577,5759;0,185401
578,5401;0,185094
579,5043;0,184786
580,4686;0,184486
581,4328;0,184195
582,3970;0,183897
583,3613;0,183575
584,3255;0,183228
585,2897;0,182888
586,2540;0,182615
587,2182;0,182469
588,1824;0,182481
589,1467;0,182626
590,1109;0,182827
591,0751;0,182982
592,0394;0,183009
593,0036;0,182875
593,9678;0,182603
594,9321;0,182246
595,8963;0,18186
596,8605;0,181479
597,8248;0,181122
598,7890;0,180797
599,7532;0,180501
600,7175;0,180226
601,6817;0,179957
602,6459;0,179673
603,6102;0,17936
604,5744;0,179004
605,5386;0,178597
606,5029;0,178123
607,4671;0,177565
608,4313;0,176912
609,3956;0,176173
610,3598;0,175384
611,3240;0,174598
612,2883;0,17386
613,2525;0,173187
614,2167;0,172556
615,1810;0,171913
616,1452;0,171197
617,1094;0,170368
618,0737;0,169417
619,0379;0,168371
620,0021;0,167267
620,9664;0,166137
621,9306;0,164995
622,8948;0,16385
623,8591;0,162716
624,8233;0,16162
625,7875;0,160599
626,7518;0,159689
627,7160;0,15891
628,6802;0,158256
629,6445;0,157698
630,6087;0,15719
631,5729;0,156687
632,5372;0,156157
633,5014;0,155589
634,4656;0,154994
635,4299;0,15439
636,3941;0,153795
637,3583;0,153219
638,3226;0,152669
639,2868;0,152147
640,2510;0,151658
641,2153;0,151195
642,1795;0,15074
643,1437;0,15026
644,1080;0,149727
645,0722;0,149133
646,0364;0,148501
647,0007;0,147881
647,9649;0,147328
648,9291;0,146883
649,8934;0,146552
650,8576;0,146318
651,8218;0,146158
652,7861;0,146063
653,7503;0,146047
654,7145;0,146122
655,6788;0,146284
656,6430;0,146497
657,6072;0,146706
658,5715;0,14686
659,5357;0,146937
660,4999;0,146956
661,4642;0,146956
662,4284;0,146971
663,3926;0,147002
664,3569;0,147002
665,3211;0,146873
666,2853;0,146451
667,2496;0,145556
668,2138;0,144201
669,1780;0,142771
670,1423;0,141626
671,1065;0,140714
672,0707;0,139779
673,0350;0,13862
673,9992;0,137161
674,9634;0,135459
675,9277;0,133675
676,8919;0,131994
677,8561;0,130513
678,8204;0,129222
679,7846;0,128066
680,7488;0,127008
681,7131;0,126053
682,6773;0,125215
683,6415;0,124493
684,6058;0,123864
685,5700;0,123297
686,5342;0,122775
687,4985;0,12229
688,4627;0,121849
689,4269;0,12146
690,3912;0,121133
691,3554;0,120867
692,3196;0,120644
693,2839;0,120433
694,2481;0,120199
695,2123;0,119917
696,1766;0,119583
697,1408;0,119212
698,1050;0,118824
699,0693;0,118436
700,0335;0,118053
700,9977;0,117677
701,9620;0,117309
702,9262;0,116954
703,8904;0,116615
704,8547;0,116286
705,8189;0,115953
706,7831;0,115597
707,7474;0,115196
708,7116;0,114741
709,6758;0,11423
710,6401;0,113666
711,6043;0,11306
712,5685;0,112424
713,5328;0,111777
714,4970;0,11114
715,4612;0,110539
716,4255;0,109966
717,3897;0,109414
718,3539;0,108846
719,3182;0,108214
720,2824;0,107487
721,2466;0,10666
722,2109;0,105766
723,1751;0,104852
724,1393;0,103959
725,1036;0,10311
726,0678;0,102308
727,0320;0,101544
727,9963;0,100804
728,9605;0,100071
729,9247;0,0993389
730,8890;0,0986089
731,8532;0,0978901
732,8174;0,097196
733,7817;0,0965405
734,7459;0,0959372
735,7101;0,0953986
736,6744;0,0949341
737,6386;0,0945433
738,6028;0,0942088
739,5671;0,0938962
740,5313;0,0935645
741,4955;0,0931846
742,4598;0,0927539
743,4240;0,0922962
744,3882;0,0918461
745,3525;0,0914278
746,3167;0,0910419
747,2809;0,0906684
748,2452;0,0902819
749,2094;0,0898672
750,1736;0,0894266
751,1379;0,0889755
752,1021;0,0885325
753,0663;0,0881108
754,0306;0,0877155
754,9948;0,0873451
755,9590;0,086995
756,9233;0,0866582
757,8875;0,0863265
758,8517;0,0859914
759,8160;0,0856465
760,7802;0,0852899
761,7444;0,0849243
762,7087;0,0845545
763,6729;0,0841833
764,6371;0,0838095
765,6014;0,0834303
766,5656;0,0830454
767,5298;0,0826605
768,4941;0,082286
769,4583;0,0819313
770,4225;0,0815995
771,3868;0,0812858
772,3510;0,0809817
773,3152;0,0806807
774,2795;0,0803823
775,2437;0,0800903
776,2079;0,0798074
777,1722;0,0795316
778,1364;0,0792553
779,1006;0,0789688
780,0649;0,0786629
781,0291;0,0783303
781,9933;0,0779663
782,9576;0,0775702
783,9218;0,0771484
784,8860;0,0767162
785,8503;0,0762962
786,8145;0,0759113
787,7787;0,0755755
788,7430;0,0752903
789,7072;0,0750463
790,6714;0,0748299
791,6357;0,0746297
792,5999;0,0744384
793,5641;0,0742519
794,5284;0,0740674
795,4926;0,073884
796,4568;0,0737035
797,4211;0,0735298
798,3853;0,0733642
799,3495;0,0732004
800,3138;0,0730248
801,2780;0,0728241
802,2422;0,0725959
803,2065;0,0723544
804,1707;0,0721253
805,1349;0,0719313
806,0992;0,071779
807,0634;0,071656
808,0276;0,0715405
808,9919;0,071417
809,9561;0,0712852
810,9203;0,0711561
811,8846;0,07104
812,8488;0,0709351
813,8130;0,0708271
814,7773;0,0706992
815,7415;0,0705457
816,7057;0,0703782
817,6700;0,0702202
818,6342;0,0700941
819,5984;0,0700097
820,5627;0,0699608
821,5269;0,0699311
822,4911;0,0699048
823,4554;0,0698749
824,4196;0,0698453
825,3839;0,0698271
826,3481;0,0698309
827,3123;0,0698594
828,2766;0,069904
829,2408;0,0699465
830,2050;0,0699654
831,1693;0,0699436
832,1335;0,0698736
833,0977;0,0697566
834,0620;0,0695979
835,0262;0,069402
835,9904;0,0691726
836,9547;0,0689161
837,9189;0,0686472
838,8831;0,0683878
839,8474;0,0681618
840,8116;0,0679853
841,7758;0,0678609
842,7401;0,0677778
843,7043;0,0677183
844,6685;0,067665
845,6328;0,0676065
846,5970;0,0675407
847,5612;0,0674736
848,5255;0,0674177
849,4897;0,0673865
850,4539;0,0673877
851,4182;0,0674174
852,3824;0,0674603
853,3466;0,067496
854,3109;0,0675083
855,2751;0,0674922
856,2393;0,0674542
857,2036;0,0674065
858,1678;0,0673623
859,1320;0,0673326
860,0963;0,0673272
861,0605;0,0673541
862,0247;0,0674154
862,9890;0,0675038
863,9532;0,0676025
864,9174;0,0676929
865,8817;0,0677646
866,8459;0,0678218
867,8101;0,0678798
868,7744;0,0679556
869,7386;0,0680576
870,7028;0,0681829
871,6671;0,0683206
872,6313;0,068458
873,5955;0,0685839
874,5598;0,0686884
875,5240;0,0687622
876,4882;0,0687996
877,4525;0,0688032
878,4167;0,0687888
879,3809;0,0687854
880,3452;0,0688286
881,3094;0,0689518
882,2736;0,0691778
883,2379;0,0695152
884,2021;0,0699606
885,1663;0,070504
886,1306;0,0711349
887,0948;0,071846
888,0590;0,072632
889,0233;0,0734849
889,9875;0,0743885
890,9517;0,0753164
891,9160;0,0762343
892,8802;0,0771055
893,8444;0,0778952
894,8087;0,0785729
895,7729;0,0791115
896,7371;0,0794884
897,7014;0,0796897
898,6656;0,0797155
899,6298;0,0795819
900,5941;0,0793172
901,5583;0,0789532
902,5225;0,0785185
903,4868;0,0780368
904,4510;0,0775305
905,4152;0,077026
906,3795;0,076555
907,3437;0,076149
908,3079;0,0758329
909,2722;0,075619
910,2364;0,0755063
911,2007;0,0754841
912,1649;0,0755374
913,1292;0,0756513
914,0934;0,0758141
915,0576;0,0760188
916,0219;0,076262
916,9861;0,0765418
917,9503;0,0768547
918,9146;0,0771932
919,8788;0,0775456
920,8430;0,0778991
921,8073;0,0782425
922,7715;0,0785687
923,7357;0,078874
924,7000;0,0791575
925,6642;0,0794199
926,6284;0,079664
927,5927;0,0798946
928,5569;0,0801171
929,5211;0,0803347
930,4854;0,0805459
931,4496;0,0807452
932,4138;0,0809273
933,3781;0,0810927
934,3423;0,0812526
935,3065;0,0814271
936,2708;0,0816387
937,2350;0,0819043
938,1992;0,0822302
939,1635;0,0826142
940,1277;0,0830526
941,0919;0,0835478
942,0562;0,0841104
943,0204;0,0847546
943,9846;0,08549
944,9489;0,0863171
945,9131;0,0872283
946,8773;0,088215
947,8416;0,089275
948,8058;0,0904146
949,7700;0,091644
950,7343;0,0929705
951,6985;0,0943941
952,6627;0,0959089
953,6270;0,0975075
954,5912;0,0991866
955,5554;0,100946
956,5197;0,102786
957,4839;0,104699
958,4481;0,106669
959,4124;0,108672
960,3766;0,110689
961,3408;0,112707
962,3051;0,114727
963,2693;0,11676
964,2335;0,118823
965,1978;0,12093
966,1620;0,123089
967,1262;0,125307
968,0905;0,127595
969,0547;0,129967
970,0189;0,132445
970,9832;0,135046
971,9474;0,137788
972,9116;0,140683
973,8759;0,143751
974,8401;0,147015
975,8043;0,150501
976,7686;0,154227
977,7328;0,15818
978,6970;0,162312
979,6613;0,166532
980,6255;0,170724
981,5897;0,174762
982,5540;0,178538
983,5182;0,18197
984,4824;0,185012
985,4467;0,187656
986,4109;0,189919
987,3751;0,191844
988,3394;0,193486
989,3036;0,194906
990,2678;0,196159
991,2321;0,197288
992,1963;0,198318
993,1605;0,199259
994,1248;0,200114
995,0890;0,200889
996,0532;0,201598
997,0175;0,202262
997,9817;0,20291
998,9459;0,203567
999,9102;0,204254
1000,8744;0,204987
1001,8386;0,205783
1002,8029;0,206666
1003,7671;0,207667
1004,7313;0,20882
1005,6956;0,210159
1006,6598;0,21171
1007,6240;0,213489
1008,5883;0,215502
1009,5525;0,217742
1010,5167;0,220185
1011,4810;0,222787
1012,4452;0,225483
1013,4094;0,228193
1014,3737;0,23083
1015,3379;0,233308
1016,3021;0,235562
1017,2664;0,23755
1018,2306;0,239259
1019,1948;0,24071
1020,1591;0,241945
1021,1233;0,243024
1022,0875;0,244005
1023,0518;0,244937
1024,0160;0,245845
1024,9802;0,246734
1025,9445;0,247587
1026,9087;0,248372
1027,8729;0,24905
1028,8372;0,249569
1029,8014;0,249869
1030,7656;0,249881
1031,7299;0,249533
1032,6941;0,248762
1033,6583;0,247538
1034,6226;0,245878
1035,5868;0,24386
1036,5510;0,24162
1037,5153;0,239326
1038,4795;0,237148
1039,4437;0,235223
1040,4080;0,23363
1041,3722;0,232383
1042,3364;0,231443
1043,3007;0,230729
1044,2649;0,230145
1045,2291;0,229593
1046,1934;0,228989
1047,1576;0,228269
1048,1218;0,227396
1049,0861;0,226349
1050,0503;0,225118
1051,0145;0,22369
1051,9788;0,222055
1052,9430;0,220207
1053,9072;0,218154
1054,8715;0,215914
1055,8357;0,213505
1056,7999;0,210926
1057,7642;0,208148
1058,7284;0,205128
1059,6926;0,201832
1060,6569;0,198268
1061,6211;0,194502
1062,5853;0,190656
1063,5496;0,186878
1064,5138;0,183304
1065,4780;0,18003
1066,4423;0,177097
1067,4065;0,174494
1068,3707;0,172179
1069,3350;0,170097
1070,2992;0,168195
1071,2634;0,166429
1072,2277;0,164754
1073,1919;0,163124
1074,1561;0,161478
1075,1204;0,159756
1076,0846;0,157912
1077,0488;0,155932
1078,0131;0,153847
1078,9773;0,151727
1079,9415;0,149657
1080,9058;0,147717
1081,8700;0,145952
1082,8342;0,144377
1083,7985;0,142975
1084,7627;0,141725
1085,7269;0,140606
1086,6912;0,139608
1087,6554;0,13873
1088,6196;0,137972
1089,5839;0,137333
1090,5481;0,136815
1091,5123;0,136419
1092,4766;0,136152
1093,4408;0,136013
1094,4050;0,135994
1095,3693;0,136079
1096,3335;0,136241
1097,2977;0,136461
1098,2620;0,136723
1099,2262;0,137018
1100,1904;0,137331
1101,1547;0,137637
1102,1189;0,137895
1103,0831;0,138056
1104,0474;0,13808
1105,0116;0,137952
1105,9758;0,137679
1106,9401;0,137284
1107,9043;0,13679
1108,8685;0,136197
1109,8328;0,135477
1110,7970;0,134589
1111,7612;0,133493
1112,7255;0,132181
1113,6897;0,13069
1114,6539;0,129094
1115,6182;0,127491
1116,5824;0,12597
1117,5466;0,124588
1118,5109;0,123358
1119,4751;0,122252
1120,4393;0,121207
1121,4036;0,120147
1122,3678;0,118988
1123,3320;0,117659
1124,2963;0,116109
1125,2605;0,114321
1126,2247;0,112311
1127,1890;0,110132
1128,1532;0,107851
1129,1174;0,105539
1130,0817;0,103249
1131,0459;0,101014
1132,0101;0,0988518
1132,9744;0,0967765
1133,9386;0,0948124
1134,9028;0,0929981
1135,8671;0,0913814
1136,8313;0,0900069
1137,7955;0,0889043
1138,7598;0,0880817
1139,7240;0,0875259
1140,6882;0,0872087
1141,6525;0,0870953
1142,6167;0,0871502
1143,5809;0,0873415
1144,5452;0,0876413
1145,5094;0,0880248
1146,4736;0,0884699
1147,4379;0,088958
1148,4021;0,0894753
1149,3663;0,0900144
1150,3306;0,0905726
1151,2948;0,0911467
1152,2590;0,0917267
1153,2233;0,0922905
1154,1875;0,0928026
1155,1517;0,0932174
1156,1160;0,0934834
1157,0802;0,0935465
1158,0444;0,0933504
1159,0087;0,0928365
1159,9729;0,0919484
1160,9371;0,0906411
1161,9014;0,0888951
1162,8656;0,0867279
1163,8298;0,0841976
1164,7941;0,0813959
1165,7583;0,0784334
1166,7225;0,0754228
1167,6868;0,0724658
1168,6510;0,0696445
1169,6152;0,0670187
1170,5795;0,0646266
1171,5437;0,0624861
1172,5079;0,0605983
1173,4722;0,0589497
1174,4364;0,0575159
1175,4006;0,0562665
1176,3649;0,0551718
1177,3291;0,0542091
1178,2933;0,053367
1179,2576;0,0526436
1180,2218;0,0520407
1181,1860;0,051556
1182,1503;0,0511787
1183,1145;0,0508913
1184,0787;0,0506764
1185,0430;0,0505232
1186,0072;0,0504312
1186,9714;0,050408
1187,9357;0,0504641
1188,8999;0,0506085
1189,8641;0,0508461
1190,8284;0,0511785
1191,7926;0,0516043
1192,7568;0,0521199
1193,7211;0,0527175
1194,6853;0,0533844
1195,6495;0,054103
1196,6138;0,0548537
1197,5780;0,0556187
1198,5422;0,0563865
1199,5065;0,0571484
1200,4707;0,0579178
1201,4349;0,058692
1202,3992;0,059469
1203,3634;0,0602393
1204,3276;0,0609879
1205,2919;0,0617009
1206,2561;0,0623739
1207,2203;0,0630165
1208,1846;0,0636524
1209,1488;0,064314
1210,1130;0,0650338
1211,0773;0,0658369
1212,0415;0,0667355
1213,0057;0,0677268
1213,9700;0,0687955
1214,9342;0,0699178
1215,8984;0,0710674
1216,8627;0,0722196
1217,8269;0,0733545
1218,7911;0,0744582
1219,7554;0,0755226
1220,7196;0,0765443
1221,6838;0,0775239
1222,6481;0,0784652
1223,6123;0,0793727
1224,5765;0,0802502
1225,5408;0,0810982
1226,5050;0,0819129
1227,4692;0,0826872
1228,4335;0,0834135
1229,3977;0,0840857
1230,3619;0,0846993
1231,3262;0,0852512
1232,2904;0,0857377
1233,2546;0,0861549
1234,2189;0,0865015
1235,1831;0,086781
1236,1473;0,0870024
1237,1116;0,0871777
1238,0758;0,0873164
1239,0400;0,0874204
1240,0043;0,0874827
1240,9685;0,0874901
1241,9327;0,0874297
1242,8970;0,0872931
1243,8612;0,0870793
1244,8254;0,0867935
1245,7897;0,0864437
1246,7539;0,0860385
1247,7181;0,0855856
1248,6824;0,0850918
1249,6466;0,084563
1250,6108;0,0840054
1251,5751;0,0834255
1252,5393;0,0828313
1253,5035;0,0822308
1254,4678;0,0816302
1255,4320;0,0810298
1256,3962;0,0804235
1257,3605;0,0797997
1258,3247;0,0791469
1259,2889;0,0784585
1260,2532;0,0777345
1261,2174;0,0769798
1262,1816;0,0761993
1263,1459;0,075395
1264,1101;0,0745666
1265,0743;0,073713
1266,0386;0,0728346
1267,0028;0,0719334
1267,9670;0,0710122
1268,9313;0,070075
1269,8955;0,0691276
1270,8597;0,0681778
1271,8240;0,0672329
1272,7882;0,0662977
1273,7524;0,0653733
1274,7167;0,0644595
1275,6809;0,0635583
1276,6451;0,0626761
1277,6094;0,0618208
1278,5736;0,0609973
1279,5378;0,0602046
1280,5021;0,0594371
1281,4663;0,0586901
1282,4305;0,0579651
1283,3948;0,05727
1284,3590;0,0566164
1285,3232;0,0560147
1286,2875;0,0554726
1287,2517;0,0549964
1288,2159;0,0545924
1289,1802;0,054267
1290,1444;0,0540232
1291,1086;0,0538595
1292,0729;0,0537701
1293,0371;0,0537494
1294,0013;0,0537956
1294,9656;0,0539119
1295,9298;0,0541036
1296,8940;0,0543746
1297,8583;0,0547242
1298,8225;0,0551469
1299,7867;0,0556347
1300,7510;0,0561787
1301,7152;0,0567704
1302,6794;0,0574028
1303,6437;0,05807
1304,6079;0,0587677
1305,5721;0,0594932
1306,5364;0,0602444
1307,5006;0,0610194
1308,4648;0,061816
1309,4291;0,0626299
1310,3933;0,0634511
1311,3575;0,064261
1312,3218;0,0650303
1313,2860;0,0657229
1314,2502;0,066303
1315,2145;0,0667422
1316,1787;0,0670232
1317,1429;0,0671415
1318,1072;0,0671075
1319,0714;0,0669487
1320,0356;0,0667061
1320,9999;0,0664244
1321,9641;0,0661407
1322,9283;0,0658784
1323,8926;0,0656487
1324,8568;0,0654552
1325,8210;0,0652977
1326,7853;0,0651733
1327,7495;0,0650759
1328,7137;0,064995
1329,6780;0,0649173
1330,6422;0,0648289
1331,6064;0,0647197
1332,5707;0,0645852
1333,5349;0,0644239
1334,4991;0,0642287
1335,4634;0,0639791
1336,4276;0,0636398
1337,3918;0,0631746
1338,3561;0,0625745
1339,3203;0,0618841
1340,2845;0,0611926
1341,2488;0,0605862
1342,2130;0,0601072
1343,1772;0,059752
1344,1415;0,0594948
1345,1057;0,05931
1346,0699;0,0591837
1347,0342;0,0591151
1347,9984;0,0591129
1348,9626;0,0591889
1349,9269;0,059351
1350,8911;0,0595989
1351,8553;0,0599234
1352,8196;0,0603112
1353,7838;0,0607527
1354,7480;0,0612461
1355,7123;0,0617959
1356,6765;0,0624042
1357,6407;0,0630635
1358,6050;0,0637546
1359,5692;0,0644481
1360,5334;0,0651086
1361,4977;0,0657046
1362,4619;0,0662222
1363,4261;0,0666735
1364,3904;0,0670851
1365,3546;0,067477
1366,3188;0,0678528
1367,2831;0,0682026
1368,2473;0,0685104
1369,2115;0,068758
1370,1758;0,0689242
1371,1400;0,0689801
1372,1042;0,0688901
1373,0685;0,0686283
1374,0327;0,0682037
1374,9969;0,0676674
1375,9612;0,0670773
1376,9254;0,0664494
1377,8896;0,0657481
1378,8539;0,0649241
1379,8181;0,0639672
1380,7823;0,0629309
1381,7466;0,0619048
1382,7108;0,0609515
1383,6750;0,0600619
1384,6393;0,0591652
1385,6035;0,05819
1386,5677;0,0571455
1387,5320;0,0561526
1388,4962;0,0553643
1389,4604;0,054849
1390,4247;0,0545638
1391,3889;0,0544129
1392,3531;0,0543056
1393,3174;0,0541861
1394,2816;0,0540405
1395,2458;0,0538893
1396,2101;0,053766
1397,1743;0,0536987
1398,1385;0,0537056
1399,1028;0,0537995
1400,0670;0,0539841
1401,0313;0,0542475
1401,9955;0,0545619
1402,9597;0,0548934
1403,9240;0,0552181
1404,8882;0,055536
1405,8524;0,0558709
1406,8167;0,0562512
1407,7809;0,0566894
1408,7451;0,0571799
1409,7094;0,0577116
1410,6736;0,0582823
1411,6378;0,0589
1412,6021;0,0595718
1413,5663;0,0602899
1414,5305;0,061025
1415,4948;0,0617266
1416,4590;0,062328
1417,4232;0,0627675
1418,3875;0,0630348
1419,3517;0,0631949
1420,3159;0,0633279
1421,2802;0,0634494
1422,2444;0,0635132
1423,2086;0,0634662
1424,1729;0,0632904
1425,1371;0,0630037
1426,1013;0,062626
1427,0656;0,0621443
1428,0298;0,0615176
1428,9940;0,0607318
1429,9583;0,0598545
1430,9225;0,0590161
1431,8867;0,058314
1432,8510;0,0577323
1433,8152;0,0571476
1434,7794;0,0564027
1435,7437;0,0554319
1436,7079;0,0543738
1437,6721;0,0535001
1438,6364;0,0529779
1439,6006;0,0527762
1440,5648;0,0527763
1441,5291;0,0528817
1442,4933;0,0530488
1443,4575;0,05327
1444,4218;0,0535469
1445,3860;0,0538699
1446,3502;0,0542166
1447,3145;0,0545653
1448,2787;0,054912
1449,2429;0,0552731
1450,2072;0,0556698
1451,1714;0,0561086
1452,1356;0,0565714
1453,0999;0,0570092
1454,0641;0,0573258
1455,0283;0,0573618
1455,9926;0,0569558
1456,9568;0,0561881
1457,9210;0,0555016
1458,8853;0,0552392
1459,8495;0,0553377
1460,8137;0,0555676
1461,7780;0,0557157
1462,7422;0,0555966
1463,7064;0,0550712
1464,6707;0,0541457
1465,6349;0,0530305
1466,5991;0,0519901
1467,5634;0,0511322
1468,5276;0,0503777
1469,4918;0,0495453
1470,4561;0,0484195
1471,4203;0,0468306
1472,3845;0,0448142
1473,3488;0,0427173
1474,3130;0,0409543
1475,2772;0,039657
1476,2415;0,0387064
1477,2057;0,0379498
1478,1699;0,0372963
1479,1342;0,0367076
1480,0984;0,0361736
1481,0626;0,0357013
1482,0269;0,0353122
1482,9911;0,0350321
1483,9553;0,0348739
1484,9196;0,0348216
1485,8838;0,0348278
1486,8480;0,0348244
1487,8123;0,0347582
1488,7765;0,0346481
1489,7407;0,0346011
1490,7050;0,034721
1491,6692;0,035023
1492,6334;0,0354605
1493,5977;0,0359797
1494,5619;0,03654
1495,5261;0,0371141
1496,4904;0,0376942
1497,4546;0,0382991
1498,4188;0,0389571
1499,3831;0,0396731
1500,3473;0,0404221
1501,3115;0,0411692
1502,2758;0,0418788
1503,2400;0,0425057
1504,2042;0,0429692
1505,1685;0,0431251
1506,1327;0,042812
1507,0969;0,0421008
1508,0612;0,0413923
1509,0254;0,0409445
1509,9896;0,0406935
1510,9539;0,0405045
1511,9181;0,0402843
1512,8823;0,0399698
1513,8466;0,0395163
1514,8108;0,0389106
1515,7750;0,0381887
1516,7393;0,037421
1517,7035;0,0366592
1518,6677;0,0358962
1519,6320;0,0350897
1520,5962;0,0342393
1521,5604;0,0334364
1522,5247;0,0328077
1523,4889;0,0324101
1524,4531;0,0322057
1525,4174;0,0321218
1526,3816;0,0321115
1527,3458;0,0321666
1528,3101;0,0322919
1529,2743;0,0324789
1530,2385;0,0326988
1531,2028;0,0329175
1532,1670;0,0331219
1533,1312;0,0333409
1534,0955;0,0336281
1535,0597;0,0340114
1536,0239;0,0344674
1536,9882;0,0349306
1537,9524;0,0352965
1538,9166;0,0354214
1539,8809;0,0352049
1540,8451;0,0347988
1541,8093;0,0345542
1542,7736;0,0345893
1543,7378;0,0347725
1544,7020;0,0349812
1545,6663;0,0351752
1546,6305;0,0353594
1547,5947;0,0355429
1548,5590;0,0357195
1549,5232;0,0358735
1550,4874;0,0360007
1551,4517;0,0361267
1552,4159;0,0362975
1553,3801;0,0365462
1554,3444;0,0368616
1555,3086;0,0371755
1556,2728;0,0373566
1557,2371;0,0372443
1558,2013;0,0368498
1559,1655;0,0365536
1560,1298;0,036675
1561,0940;0,037123
1562,0582;0,0377128
1563,0225;0,0383477
1563,9867;0,0389836
1564,9509;0,0395862
1565,9152;0,0401224
1566,8794;0,0405793
1567,8436;0,0409933
1568,8079;0,0414503
1569,7721;0,0420242
1570,7363;0,0427112
1571,7006;0,0434455
1572,6648;0,0441583
1573,6290;0,0448062
1574,5933;0,045373
1575,5575;0,0458771
1576,5217;0,0463751
1577,4860;0,0469235
1578,4502;0,0475346
1579,4144;0,0481885
1580,3787;0,0488626
1581,3429;0,0495388
1582,3071;0,0502043
1583,2714;0,0508565
1584,2356;0,051506
1585,1998;0,052169
1586,1641;0,0528524
1587,1283;0,053544
1588,0925;0,0542137
1589,0568;0,0548244
1590,0210;0,0553419
1590,9852;0,0557377
1591,9495;0,0559873
1592,9137;0,0560722
1593,8779;0,0559898
1594,8422;0,0557642
1595,8064;0,055441
1596,7706;0,0550683
1597,7349;0,0546774
1598,6991;0,0542789
1599,6633;0,0538734
1600,6276;0,053464
1601,5918;0,0530632
1602,5560;0,0526904
1603,5203;0,0523609
1604,4845;0,0520735
1605,4487;0,051806
1606,4130;0,0515251
1607,3772;0,0512092
1608,3414;0,0508765
1609,3057;0,0505916
1610,2699;0,0504279
1611,2341;0,0504138
1612,1984;0,0505087
1613,1626;0,0506167
1614,1268;0,0506187
1615,0911;0,0504327
1616,0553;0,0501099
1617,0195;0,0498502
1617,9838;0,0498264
1618,9480;0,0500331
1619,9122;0,0503456
1620,8765;0,0506304
1621,8407;0,0507993
1622,8049;0,0508369
1623,7692;0,0508045
1624,7334;0,0507887
1625,6976;0,0508305
1626,6619;0,0509172
1627,6261;0,0510287
1628,5903;0,0511746
1629,5546;0,0513837
1630,5188;0,0516671
1631,4830;0,0519889
1632,4473;0,0522572
1633,4115;0,0523282
1634,3757;0,052062
1635,3400;0,0514858
1636,3042;0,050902
1637,2684;0,0506165
1638,2327;0,0506489
1639,1969;0,0508567
1640,1611;0,0511253
1641,1254;0,0514024
1642,0896;0,051659
1643,0538;0,0518427
1644,0181;0,0518525
1644,9823;0,0515759
1645,9465;0,051032
1646,9108;0,0504816
1647,8750;0,0502262
1648,8392;0,0503187
1649,8035;0,0505771
1650,7677;0,0507001
1651,7319;0,0503176
1652,6962;0,0492303
1653,6604;0,0479041
1654,6246;0,0471022
1655,5889;0,0469302
1656,5531;0,0470657
1657,5173;0,0472468
1658,4816;0,0473242
1659,4458;0,0471947
1660,4100;0,0467875
1661,3743;0,0461244
1662,3385;0,0453709
1663,3027;0,0447501
1664,2670;0,044372
1665,2312;0,0441806
1666,1954;0,0440191
1667,1597;0,0437031
1668,1239;0,0430971
1669,0881;0,0422254
1670,0524;0,0413121
1671,0166;0,0405988
1671,9808;0,0401281
1672,9451;0,0397606
1673,9093;0,0393322
1674,8735;0,0387796
1675,8378;0,038186
1676,8020;0,0377076
1677,7662;0,0374409
1678,7305;0,0373664
1679,6947;0,0373813
1680,6589;0,0373302
1681,6232;0,0370124
1682,5874;0,0362506
1683,5516;0,0351117
1684,5159;0,0340114
1685,4801;0,0333087
1686,4443;0,0329827
1687,4086;0,0328386
1688,3728;0,0327371
1689,3370;0,0326348
1690,3013;0,0325482
1691,2655;0,0325068
1692,2297;0,0325188
1693,1940;0,032558
1694,1582;0,0325727
1695,1224;0,0325074
1696,0867;0,0323314
1697,0509;0,0320611
1698,0151;0,0317622
1698,9794;0,0315281
1699,9436;0,0314379
1700,9078;0,0315158
1701,8721;0,0317299
1702,8363;0,0320274
1703,8005;0,0323659
1704,7648;0,0327253
1705,7290;0,033108
1706,6932;0,0335326
1707,6575;0,0340203
1708,6217;0,0345832
1709,5859;0,0352222
1710,5502;0,0359289
1711,5144;0,0366821
1712,4786;0,0374421
1713,4429;0,0381472
1714,4071;0,0387209
1715,3713;0,0391069
1716,3356;0,0393413
1717,2998;0,0395801
1718,2640;0,0399729
1719,2283;0,0405364
1720,1925;0,0412023
1721,1567;0,0419039
1722,1210;0,0425953
1723,0852;0,043245
1724,0494;0,0438359
1725,0137;0,0443717
1725,9779;0,0448767
1726,9421;0,0453819
1727,9064;0,0459033
1728,8706;0,0464248
1729,8348;0,0468866
1730,7991;0,0471819
1731,7633;0,0471808
1732,7275;0,0468243
1733,6918;0,0462459
1734,6560;0,0457114
1735,6202;0,0453693
1736,5845;0,0451612
1737,5487;0,0449352
1738,5129;0,0445557
1739,4772;0,0439596
1740,4414;0,0431818
1741,4056;0,0423298
1742,3699;0,041503
1743,3341;0,0407289
1744,2983;0,0399752
1745,2626;0,0391942
1746,2268;0,0383394
1747,1910;0,0373537
1748,1553;0,036176
1749,1195;0,0348029
1750,0837;0,0333564
1751,0480;0,0320331
1752,0122;0,030956
1752,9764;0,0301072
1753,9407;0,0293818
1754,9049;0,0286728
1755,8691;0,0279276
1756,8334;0,0271597
1757,7976;0,0264131
1758,7618;0,0257058
1759,7261;0,0250074
1760,6903;0,0242783
1761,6545;0,0235299
1762,6188;0,0228374
1763,5830;0,0222838
1764,5472;0,0218955
1765,5115;0,0216326
1766,4757;0,0214225
1767,4399;0,0211948
1768,4042;0,0208991
1769,3684;0,0205058
1770,3326;0,0200096
1771,2969;0,0194484
1772,2611;0,0189178
1773,2253;0,0185296
1774,1896;0,0183357
1775,1538;0,0183039
1776,1180;0,018358
1777,0823;0,0184205
1778,0465;0,0184365
1779,0107;0,0183873
1779,9750;0,0182911
1780,9392;0,0181848
1781,9034;0,0180939
1782,8677;0,0180198
1783,8319;0,0179553
1784,7961;0,0179058
1785,7604;0,0178926
1786,7246;0,0179343
1787,6888;0,0180255
1788,6531;0,0181276
1789,6173;0,0181766
1790,5815;0,0181108
1791,5458;0,0179199
1792,5100;0,0176768
1793,4742;0,0174885
1794,4385;0,0174093
1795,4027;0,0174214
1796,3669;0,0174757
1797,3312;0,0175256
1798,2954;0,0175409
1799,2596;0,0175129
1800,2239;0,0174517
1801,1881;0,0173777
1802,1523;0,017309
1803,1166;0,017258
1804,0808;0,0172328
1805,0450;0,017238
1806,0093;0,0172703
1806,9735;0,0173155
1807,9377;0,0173491
1808,9020;0,0173454
1809,8662;0,0172922
1810,8304;0,0172015
1811,7947;0,0171036
1812,7589;0,0170285
1813,7231;0,0169887
1814,6874;0,0169776
1815,6516;0,0169786
1816,6158;0,0169792
1817,5801;0,0169806
1818,5443;0,0169971
1819,5085;0,0170424
1820,4728;0,0171161
1821,4370;0,0172003
1822,4012;0,0172675
1823,3655;0,0172957
1824,3297;0,0172787
1825,2939;0,017225
1826,2582;0,0171428
1827,2224;0,0170308
1828,1866;0,0168867
1829,1509;0,0167288
1830,1151;0,0166034
1831,0793;0,0165578
1832,0436;0,0166018
1833,0078;0,0167004
1833,9720;0,0167982
1834,9363;0,0168489
1835,9005;0,0168373
1836,8647;0,0167903
1837,8290;0,0167607
1838,7932;0,0167909
1839,7574;0,0168844
1840,7217;0,0170044
1841,6859;0,0170914
1842,6501;0,0170913
1843,6144;0,0169897
1844,5786;0,0168315
1845,5428;0,0166896
1846,5071;0,0166103
1847,4713;0,016595
1848,4355;0,0166204
1849,3998;0,0166605
1850,3640;0,0166969
1851,3282;0,0167214
1852,2925;0,016733
1853,2567;0,0167351
1854,2209;0,016733
1855,1852;0,016732
1856,1494;0,016737
1857,1136;0,0167502
1858,0779;0,0167686
1859,0421;0,0167857
1860,0063;0,0167956
1860,9706;0,0167988
1861,9348;0,0168037
1862,8990;0,0168219
1863,8633;0,0168578
1864,8275;0,0169024
1865,7917;0,0169315
1866,7560;0,0169161
1867,7202;0,0168442
1868,6844;0,0167376
1869,6487;0,0166421
1870,6129;0,0165923
1871,5771;0,0165918
1872,5414;0,0166197
1873,5056;0,0166467
1874,4698;0,0166478
1875,4341;0,0166125
1876,3983;0,0165487
1877,3625;0,0164776
1878,3268;0,0164203
1879,2910;0,0163863
1880,2552;0,0163736
1881,2195;0,0163757
1882,1837;0,0163901
1883,1479;0,0164191
1884,1122;0,0164636
1885,0764;0,0165154
1886,0406;0,0165561
1887,0049;0,0165644
1887,9691;0,0165304
1888,9333;0,0164653
1889,8976;0,0163966
1890,8618;0,0163494
1891,8260;0,0163298
1892,7903;0,0163258
1893,7545;0,0163216
1894,7188;0,0163111
1895,6830;0,0163012
1896,6472;0,0163027
1897,6115;0,0163166
1898,5757;0,0163312
1899,5399;0,0163311
1900,5042;0,0163113
1901,4684;0,0162844
1902,4326;0,016274
1903,3969;0,0162978
1904,3611;0,0163536
1905,3253;0,0164175
1906,2896;0,0164563
1907,2538;0,0164452
1908,2180;0,0163814
1909,1823;0,0162861
1910,1465;0,0161927
1911,1107;0,0161273
1912,0750;0,0160957
1913,0392;0,016085
1914,0034;0,0160749
1914,9677;0,0160506
1915,9319;0,0160123
1916,8961;0,0159759
1917,8604;0,0159598
1918,8246;0,0159663
1919,7888;0,0159756
1920,7531;0,0159601
1921,7173;0,0159072
1922,6815;0,0158328
1923,6458;0,0157748
1924,6100;0,0157676
1925,5742;0,0158153
1926,5385;0,0158868
1927,5027;0,0159359
1928,4669;0,0159284
1929,4312;0,0158608
1930,3954;0,0157593
1931,3596;0,0156601
1932,3239;0,0155855
1933,2881;0,0155326
1934,2523;0,0154816
1935,2166;0,0154165
1936,1808;0,0153399
1937,1450;0,0152722
1938,1093;0,0152382
1939,0735;0,0152514
1940,0377;0,0153042
1941,0020;0,0153679
1941,9662;0,0154026
1942,9304;0,0153726
1943,8947;0,0152618
1944,8589;0,0150772
1945,8231;0,0148414
1946,7874;0,0145841
1947,7516;0,014337
1948,7158;0,0141323
1949,6801;0,013999
1950,6443;0,0139548
1951,6085;0,0139983
1952,5728;0,014105
1953,5370;0,0142313
1954,5012;0,0143242
1955,4655;0,0143359
1956,4297;0,0142384
1957,3939;0,014034
1958,3582;0,0137573
1959,3224;0,0134648
1960,2866;0,013214
1961,2509;0,0130387
1962,2151;0,0129359
1963,1793;0,0128721
1964,1436;0,0128055
1965,1078;0,0127074
1966,0720;0,0125712
1967,0363;0,0124062
1968,0005;0,0122214
1968,9647;0,0120153
1969,9290;0,0117804
1970,8932;0,011518
1971,8574;0,0112521
1972,8217;0,011032
1973,7859;0,0109221
1974,7501;0,0109797
1975,7144;0,0112266
1976,6786;0,0116286
1977,6428;0,0120985
1978,6071;0,012531
1979,5713;0,0128498
1980,5355;0,0130393
1981,4998;0,0131411
1982,4640;0,0132252
1983,4282;0,0133519
1984,3925;0,0135451
1985,3567;0,0137837
1986,3209;0,0140182
1987,2852;0,0141966
1988,2494;0,0142874
1989,2136;0,0142854
1990,1779;0,0142081
1991,1421;0,0140873
1992,1063;0,0139618
1993,0706;0,0138692
1994,0348;0,0138344
1994,9990;0,0138611
1995,9633;0,0139292
1996,9275;0,0140027
1997,8917;0,0140444
1998,8560;0,0140324
1999,8202;0,0139682
2000,7844;0,0138707
2001,7487;0,0137629
2002,7129;0,0136619
2003,6771;0,0135811
2004,6414;0,0135359
2005,6056;0,0135427
2006,5698;0,0136041
2007,5341;0,0136917
2008,4983;0,0137457
2009,4625;0,0136999
2010,4268;0,0135178
2011,3910;0,0132143
2012,3552;0,0128506
2013,3195;0,012508
2014,2837;0,0122593
2015,2479;0,0121499
2016,2122;0,0121914
2017,1764;0,012364
2018,1406;0,0126249
2019,1049;0,0129191
2020,0691;0,0131916
2021,0333;0,0133982
2021,9976;0,0135103
2022,9618;0,0135155
2023,9260;0,0134145
2024,8903;0,0132221
2025,8545;0,0129723
2026,8187;0,0127228
2027,7830;0,0125473
2028,7472;0,0125082
2029,7114;0,0126243
2030,6757;0,0128532
2031,6399;0,0131096
2032,6041;0,0133139
2033,5684;0,0134408
2034,5326;0,0135312
2035,4968;0,0136571
2036,4611;0,0138683
2037,4253;0,0141599
2038,3895;0,0144805
2039,3538;0,0147653
2040,3180;0,0149689
2041,2822;0,0150795
2042,2465;0,0151143
2043,2107;0,0151063
2044,1749;0,0150956
2045,1392;0,0151247
2046,1034;0,0152312
2047,0676;0,0154321
2048,0320;0,0157087
2048,9961;0,0160062
2049,9604;0,0162565
2050,9246;0,0164065
2051,8889;0,0164365
2052,8530;0,0163626
2053,8174;0,0162288
2054,7815;0,0160961
2055,7458;0,0160261
2056,7100;0,0160639
2057,6743;0,0162205
2058,6384;0,0164659
2059,6028;0,0167346
2060,5669;0,0169478
2061,5313;0,0170448
2062,4954;0,0170131
2063,4597;0,0169003
2064,4238;0,0167966
2065,3882;0,0167924
2066,3523;0,0169303
2067,3167;0,017181
2068,2808;0,0174581
2069,2451;0,0176629
2070,2092;0,0177352
2071,1736;0,0176824
2072,1377;0,0175708
2073,1021;0,0174866
2074,0662;0,0174867
2075,0305;0,0175722
2075,9946;0,0176963
2076,9590;0,017798
2077,9231;0,0178381
2078,8875;0,0178132
2079,8516;0,0177476
2080,8159;0,0176708
2081,7800;0,0176021
2082,7444;0,0175476
2083,7085;0,017508
2084,6729;0,0174857
2085,6370;0,0174855
2086,6013;0,017509
2087,5654;0,0175496
2088,5298;0,0175931
2089,4939;0,0176223
2090,4583;0,017624
2091,4224;0,0175922
2092,3867;0,0175298
2093,3508;0,0174498
2094,3152;0,0173753
2095,2793;0,0173362
2096,2437;0,0173587
2097,2078;0,0174522
2098,1721;0,0176008
2099,1362;0,017768
2100,1006;0,0179114
2101,0647;0,0180022
2102,0291;0,0180336
2102,9932;0,0180222
2103,9575;0,0179974
2104,9216;0,017988
2105,8860;0,0180123
2106,8501;0,0180741
2107,8145;0,0181626
2108,7786;0,0182571
2109,7429;0,0183342
2110,7070;0,0183761
2111,6714;0,0183779
2112,6355;0,0183479
2113,5999;0,0183023
2114,5640;0,0182557
2115,5283;0,0182149
2116,4924;0,0181787
2117,4568;0,0181439
2118,4209;0,0181107
2119,3853;0,0180836
2120,3494;0,0180673
2121,3137;0,0180624
2122,2778;0,0180643
2123,2422;0,0180672
2124,2063;0,018067
2125,1707;0,0180611
2126,1348;0,0180427
2127,0991;0,0179979
2128,0632;0,0179099
2129,0276;0,0177709
2129,9917;0,0175959
2130,9561;0,0174244
2131,9202;0,0173078
2132,8845;0,0172841
2133,8486;0,0173554
2134,8130;0,0174829
2135,7771;0,0176062
2136,7415;0,0176749
2137,7056;0,0176707
2138,6699;0,017606
2139,6340;0,0175053
2140,5984;0,0173872
2141,5625;0,0172607
2142,5269;0,0171349
2143,4910;0,0170283
2144,4553;0,0169653
2145,4194;0,0169584
2146,3838;0,0169919
2147,3479;0,017022
2148,3123;0,0169964
2149,2764;0,0168808
2150,2407;0,0166722
2151,2048;0,0163905
2152,1692;0,016061
2153,1333;0,0157044
2154,0977;0,0153453
2155,0618;0,0150288
2156,0261;0,014827
2156,9902;0,0148132
2157,9546;0,0150081
2158,9187;0,0153426
2159,8831;0,0156867
2160,8472;0,0159311
2161,8115;0,016044
2162,7756;0,016058
2163,7400;0,0160207
2164,7041;0,0159579
2165,6685;0,015868
2166,6326;0,0157415
2167,5969;0,0155827
2168,5610;0,0154173
2169,5254;0,0152853
2170,4895;0,0152267
2171,4539;0,0152717
2172,4180;0,0154349
2173,3823;0,0157116
2174,3464;0,0160744
2175,3108;0,0164753
2176,2749;0,0168562
2177,2393;0,0171654
2178,2034;0,0173685
2179,1677;0,0174496
2180,1318;0,0174058
2181,0962;0,0172452
2182,0603;0,0169942
2183,0247;0,0167046
2183,9888;0,0164484
2184,9531;0,0162943
2185,9172;0,0162778
2186,8816;0,0163856
2187,8457;0,0165666
2188,8101;0,0167628
2189,7742;0,0169398
2190,7385;0,0170956
2191,7026;0,0172435
2192,6670;0,0173848
2193,6311;0,0174948
2194,5955;0,0175346
2195,5596;0,0174787
2196,5239;0,0173388
2197,4880;0,017164
2198,4524;0,0170185
2199,4165;0,0169523
2200,3809;0,016984
2201,3450;0,0171
2202,3093;0,017268
2203,2734;0,0174497
2204,2378;0,017609
2205,2019;0,017717
2206,1663;0,0177584
2207,1304;0,0177372
2208,0947;0,0176787
2209,0588;0,0176196
2210,0232;0,0175918
2210,9873;0,0176077
2211,9517;0,0176585
2212,9158;0,017725
2213,8801;0,0177917
2214,8442;0,0178554
2215,8086;0,0179217
2216,7727;0,017995
2217,7371;0,0180729
2218,7012;0,0181463
2219,6655;0,0182067
2220,6296;0,0182514
2221,5940;0,0182844
2222,5581;0,018313
2223,5225;0,0183428
2224,4866;0,0183743
2225,4509;0,0184
2226,4150;0,0184058
2227,3794;0,0183765
2228,3435;0,0183056
2229,3079;0,0182067
2230,2720;0,0181155
2231,2363;0,0180766
2232,2004;0,0181211
2233,1648;0,0182447
2234,1289;0,0184052
2235,0933;0,0185418
2236,0574;0,0186068
2237,0217;0,0185892
2237,9858;0,0185173
2238,9502;0,0184383
2239,9143;0,0183921
2240,8787;0,0183944
2241,8428;0,0184376
2242,8071;0,0185052
2243,7712;0,0185859
2244,7356;0,0186772
2245,6997;0,0187785
2246,6641;0,0188804
2247,6282;0,0189612
2248,5925;0,0189938
2249,5566;0,0189619
2250,5210;0,0188723
2251,4851;0,0187579
2252,4495;0,0186651
2253,4136;0,018632
2254,3779;0,0186693
2255,3420;0,0187545
2256,3064;0,0188446
2257,2705;0,0188996
2258,2349;0,0189022
2259,1990;0,0188638
2260,1633;0,018813
2261,1274;0,0187772
2262,0918;0,018768
2263,0559;0,018779
2264,0203;0,0187939
2264,9844;0,0187991
2265,9487;0,0187917
2266,9128;0,0187791
2267,8772;0,0187726
2268,8413;0,0187805
2269,8057;0,0188046
2270,7698;0,0188409
2271,7341;0,0188841
2272,6982;0,0189311
2273,6626;0,0189828
2274,6267;0,0190422
2275,5911;0,0191106
2276,5552;0,0191842
2277,5195;0,0192558
2278,4836;0,019319
2279,4480;0,0193755
2280,4121;0,0194353
2281,3765;0,0195119
2282,3406;0,0196112
2283,3049;0,0197252
2284,2690;0,0198339
2285,2334;0,0199172
2286,1975;0,019967
2287,1619;0,0199926
2288,1260;0,0200144
2289,0903;0,0200514
2290,0544;0,020111
2291,0188;0,0201896
2291,9829;0,020281
2292,9473;0,0203837
2293,9114;0,020501
2294,8757;0,0206323
2295,8398;0,0207652
2296,8042;0,0208777
2297,7683;0,0209516
2298,7327;0,0209889
2299,6968;0,0210163
2300,6611;0,021074
2301,6252;0,0211923
2302,5896;0,021374
2303,5537;0,0215935
2304,5181;0,0218121
2305,4822;0,0219995
2306,4465;0,0221461
2307,4106;0,0222599
2308,3750;0,0223533
2309,3391;0,0224301
2310,3035;0,0224856
2311,2676;0,0225159
2312,2319;0,0225297
2313,1960;0,0225481
2314,1604;0,0225941
2315,1245;0,0226782
2316,0889;0,0227914
2317,0530;0,0229095
2318,0173;0,0230036
2318,9814;0,0230518
2319,9458;0,0230466
2320,9099;0,0229968
2321,8743;0,0229206
2322,8384;0,022835
2323,8027;0,0227482
2324,7668;0,022658
2325,7312;0,0225561
2326,6953;0,0224342
2327,6597;0,0222904
2328,6238;0,0221333
2329,5881;0,021982
2330,5522;0,0218565
2331,5166;0,0217651
2332,4807;0,0216967
2333,4451;0,0216247
2334,4092;0,0215205
2335,3735;0,021368
2336,3376;0,0211752
2337,3020;0,0209757
2338,2661;0,0208159
2339,2305;0,0207281
2340,1946;0,020708
2341,1589;0,020716
2342,1230;0,0207101
2343,0874;0,020689
2344,0515;0,0207032
2345,0159;0,0208115
2345,9800;0,0210324
2346,9443;0,0213446
2347,9084;0,0217117
2348,8728;0,022095
2349,8369;0,022452
2350,8013;0,0227335
2351,7654;0,0228896
2352,7297;0,0228909
2353,6938;0,0227529
2354,6582;0,0225349
2355,6223;0,0223008
2356,5867;0,0220808
2357,5508;0,0218729
2358,5151;0,021666
2359,4792;0,021455
2360,4436;0,0212407
2361,4077;0,0210264
2362,3721;0,0208214
2363,3362;0,0206457
2364,3005;0,0205289
2365,2646;0,0205009
2366,2290;0,0205785
2367,1931;0,0207536
2368,1575;0,0209894
2369,1216;0,0212284
2370,0859;0,0214142
2371,0500;0,0215161
2372,0144;0,0215408
2372,9785;0,0215241
2373,9429;0,0215054
2374,9070;0,0215054
2375,8713;0,0215177
2376,8354;0,0215187
2377,7998;0,0214858
2378,7639;0,0214111
2379,7283;0,0213036
2380,6924;0,0211821
2381,6567;0,0210651
2382,6208;0,0209643
2383,5852;0,0208836
2384,5493;0,020821
2385,5137;0,0207717
2386,4778;0,02073
2387,4421;0,0206914
2388,4063;0,0206544
2389,3706;0,0206215
2390,3347;0,0205974
2391,2991;0,0205858
2392,2632;0,0205855
2393,2275;0,0205901
2394,1917;0,0205912
2395,1560;0,0205849
2396,1201;0,0205745
2397,0845;0,0205685
2398,0486;0,0205747
2399,0129;0,0205945
2399,9771;0,0206226
2400,9414;0,0206512
2401,9055;0,020676
2402,8699;0,0206987
2403,8340;0,020724
2404,7983;0,0207547
2405,7625;0,020788
2406,7268;0,0208171
2407,6909;0,0208358
2408,6553;0,0208433
2409,6194;0,0208448
2410,5837;0,0208482
2411,5479;0,0208594
2412,5122;0,0208793
2413,4763;0,0209045
2414,4407;0,0209299
2415,4048;0,0209519
2416,3691;0,0209704
2417,3333;0,0209878
2418,2976;0,0210068
2419,2617;0,0210284
2420,2261;0,0210503
2421,1902;0,0210673
2422,1545;0,0210746
2423,1187;0,0210709
2424,0830;0,0210601
2425,0471;0,0210502
2426,0115;0,0210495
2426,9756;0,0210613
2427,9399;0,0210831
2428,9041;0,0211082
2429,8684;0,021131
2430,8325;0,0211504
2431,7969;0,0211701
2432,7610;0,0211954
2433,7253;0,0212283
2434,6895;0,0212661
2435,6538;0,0213021
2436,6179;0,0213299
2437,5823;0,0213467
2438,5464;0,0213538
2439,5107;0,0213558
2440,4749;0,0213572
2441,4392;0,0213606
2442,4033;0,0213663
2443,3677;0,0213741
2444,3318;0,0213845
2445,2961;0,0213994
2446,2603;0,0214201
2447,2246;0,0214448
2448,1887;0,0214674
2449,1531;0,0214802
2450,1172;0,0214788
2451,0815;0,0214667
2452,0457;0,0214549
2453,0100;0,021456
2453,9741;0,0214754
2454,9385;0,0215074
2455,9026;0,0215384
2456,8669;0,0215558
2457,8311;0,0215571
2458,7954;0,0215509
2459,7595;0,0215508
2460,7239;0,0215661
2461,6880;0,0215964
2462,6523;0,0216335
2463,6165;0,0216679
2464,5808;0,0216952
2465,5449;0,0217161
2466,5093;0,0217334
2467,4734;0,0217483
2468,4377;0,0217603
2469,4019;0,0217703
2470,3662;0,0217829
2471,3303;0,0218049
2472,2947;0,0218404
2473,2588;0,0218854
2474,2231;0,0219278
2475,1873;0,0219526
2476,1516;0,0219501
2477,1157;0,0219226
2478,0801;0,021885
2479,0442;0,0218588
2480,0085;0,0218624
2480,9727;0,0219028
2481,9370;0,0219724
2482,9011;0,0220519
2483,8655;0,0221187
2484,8296;0,0221567
2485,7939;0,0221617
2486,7581;0,0221423
2487,7224;0,0221146
2488,6865;0,0220941
2489,6509;0,022089
2490,6150;0,0220984
2491,5793;0,0221141
2492,5435;0,0221269
2493,5078;0,0221324
2494,4719;0,0221335
2495,4363;0,0221387
2496,4004;0,0221573
2497,3647;0,0221934
2498,3289;0,0222436
2499,2932;0,0222971
2500,2573;0,0223408
2501,2217;0,0223649
2502,1858;0,0223676
2503,1501;0,0223562
2504,1143;0,0223436
2505,0786;0,0223425
2506,0427;0,022359
2507,0071;0,0223904
2507,9712;0,0224265
2508,9355;0,0224557
2509,8997;0,0224715
2510,8640;0,0224758
2511,8281;0,0224772
2512,7925;0,0224848
2513,7566;0,0225026
2514,7209;0,0225261
2515,6851;0,0225451
2516,6494;0,0225486
2517,6135;0,0225307
2518,5779;0,0224929
2519,5420;0,0224441
2520,5063;0,0223976
2521,4705;0,0223673
2522,4348;0,0223631
2523,3989;0,0223881
2524,3633;0,0224355
2525,3274;0,0224914
2526,2917;0,0225394
2527,2559;0,0225687
2528,2202;0,022579
2529,1843;0,0225805
2530,1487;0,0225871
2531,1128;0,0226075
2532,0771;0,0226383
2533,0413;0,0226657
2534,0056;0,0226741
2534,9697;0,0226567
2535,9341;0,0226218
2536,8982;0,0225894
2537,8625;0,0225806
2538,8267;0,0226052
2539,7910;0,0226563
2540,7551;0,022714
2541,7195;0,0227565
2542,6836;0,0227709
2543,6479;0,0227589
2544,6121;0,0227331
2545,5764;0,0227094
2546,5405;0,0226995
2547,5049;0,0227066
2548,4690;0,0227265
2549,4333;0,0227509
2550,3975;0,0227714
2551,3618;0,0227829
2552,3259;0,0227861
2553,2903;0,0227865
2554,2544;0,0227916
2555,2188;0,022806
2556,1829;0,0228275
2557,1472;0,0228484
2558,1113;0,0228599
2559,0757;0,0228586
2560,0398;0,0228497
2561,0042;0,0228441
2561,9683;0,0228516
2562,9326;0,0228757
2563,8967;0,0229121
2564,8611;0,0229524
2565,8252;0,0229892
2566,7896;0,0230186
2567,7537;0,0230397
2568,7180;0,0230524
2569,6821;0,0230563
2570,6465;0,023051
2571,6106;0,0230373
2572,5750;0,0230179
2573,5391;0,0229964
2574,5034;0,0229766
2575,4675;0,0229612
2576,4319;0,0229518
2577,3960;0,0229488
2578,3604;0,0229512
2579,3245;0,0229575
2580,2888;0,0229673
2581,2529;0,0229823
2582,2173;0,0230063
2583,1814;0,0230426
2584,1458;0,0230902
2585,1099;0,0231431
2586,0742;0,0231919
2587,0383;0,0232287
2588,0027;0,0232513
2588,9668;0,0232635
2589,9312;0,0232722
2590,8953;0,0232829
2591,8596;0,0232971
2592,8237;0,0233128
2593,7881;0,0233274
2594,7522;0,0233398
2595,7166;0,0233512
2596,6807;0,0233647
2597,6450;0,0233837
2598,6091;0,0234108
2599,5735;0,0234464
2600,5376;0,023488
2601,5020;0,0235305
2602,4661;0,0235675
2603,4304;0,0235945
2604,3945;0,0236108
2605,3589;0,0236203
2606,3230;0,0236292
2607,2874;0,0236434
2608,2515;0,0236649
2609,2158;0,0236917
2610,1799;0,0237189
2611,1443;0,0237412
2612,1084;0,0237562
2613,0728;0,0237657
2614,0369;0,0237758
2615,0012;0,0237942
2615,9653;0,0238263
2616,9297;0,0238723
2617,8938;0,0239262
2618,8582;0,0239786
2619,8223;0,0240214
2620,7866;0,0240509
2621,7507;0,0240689
2622,7151;0,024081
2623,6792;0,0240933
2624,6436;0,0241106
2625,6077;0,0241357
2626,5720;0,0241693
2627,5361;0,0242096
2628,5005;0,0242529
2629,4646;0,0242944
2630,4290;0,0243306
2631,3931;0,0243616
2632,3574;0,0243901
2633,3215;0,0244196
2634,2859;0,0244508
2635,2500;0,024481
2636,2144;0,024506
2637,1785;0,024524
2638,1428;0,0245384
2639,1069;0,0245561
2640,0713;0,0245833
2641,0354;0,0246217
2641,9998;0,0246675
2642,9639;0,0247148
2643,9282;0,0247588
2644,8923;0,0247989
2645,8567;0,024837
2646,8208;0,0248755
2647,7852;0,0249147
2648,7493;0,0249527
2649,7136;0,0249871
2650,6777;0,0250174
2651,6421;0,0250451
2652,6062;0,0250728
2653,5706;0,0251026
2654,5347;0,0251347
2655,4990;0,025168
2656,4631;0,0252005
2657,4275;0,0252309
2658,3916;0,025259
2659,3560;0,0252851
2660,3201;0,0253097
2661,2844;0,025333
2662,2485;0,0253549
2663,2129;0,0253757
2664,1770;0,0253953
2665,1414;0,0254136
2666,1055;0,0254298
2667,0698;0,0254429
2668,0339;0,0254524
2668,9983;0,025459
2669,9624;0,0254652
2670,9268;0,0254745
2671,8909;0,0254904
2672,8552;0,0255153
2673,8193;0,02555
2674,7837;0,0255931
2675,7478;0,025641
2676,7122;0,0256881
2677,6763;0,0257284
2678,6406;0,0257572
2679,6047;0,0257736
2680,5691;0,0257821
2681,5332;0,0257913
2682,4976;0,0258105
2683,4617;0,0258457
2684,4260;0,025897
2685,3901;0,0259587
2686,3545;0,0260215
2687,3186;0,0260765
2688,2830;0,026118
2689,2471;0,0261452
2690,2114;0,0261625
2691,1755;0,0261775
2692,1399;0,0261978
2693,1040;0,0262281
2694,0684;0,026268
2695,0325;0,0263122
2695,9968;0,0263533
2696,9609;0,0263861
2697,9253;0,0264097
2698,8894;0,0264279
2699,8538;0,0264465
2700,8179;0,0264709
2701,7822;0,026504
2702,7463;0,0265462
2703,7107;0,0265957
2704,6748;0,0266486
2705,6392;0,0266997
2706,6033;0,0267439
2707,5676;0,0267783
2708,5317;0,0268038
2709,4961;0,0268256
2710,4602;0,0268497
2711,4246;0,0268801
2712,3887;0,0269169
2713,3530;0,0269566
2714,3171;0,0269957
2715,2815;0,0270322
2716,2456;0,0270664
2717,2100;0,0270991
2718,1741;0,0271304
2719,1384;0,0271595
2720,1025;0,027186
2721,0669;0,0272111
2722,0310;0,027237
2722,9954;0,0272661
2723,9595;0,0272995
2724,9238;0,0273365
2725,8879;0,0273757
2726,8523;0,0274154
2727,8164;0,0274542
2728,7808;0,0274909
2729,7449;0,0275247
2730,7092;0,0275559
2731,6733;0,0275859
2732,6377;0,0276166
2733,6018;0,0276489
2734,5662;0,0276816
2735,5303;0,0277118
2736,4946;0,0277367
2737,4587;0,0277556
2738,4231;0,0277713
2739,3872;0,0277885
2740,3516;0,027812
2741,3157;0,0278436
2742,2800;0,0278814
2743,2441;0,0279205
2744,2085;0,0279546
2745,1726;0,0279792
2746,1370;0,0279935
2747,1011;0,0280003
2748,0654;0,0280054
2749,0295;0,0280144
2749,9939;0,0280307
2750,9580;0,0280548
2751,9224;0,0280853
2752,8865;0,028121
2753,8508;0,0281623
2754,8149;0,0282105
2755,7793;0,0282661
2756,7434;0,0283266
2757,7078;0,0283867
2758,6719;0,02844
2759,6362;0,0284821
2760,6003;0,0285126
2761,5647;0,0285347
2762,5288;0,0285542
2763,4932;0,0285762
2764,4573;0,0286037
2765,4216;0,0286371
2766,3857;0,0286755
2767,3501;0,0287172
2768,3142;0,028761
2769,2786;0,0288054
2770,2427;0,0288491
2771,2070;0,0288907
2772,1711;0,0289292
2773,1355;0,0289656
2774,0996;0,0290027
2775,0640;0,0290445
2776,0281;0,0290947
2776,9924;0,0291546
2777,9565;0,0292231
2778,9209;0,0292967
2779,8850;0,0293709
2780,8494;0,0294421
2781,8135;0,0295084
2782,7778;0,0295696
2783,7419;0,0296269
2784,7063;0,029682
2785,6704;0,0297361
2786,6348;0,0297894
2787,5989;0,0298415
2788,5632;0,0298929
2789,5273;0,0299464
2790,4917;0,0300075
2791,4558;0,0300821
2792,4202;0,0301726
2793,3843;0,0302753
2794,3486;0,0303802
2795,3127;0,0304751
2796,2771;0,0305522
2797,2412;0,0306119
2798,2056;0,0306635
2799,1697;0,0307203
2800,1340;0,030793
2801,0981;0,0308855
2802,0625;0,0309943
2803,0266;0,0311115
2803,9910;0,0312293
2804,9551;0,0313432
2805,9194;0,0314519
2806,8835;0,0315567
2807,8479;0,0316598
2808,8120;0,0317636
2809,7764;0,0318706
2810,7405;0,0319834
2811,7048;0,0321042
2812,6689;0,0322342
2813,6333;0,0323732
2814,5974;0,0325196
2815,5618;0,0326709
2816,5259;0,0328246
2817,4902;0,0329786
2818,4543;0,0331325
2819,4187;0,0332871
2820,3828;0,0334442
2821,3472;0,0336056
2822,3113;0,0337735
2823,2756;0,0339503
2824,2397;0,0341394
2825,2041;0,0343448
2826,1682;0,0345695
2827,1326;0,0348135
2828,0967;0,0350723
2829,0610;0,035339
2830,0251;0,035608
2830,9895;0,0358792
2831,9536;0,0361591
2832,9180;0,0364577
2833,8821;0,0367836
2834,8464;0,0371398
2835,8105;0,037524
2836,7749;0,0379329
2837,7390;0,0383675
2838,7034;0,0388372
2839,6675;0,03936
2840,6318;0,0399597
2841,5959;0,0406615
2842,5603;0,0414846
2843,5244;0,0424337
2844,4888;0,0434881
2845,4529;0,044594
2846,4172;0,0456654
2847,3813;0,0465982
2848,3457;0,0472959
2849,3098;0,0476982
2850,2742;0,0477985
2851,2383;0,0476428
2852,2026;0,0473105
2853,1667;0,0468865
2854,1311;0,046438
2855,0952;0,0460046
2856,0596;0,0456016
2857,0237;0,0452322
2857,9880;0,0448991
2858,9521;0,0446098
2859,9165;0,0443759
2860,8806;0,0442072
2861,8450;0,0441071
2862,8091;0,0440712
2863,7734;0,0440896
2864,7375;0,0441515
2865,7019;0,0442474
2866,6660;0,0443691
2867,6304;0,0445071
2868,5945;0,0446489
2869,5588;0,0447804
2870,5229;0,04489
2871,4873;0,044973
2872,4514;0,0450343
2873,4158;0,045085
2874,3799;0,045138
2875,3442;0,0452022
2876,3083;0,0452802
2877,2727;0,0453696
2878,2368;0,0454662
2879,2012;0,0455672
2880,1653;0,0456729
2881,1296;0,0457862
2882,0938;0,0459112
2883,0581;0,0460512
2884,0222;0,0462078
2884,9866;0,0463797
2885,9507;0,0465635
2886,9150;0,0467546
2887,8792;0,0469483
2888,8435;0,0471408
2889,8076;0,047329
2890,7720;0,0475107
2891,7361;0,0476848
2892,7004;0,047852
2893,6646;0,0480154
2894,6289;0,0481804
2895,5930;0,0483531
2896,5574;0,0485382
2897,5215;0,0487371
2898,4858;0,0489472
2899,4500;0,0491631
2900,4143;0,0493785
2901,3784;0,0495892
2902,3428;0,0497953
2903,3069;0,050003
2904,2712;0,0502242
2905,2354;0,050475
2906,1997;0,0507744
2907,1638;0,0511421
2908,1282;0,0515977
2909,0923;0,0521579
2910,0566;0,0528307
2911,0208;0,0536076
2911,9851;0,0544568
2912,9492;0,0553224
2913,9136;0,0561324
2914,8777;0,0568145
2915,8420;0,0573121
2916,8062;0,0575965
2917,7705;0,057667
2918,7346;0,0575452
2919,6990;0,0572644
2920,6631;0,0568616
2921,6274;0,0563724
2922,5916;0,0558283
2923,5559;0,055254
2924,5200;0,054665
2925,4844;0,0540679
2926,4485;0,0534632
2927,4128;0,0528511
2928,3770;0,0522359
2929,3413;0,0516276
2930,3054;0,0510379
2931,2698;0,0504751
2932,2339;0,0499403
2933,1982;0,0494279
2934,1624;0,0489303
2935,1267;0,0484422
2936,0908;0,0479637
2937,0552;0,0474989
2938,0193;0,0470517
2938,9836;0,0466223
2939,9478;0,0462057
2940,9121;0,045794
2941,8762;0,0453819
2942,8406;0,0449697
2943,8047;0,0445656
2944,7690;0,0441829
2945,7332;0,0438349
2946,6975;0,0435304
2947,6616;0,0432703
2948,6260;0,0430479
2949,5901;0,0428513
2950,5544;0,0426667
2951,5186;0,0424815
2952,4829;0,0422862
2953,4470;0,042076
2954,4114;0,0418507
2955,3755;0,0416132
2956,3398;0,041368
2957,3040;0,0411181
2958,2683;0,040864
2959,2324;0,0406041
2960,1968;0,0403366
2961,1609;0,0400623
2962,1252;0,0397857
2963,0894;0,0395135
2964,0537;0,0392524
2965,0178;0,039006
2965,9822;0,0387729
2966,9463;0,0385473
2967,9106;0,0383212
2968,8748;0,038087
2969,8391;0,0378399
2970,8032;0,0375799
2971,7676;0,0373128
2972,7317;0,0370485
2973,6960;0,0367989
2974,6602;0,0365731
2975,6245;0,0363747
2976,5886;0,0362007
2977,5530;0,0360442
2978,5171;0,0358985
2979,4814;0,0357596
2980,4456;0,0356267
2981,4099;0,0355
2982,3740;0,0353786
2983,3384;0,0352608
2984,3025;0,0351458
2985,2668;0,035036
2986,2310;0,0349363
2987,1953;0,0348516
2988,1594;0,0347831
2989,1238;0,0347272
2990,0879;0,0346775
2991,0522;0,034629
2992,0164;0,0345812
2992,9807;0,0345385
2993,9448;0,0345075
2994,9092;0,0344932
2995,8733;0,0344973
2996,8376;0,0345179
2997,8018;0,0345505
2998,7661;0,0345889
2999,7302;0,0346265
3000,6946;0,0346571
3001,6587;0,0346776
3002,6230;0,0346895
3003,5872;0,0346991
3004,5515;0,0347148
3005,5156;0,0347416
3006,4800;0,0347786
3007,4441;0,0348182
3008,4084;0,0348509
3009,3726;0,0348707
3010,3369;0,0348787
3011,3010;0,034883
3012,2654;0,0348937
3013,2295;0,0349173
3014,1938;0,0349532
3015,1580;0,0349962
3016,1223;0,0350409
3017,0864;0,0350858
3018,0508;0,0351343
3019,0149;0,0351908
3019,9792;0,0352568
3020,9434;0,0353285
3021,9077;0,0353989
3022,8718;0,035463
3023,8362;0,0355216
3024,8003;0,0355818
3025,7646;0,0356519
3026,7288;0,0357353
3027,6931;0,0358277
3028,6572;0,0359186
3029,6216;0,0359978
3030,5857;0,036062
3031,5500;0,0361171
3032,5142;0,0361756
3033,4785;0,0362495
3034,4426;0,0363446
3035,4070;0,0364579
3036,3711;0,0365805
3037,3354;0,0367023
3038,2996;0,0368154
3039,2639;0,0369168
3040,2280;0,0370074
3041,1924;0,0370911
3042,1565;0,0371728
3043,1208;0,0372569
3044,0850;0,037346
3045,0493;0,0374408
3046,0134;0,0375401
3046,9778;0,0376437
3047,9419;0,0377531
3048,9063;0,0378726
3049,8704;0,0380062
3050,8347;0,0381545
3051,7988;0,0383119
3052,7632;0,0384681
3053,7273;0,038612
3054,6917;0,0387377
3055,6558;0,038847
3056,6201;0,0389487
3057,5842;0,0390536
3058,5486;0,0391692
3059,5127;0,0392964
3060,4771;0,0394302
3061,4412;0,0395627
3062,4055;0,039687
3063,3696;0,0398002
3064,3340;0,0399048
3065,2981;0,0400085
3066,2625;0,0401206
3067,2266;0,0402472
3068,1909;0,0403877
3069,1550;0,0405346
3070,1194;0,0406772
3071,0835;0,0408087
3072,0479;0,0409305
3073,0120;0,0410516
3073,9763;0,0411828
3074,9404;0,0413288
3075,9048;0,0414843
3076,8689;0,0416357
3077,8333;0,0417697
3078,7974;0,0418809
3079,7617;0,0419758
3080,7258;0,0420693
3081,6902;0,0421761
3082,6543;0,042303
3083,6187;0,0424458
3084,5828;0,0425933
3085,5471;0,0427338
3086,5112;0,0428613
3087,4756;0,0429776
3088,4397;0,0430898
3089,4041;0,0432055
3090,3682;0,0433291
3091,3325;0,043461
3092,2966;0,0435987
3093,2610;0,0437394
3094,2251;0,0438806
3095,1895;0,0440195
3096,1536;0,0441529
3097,1179;0,0442785
3098,0820;0,0443962
3099,0464;0,0445108
3100,0105;0,0446301
3100,9749;0,0447621
3101,9390;0,0449107
3102,9033;0,0450733
3103,8674;0,0452423
3104,8318;0,045409
3105,7959;0,0455674
3106,7603;0,0457171
3107,7244;0,0458622
3108,6887;0,0460088
3109,6528;0,0461616
3110,6172;0,0463211
3111,5813;0,0464842
3112,5457;0,0466459
3113,5098;0,0468022
3114,4741;0,0469528
3115,4382;0,0471002
3116,4026;0,0472484
3117,3667;0,0474
3118,3311;0,0475546
3119,2952;0,0477092
3120,2595;0,0478599
3121,2236;0,0480038
3122,1880;0,0481403
3123,1521;0,0482724
3124,1165;0,0484067
3125,0806;0,0485519
3126,0449;0,0487152
3127,0090;0,0488983
3127,9734;0,0490935
3128,9375;0,0492863
3129,9019;0,0494613
3130,8660;0,0496107
3131,8303;0,0497386
3132,7944;0,0498593
3133,7588;0,0499886
3134,7229;0,0501364
3135,6873;0,050303
3136,6514;0,0504835
3137,6157;0,0506726
3138,5798;0,0508678
3139,5442;0,0510668
3140,5083;0,0512645
3141,4727;0,0514524
3142,4368;0,0516245
3143,4011;0,0517823
3144,3652;0,0519372
3145,3296;0,052104
3146,2937;0,052291
3147,2581;0,0524934
3148,2222;0,0526952
3149,1865;0,0528788
3150,1506;0,053036
3151,1150;0,0531729
3152,0791;0,0533056
3153,0435;0,0534508
3154,0076;0,0536168
3154,9719;0,0538016
3155,9360;0,0539969
3156,9004;0,0541943
3157,8645;0,0543882
3158,8289;0,0545766
3159,7930;0,0547593
3160,7573;0,0549373
3161,7214;0,055113
3162,6858;0,0552912
3163,6499;0,0554763
3164,6143;0,0556694
3165,5784;0,0558656
3166,5427;0,0560559
3167,5068;0,0562331
3168,4712;0,0563974
3169,4353;0,056549
3170,3997;0,0567198
3171,3638;0,0569084
3172,3281;0,0571112
3173,2922;0,0573147
3174,2566;0,0575038
3175,2207;0,0576711
3176,1851;0,057822
3177,1492;0,0579704
3178,1135;0,0581298
3179,0776;0,0583053
3180,0420;0,0584925
3181,0061;0,0586822
3181,9705;0,058868
3182,9346;0,0590489
3183,8989;0,0592275
3184,8630;0,0594057
3185,8274;0,0595824
3186,7915;0,0597543
3187,7559;0,05992
3188,7200;0,0600823
3189,6843;0,0602471
3190,6484;0,0604192
3191,6128;0,0605991
3192,5769;0,0607833
3193,5413;0,0609666
3194,5054;0,0611454
3195,4697;0,0613189
3196,4338;0,0614869
3197,3982;0,061649
3198,3623;0,0618051
3199,3267;0,0619574
3200,2908;0,0621117
3201,2551;0,0622762
3202,2192;0,0624565
3203,1836;0,0626516
3204,1477;0,062853
3205,1121;0,0630496
3206,0762;0,0632336
3207,0405;0,0634041
3208,0046;0,0635655
3208,9690;0,0637228
3209,9331;0,0638767
3210,8975;0,0640247
3211,8616;0,0641647
3212,8259;0,0642995
3213,7900;0,0644366
3214,7544;0,0645837
3215,7185;0,0647432
3216,6829;0,0649106
3217,6470;0,0650781
3218,6113;0,0652408
3219,5754;0,0654004
3220,5398;0,0655632
3221,5039;0,0657348
3222,4683;0,0659145
3223,4324;0,0660951
3224,3967;0,0662669
3225,3608;0,0664239
3226,3252;0,066567
3227,2893;0,0667034
3228,2537;0,066843
3229,2178;0,0669935
3230,1821;0,0671568
3231,1462;0,0673288
3232,1106;0,0675002
3233,0747;0,067661
3234,0391;0,0678048
3235,0032;0,067933
3235,9675;0,0680555
3236,9316;0,0681866
3237,8960;0,0683382
3238,8601;0,0685121
3239,8245;0,0686986
3240,7886;0,0688807
3241,7529;0,0690433
3242,7170;0,0691806
3243,6814;0,0692997
3244,6455;0,0694165
3245,6099;0,0695477
3246,5740;0,0697042
3247,5383;0,069887
3248,5024;0,0700892
3249,4668;0,0702994
3250,4309;0,0705058
3251,3953;0,070699
3252,3594;0,0708744
3253,3237;0,0710334
3254,2878;0,0711826
3255,2522;0,0713317
3256,2163;0,0714895
3257,1807;0,0716604
3258,1448;0,0718434
3259,1091;0,0720328
3260,0732;0,0722209
3261,0376;0,0724006
3262,0017;0,0725676
3262,9661;0,0727226
3263,9302;0,0728709
3264,8945;0,0730214
3265,8586;0,073183
3266,8230;0,0733596
3267,7871;0,0735476
3268,7515;0,0737347
3269,7156;0,0739044
3270,6799;0,0740423
3271,6440;0,0741426
3272,6084;0,0742105
3273,5725;0,0742602
3274,5369;0,0743086
3275,5010;0,0743679
3276,4653;0,0744423
3277,4294;0,0745285
3278,3938;0,0746196
3279,3579;0,074709
3280,3223;0,0747933
3281,2864;0,0748711
3282,2507;0,0749429
3283,2148;0,0750103
3284,1792;0,0750769
3285,1433;0,0751477
3286,1077;0,0752264
3287,0718;0,0753113
3288,0361;0,0753935
3289,0002;0,075459
3289,9646;0,0754956
3290,9287;0,0755007
3291,8931;0,075484
3292,8572;0,0754632
3293,8215;0,0754544
3294,7856;0,075465
3295,7500;0,0754918
3296,7141;0,0755264
3297,6785;0,0755625
3298,6426;0,0755996
3299,6069;0,0756415
3300,5710;0,0756913
3301,5354;0,0757474
3302,4995;0,0758024
3303,4639;0,0758465
3304,4280;0,0758708
3305,3923;0,0758709
3306,3564;0,0758484
3307,3208;0,0758101
3308,2849;0,0757674
3309,2493;0,0757336
3310,2134;0,0757207
3311,1777;0,0757356
3312,1418;0,0757781
3313,1062;0,0758409
3314,0703;0,0759137
3315,0347;0,0759876
3315,9988;0,0760596
3316,9631;0,0761335
3317,9272;0,0762172
3318,8916;0,0763171
3319,8557;0,0764335
3320,8201;0,0765584
3321,7842;0,0766789
3322,7485;0,0767832
3323,7126;0,0768666
3324,6770;0,076934
3325,6411;0,0769964
3326,6055;0,0770652
3327,5696;0,0771464
3328,5339;0,0772382
3329,4980;0,0773335
3330,4624;0,0774231
3331,4265;0,077499
3332,3909;0,077555
3333,3550;0,0775878
3334,3193;0,0775975
3335,2834;0,0775881
3336,2478;0,0775666
3337,2119;0,0775387
3338,1763;0,077505
3339,1404;0,0774596
3340,1047;0,0773937
3341,0688;0,0773025
3342,0332;0,0771903
3342,9973;0,0770689
3343,9617;0,0769514
3344,9258;0,0768434
3345,8901;0,0767405
3346,8542;0,0766319
3347,8186;0,0765092
3348,7827;0,0763719
3349,7471;0,0762273
3350,7112;0,0760837
3351,6755;0,0759442
3352,6396;0,0758054
3353,6040;0,0756614
3354,5681;0,0755107
3355,5325;0,0753579
3356,4966;0,0752112
3357,4609;0,0750751
3358,4250;0,0749469
3359,3894;0,0748175
3360,3535;0,0746778
3361,3179;0,0745251
3362,2820;0,0743646
3363,2463;0,074206
3364,2104;0,0740559
3365,1748;0,0739134
3366,1389;0,0737706
3367,1033;0,0736177
3368,0674;0,0734499
3369,0317;0,0732708
3369,9958;0,0730902
3370,9602;0,072919
3371,9243;0,0727628
3372,8887;0,0726195
3373,8528;0,0724814
3374,8171;0,0723395
3375,7813;0,0721886
3376,7456;0,0720301
3377,7097;0,0718699
3378,6741;0,0717137
3379,6382;0,0715626
3380,6025;0,0714107
3381,5667;0,0712489
3382,5310;0,0710717
3383,4951;0,0708836
3384,4595;0,0707012
3385,4236;0,070546
3386,3879;0,0704323
3387,3521;0,0703566
3388,3164;0,0702958
3389,2805;0,0702167
3390,2449;0,0700908
3391,2090;0,0699089
3392,1733;0,0696851
3393,1375;0,0694488
3394,1018;0,0692295
3395,0659;0,069044
3396,0303;0,0688925
3396,9944;0,0687631
3397,9587;0,0686404
3398,9229;0,068511
3399,8872;0,0683666
3400,8513;0,0682044
3401,8157;0,0680268
3402,7798;0,0678407
3403,7441;0,067656
3404,7083;0,0674812
3405,6726;0,0673188
3406,6367;0,0671632
3407,6011;0,0670027
3408,5652;0,0668253
3409,5295;0,0666249
3410,4937;0,0664057
3411,4580;0,0661806
3412,4221;0,0659663
3413,3865;0,0657751
3414,3506;0,0656083
3415,3149;0,0654546
3416,2791;0,0652933
3417,2434;0,0651024
3418,2075;0,0648681
3419,1719;0,0645924
3420,1360;0,0642937
3421,1003;0,0640005
3422,0645;0,0637388
3423,0288;0,0635216
3423,9929;0,0633443
3424,9573;0,063189
3425,9214;0,0630321
3426,8857;0,0628536
3427,8499;0,0626434
3428,8142;0,0624036
3429,7783;0,0621452
3430,7427;0,061882
3431,7068;0,0616249
3432,6711;0,0613785
3433,6353;0,0611424
3434,5996;0,0609131
3435,5637;0,0606868
3436,5281;0,0604601
3437,4922;0,0602323
3438,4565;0,0600063
3439,4207;0,0597884
3440,3850;0,0595852
3441,3491;0,0593963
3442,3135;0,0592096
3443,2776;0,0590022
3444,2419;0,0587511
3445,2061;0,0584475
3446,1704;0,0581069
3447,1345;0,0577648
3448,0989;0,0574582
3449,0630;0,0572051
3450,0273;0,0569981
3450,9915;0,0568138
3451,9558;0,0566288
3452,9199;0,0564317
3453,8843;0,0562243
3454,8484;0,0560139
3455,8127;0,055804
3456,7769;0,0555892
3457,7412;0,0553589
3458,7053;0,0551056
3459,6697;0,0548319
3460,6338;0,0545508
3461,5981;0,0542798
3462,5623;0,0540307
3463,5266;0,053803
3464,4907;0,0535844
3465,4551;0,0533586
3466,4192;0,0531162
3467,3835;0,0528608
3468,3477;0,0526053
3469,3120;0,0523618
3470,2761;0,0521314
3471,2405;0,0519027
3472,2046;0,0516622
3473,1689;0,0514066
3474,1331;0,0511499
3475,0974;0,0509143
3476,0615;0,0507127
3477,0259;0,0505354
3477,9900;0,0503524
3478,9543;0,0501315
3479,9185;0,04986
3480,8828;0,049556
3481,8469;0,0492574
3482,8113;0,0489964
3483,7754;0,0487775
3484,7397;0,0485774
3485,7039;0,0483635
3486,6682;0,0481172
3487,6323;0,047847
3488,5967;0,0475828
3489,5608;0,047355
3490,5251;0,0471725
3491,4893;0,0470153
3492,4536;0,0468464
3493,4177;0,0466342
3494,3821;0,0463754
3495,3462;0,0461013
3496,3105;0,0458606
3497,2747;0,0456862
3498,2390;0,0455691
3499,2031;0,0454588
3500,1675;0,0452902
3501,1316;0,0450231
3502,0959;0,0446734
3503,0601;0,0443093
3504,0244;0,0440058
3504,9885;0,043793
3505,9529;0,0436404
3506,9170;0,043484
3507,8813;0,0432686
3508,8455;0,042982
3509,8098;0,0426596
3510,7739;0,0423585
3511,7383;0,0421186
3512,7024;0,0419419
3513,6667;0,0418016
3514,6309;0,0416658
3515,5952;0,0415176
3516,5593;0,0413585
3517,5237;0,0411994
3518,4878;0,0410471
3519,4521;0,0408971
3520,4163;0,0407366
3521,3806;0,0405524
3522,3447;0,0403383
3523,3091;0,0400939
3524,2732;0,0398202
3525,2375;0,0395161
3526,2017;0,0391833
3527,1660;0,0388355
3528,1301;0,0385031
3529,0945;0,0382232
3530,0586;0,0380193
3531,0229;0,0378865
3531,9871;0,037792
3532,9514;0,0376904
3533,9155;0,0375434
3534,8799;0,0373369
3535,8440;0,0370882
3536,8083;0,0368387
3537,7725;0,0366335
3538,7368;0,0364992
3539,7009;0,0364316
3540,6653;0,0363957
3541,6294;0,0363339
3542,5938;0,0361831
3543,5579;0,0359017
3544,5222;0,0355013
3545,4863;0,0350554
3546,4507;0,0346615
3547,4148;0,0343793
3548,3792;0,0341995
3549,3433;0,0340612
3550,3076;0,0338936
3551,2717;0,0336567
3552,2361;0,0333643
3553,2002;0,0330724
3554,1646;0,0328381
3555,1287;0,0326803
3556,0930;0,0325736
3557,0571;0,0324739
3558,0215;0,0323527
3558,9856;0,0322207
3559,9500;0,0321218
3560,9141;0,0320983
3561,8784;0,0321478
3562,8425;0,032201
3563,8069;0,0321305
3564,7710;0,0317989
3565,7354;0,0311567
3566,6995;0,0303382
3567,6638;0,0296084
3568,6279;0,0291579
3569,5923;0,0289899
3570,5564;0,0289899
3571,5208;0,0290305
3572,4849;0,0290251
3573,4492;0,0289416
3574,4133;0,0287929
3575,3777;0,0286106
3576,3418;0,0284146
3577,3062;0,0282041
3578,2703;0,0279768
3579,2346;0,0277566
3580,1987;0,0275972
3581,1631;0,0275511
3582,1272;0,0276256
3583,0916;0,0277551
3584,0557;0,027807
3585,0200;0,0276255
3585,9841;0,0271293
3586,9485;0,0264228
3587,9126;0,0257708
3588,8770;0,0253911
3589,8411;0,0253037
3590,8054;0,0253772
3591,7695;0,0254459
3592,7339;0,0253888
3593,6980;0,0251726
3594,6624;0,0248563
3595,6265;0,0245371
3596,5908;0,0242693
3597,5549;0,0240347
3598,5193;0,0237878
3599,4834;0,0235216
3600,4478;0,0232917
3601,4119;0,0231755
3602,3762;0,0232024
3603,3403;0,0233241
3604,3047;0,0234378
3605,2688;0,0234378
3606,2332;0,023268
3607,1973;0,0229571
3608,1616;0,0226036
3609,1257;0,022304
3610,0901;0,0220915
3611,0542;0,0219431
3612,0186;0,0218298
3612,9827;0,0217476
3613,9470;0,0217039
3614,9111;0,0216785
3615,8755;0,0216011
3616,8396;0,0213703
3617,8040;0,0209214
3618,7681;0,0203105
3619,7324;0,0197307
3620,6965;0,019396
3621,6609;0,0194015
3622,6250;0,0197016
3623,5894;0,0201695
3624,5535;0,0206369
3625,5178;0,0208971
3626,4819;0,0207255
3627,4463;0,0200088
3628,4104;0,0189509
3629,3748;0,0180192
3630,3389;0,017527
3631,3032;0,0174324
3632,2673;0,0175292
3633,2317;0,0176426
3634,1958;0,0176877
3635,1602;0,0176592
3636,1243;0,0175944
3637,0886;0,0175302
3638,0527;0,017478
3639,0171;0,0174326
3639,9812;0,0174002
3640,9456;0,0174159
3641,9097;0,0175306
3642,8740;0,0177745
3643,8381;0,0181202
3644,8025;0,0184557
3645,7666;0,018568
3646,7310;0,0181731
3647,6951;0,0171114
3648,6594;0,0156956
3649,6235;0,0146274
3650,5879;0,0142875
3651,5520;0,0145027
3652,5164;0,0149254
3653,4805;0,0152835
3654,4448;0,0154189
3655,4089;0,0152984
3656,3733;0,0150234
3657,3374;0,0147651
3658,3018;0,0146369
3659,2659;0,0146319
3660,2302;0,0146741
3661,1943;0,014705
3662,1587;0,0147311
3663,1228;0,0148101
3664,0872;0,0149899
3665,0513;0,0152493
3666,0156;0,0154828
3666,9797;0,0155388
3667,9441;0,0153147
3668,9082;0,0148807
3669,8726;0,0144859
3670,8367;0,0143444
3671,8010;0,014439
3672,7651;0,014557
3673,7295;0,0144478
3674,6936;0,0139987
3675,6580;0,0133664
3676,6221;0,0128674
3677,5864;0,0126764
3678,5505;0,0127365
3679,5149;0,0129111
3680,4790;0,0131111
3681,4434;0,0133233
3682,4075;0,0135823
3683,3718;0,0139201
3684,3359;0,014318
3685,3003;0,0146815
3686,2644;0,0148462
3687,2288;0,0146355
3688,1929;0,0140018
3689,1572;0,0131658
3690,1213;0,0125047
3691,0857;0,0122341
3692,0498;0,0123085
3693,0142;0,0125756
3693,9783;0,0129093
3694,9426;0,0132417
3695,9067;0,0135447
3696,8711;0,0137996
3697,8352;0,0139739
3698,7996;0,0140176
3699,7637;0,0138892
3700,7280;0,0136044
3701,6921;0,0132657
3702,6565;0,0130233
3703,6206;0,0129861
3704,5850;0,0131687
3705,5491;0,0135036
3706,5134;0,0138739
3707,4775;0,0141325
3708,4419;0,0141235
3709,4060;0,0137518
3710,3704;0,0131028
3711,3345;0,012462
3712,2988;0,0121058
3713,2629;0,0121013
3714,2273;0,0123474
3715,1914;0,0127064
3716,1558;0,0130678
3717,1199;0,0133583
3718,0842;0,0135424
3719,0483;0,0136234
3720,0127;0,0136337
3720,9768;0,013607
3721,9412;0,0135516
3722,9053;0,0134529
3723,8696;0,0133067
3724,8337;0,0131509
3725,7981;0,0130581
3726,7622;0,0130927
3727,7266;0,0132745
3728,6907;0,013577
3729,6550;0,0139422
3730,6191;0,0142895
3731,5835;0,0145113
3732,5476;0,0144782
3733,5120;0,0140947
3734,4761;0,0134198
3735,4404;0,0127199
3736,4045;0,012303
3737,3689;0,0123074
3738,3330;0,0126838
3739,2974;0,0132893
3740,2615;0,0139437
3741,2258;0,0144398
3742,1899;0,0145747
3743,1543;0,0142735
3744,1184;0,0137394
3745,0828;0,0133552
3746,0469;0,0133293
3747,0112;0,0135459
3747,9753;0,0137085
3748,9397;0,0135246
3749,9038;0,0129063
3750,8682;0,0121352
3751,8323;0,011669
3752,7966;0,0117019
3753,7607;0,012093
3754,7251;0,0125945
3755,6892;0,0129943
3756,6536;0,0131554
3757,6177;0,0130519
3758,5820;0,0127945
3759,5461;0,0125697
3760,5105;0,0125112
3761,4746;0,0126318
3762,4390;0,0128594
3763,4031;0,0131014
3764,3674;0,0132854
3765,3315;0,0133706
3766,2959;0,0133424
3767,2600;0,0132005
3768,2244;0,012959
3769,1885;0,0126629
3770,1528;0,0123978
3771,1169;0,0122623
3772,0813;0,012315
3773,0454;0,0125432
3774,0098;0,0128712
3774,9739;0,0131892
3775,9382;0,013386
3776,9023;0,0133905
3777,8667;0,0132173
3778,8308;0,0129727
3779,7952;0,0127855
3780,7593;0,0127175
3781,7236;0,0127418
3782,6877;0,0127904
3783,6521;0,0128084
3784,6162;0,0127806
3785,5806;0,0127276
3786,5447;0,0126862
3787,5090;0,0126887
3788,4731;0,0127545
3789,4375;0,0128885
3790,4016;0,0130783
3791,3660;0,0132915
3792,3301;0,0134817
3793,2944;0,0136085
3794,2585;0,0136636
3795,2229;0,0136805
3796,1870;0,0137048
3797,1514;0,0137426
3798,1155;0,013732
3799,0798;0,013579
3800,0439;0,0132519
3801,0083;0,0128583
3801,9724;0,0125863
3802,9368;0,0125347
3803,9009;0,0126334
3804,8652;0,0127203
3805,8293;0,0126696
3806,7937;0,0124917
3807,7578;0,0123394
3808,7222;0,0123849
3809,6863;0,0126841
3810,6506;0,0131592
3811,6147;0,013662
3812,5791;0,0140329
3813,5432;0,0141589
3814,5076;0,0140423
3815,4717;0,0138199
3816,4360;0,0136521
3817,4001;0,0135747
3818,3645;0,0134825
3819,3286;0,0132502
3820,2930;0,0128731
3821,2571;0,0124996
3822,2214;0,0123001
3823,1855;0,0123238
3824,1499;0,0125031
3825,1140;0,0127404
3826,0784;0,0129655
3827,0425;0,0131501
3828,0068;0,0132967
3828,9709;0,0134197
3829,9353;0,0135303
3830,8994;0,013635
3831,8638;0,0137395
3832,8279;0,0138463
3833,7922;0,0139413
3834,7563;0,013982
3835,7207;0,0139086
3836,6848;0,0136859
3837,6492;0,0133523
3838,6133;0,0130166
3839,5776;0,0127803
3840,5417;0,0126677
3841,5061;0,012636
3842,4702;0,0126357
3843,4346;0,0126582
3844,3987;0,0127423
3845,3630;0,0129492
3846,3271;0,013325
3847,2915;0,0138738
3848,2556;0,014544
3849,2200;0,0152095
3850,1841;0,0156414
3851,1484;0,0155193
3852,1125;0,0146342
3853,0769;0,013285
3854,0410;0,0121994
3855,0054;0,011785
3855,9695;0,0119278
3856,9338;0,012376
3857,8979;0,0129426
3858,8623;0,0134967
3859,8264;0,0139259
3860,7908;0,014137
3861,7549;0,0140991
3862,7192;0,0138925
3863,6833;0,0136852
3864,6477;0,0136215
3865,6118;0,0137296
3866,5762;0,0139282
3867,5403;0,0140887
3868,5046;0,0140986
3869,4688;0,0139128
3870,4331;0,0135813
3871,3972;0,0132278
3872,3616;0,0129818
3873,3257;0,0129193
3874,2900;0,0130466
3875,2542;0,013314
3876,2185;0,0136377
3877,1826;0,0139224
3878,1470;0,0140911
3879,1111;0,0141197
3880,0754;0,0140498
3881,0396;0,0139517
3882,0039;0,0138598
3882,9680;0,0137536
3883,9324;0,0136068
3884,8965;0,0134484
3885,8608;0,0133603
3886,8250;0,0134049
3887,7893;0,0135575
3888,7534;0,0137073
3889,7178;0,0137238
3890,6819;0,0135535
3891,6462;0,0132892
3892,6104;0,0131214
3893,5747;0,013189
3894,5388;0,013492
3895,5032;0,0139289
3896,4673;0,0143677
3897,4316;0,0146949
3898,3958;0,0148461
3899,3601;0,0148153
3900,3242;0,0146295
3901,2886;0,014312
3902,2527;0,0138864
3903,2170;0,0134168
3904,1812;0,0130136
3905,1455;0,012774
3906,1096;0,0127234
3907,0740;0,0128168
3908,0381;0,0129818
3909,0024;0,0131584
3909,9666;0,0133198
3910,9309;0,0134726
3911,8950;0,0136366
3912,8594;0,0138162
3913,8235;0,0139825
3914,7878;0,0140799
3915,7520;0,0140608
3916,7163;0,013929
3917,6804;0,0137526
3918,6448;0,013623
3919,6089;0,013591
3920,5732;0,0136401
3921,5374;0,0137086
3922,5017;0,0137344
3923,4658;0,0136969
3924,4302;0,0136321
3925,3943;0,0136047
3926,3586;0,0136563
3927,3228;0,0137736
3928,2871;0,0138951
3929,2512;0,0139448
3930,2156;0,0138736
3931,1797;0,0136925
3932,1440;0,0134706
3933,1082;0,0132933
3934,0725;0,0132157
3935,0366;0,0132489
3936,0010;0,0133734
3936,9651;0,0135538
3937,9294;0,0137457
3938,8936;0,0139006
3939,8579;0,0139775
3940,8220;0,013963
3941,7864;0,0138862
3942,7505;0,0138084
3943,7148;0,0137853
3944,6790;0,0138295
3945,6433;0,013903
3946,6074;0,0139424
3947,5718;0,013898
3948,5359;0,0137668
3949,5002;0,0135963
3950,4644;0,0134529
3951,4287;0,0133797
3952,3928;0,0133785
3953,3572;0,013423
3954,3213;0,0134838
3955,2856;0,013545
3956,2498;0,0136049
3957,2141;0,0136644
3958,1782;0,0137162
3959,1426;0,0137445
3960,1067;0,0137353
3961,0710;0,0136889
3962,0352;0,0136238
3962,9995;0,0135668
3963,9636;0,0135389
3964,9280;0,0135448
3965,8921;0,0135748
3966,8564;0,0136133
3967,8206;0,0136483
3968,7849;0,0136758
3969,7490;0,013697
3970,7134;0,0137128
3971,6775;0,01372
3972,6418;0,0137129
3973,6060;0,0136889
3974,5703;0,013653
3975,5344;0,0136172
3976,4988;0,0135944
3977,4629;0,0135909
3978,4272;0,013603
3979,3914;0,01362
3980,3557;0,0136312
3981,3198;0,0136321
3982,2842;0,0136265
3983,2483;0,0136227
3984,2126;0,0136271
3985,1768;0,0136396
3986,1411;0,0136544
3987,1052;0,0136644
3988,0696;0,0136667
3989,0337;0,013664
3989,9980;0,0136619
3990,9622;0,0136634
3991,9265;0,0136664
3992,8906;0,0136647
3993,8550;0,0136543
3994,8191;0,0136367
3995,7834;0,0136187
3996,7476;0,0136073
3997,7119;0,0136046
3998,6760;0,0136073
3999,6404;0,0136108
4000,6045;0,0135134

##### Extended Information
[Comments]
Sample name
Comment
Username
Division
Organization;UNIVERSIDAD INDUSTRIAL DE SANTANDER

[Detailed Information]
Creation date;28/02/2025 5:27 p.m.

Data array type;Linear data array
Horizontal axis;Wavenumber [cm-1]
Vertical axis;Abs
Start;399,193 cm-1
End;4000,6 cm-1
Data interval;0,964233 cm-1
Data points;3736    

[Measurement Information]
Model name;FT/IR-4X1typeA
Serial No.;A035162111

Accessory;ATR PRO 4X
Accessory S/N;A021162126
Incident angle;45 deg

Measurement date;28/02/2025 5:26 p.m.

Light source;Standard
Detector;TGS
Accumulation;40
Resolution;4 cm-1
Zero filling;On
Apodization;Cosine
Gain;Auto (8)
Aperture;Auto (7 mm)
Scan speed;Auto (2 mm/sec)
Filter;Auto (12800 Hz)

