TITLE;
DATA TYPE;INFRARED SPECTRUM
ORIGIN;JASCO
OWNER;
DATE;25/02/28
TIME;18:26:44
SPECTROMETER/DATA SYSTEM;
LOCALE;9226
RESOLUTION;
DELTAX;0,964233
XUNITS;1/CM
YUNITS;ABSORBANCE
FIRSTX;  399,1927
LASTX; 4000,6047
NPOINTS;    3736
FIRSTY;     0,16596
MAXY;     0,24647
MINY;     0,01424
XYDATA
399,1927;0,165964
400,1569;0,164561
401,1211;0,165445
402,0854;0,16767
403,0496;0,170188
404,0138;0,172123
404,9781;0,172888
405,9423;0,1723
406,9065;0,170646
407,8708;0,168554
408,8350;0,166724
409,7992;0,165679
410,7635;0,165622
411,7277;0,166426
412,6919;0,167755
413,6562;0,169281
414,6204;0,170835
415,5846;0,172389
416,5489;0,17391
417,5131;0,175181
418,4773;0,175775
419,4416;0,175449
420,4058;0,174563
421,3700;0,173784
422,3343;0,173549
423,2985;0,173936
424,2627;0,174783
425,2270;0,175795
426,1912;0,176662
427,1554;0,17718
428,1197;0,177317
429,0839;0,177186
430,0481;0,176978
431,0124;0,17688
431,9766;0,177014
432,9408;0,177384
433,9051;0,177864
434,8693;0,178234
435,8335;0,178287
436,7978;0,177942
437,7620;0,177295
438,7262;0,176575
439,6905;0,176032
440,6547;0,175849
441,6189;0,176071
442,5832;0,176578
443,5474;0,177116
444,5116;0,177404
445,4759;0,177284
446,4401;0,176781
447,4043;0,176064
448,3686;0,175349
449,3328;0,174809
450,2970;0,174526
451,2613;0,174481
452,2255;0,174588
453,1897;0,174746
454,1540;0,174874
455,1182;0,174922
456,0824;0,174857
457,0467;0,174673
458,0109;0,174399
458,9751;0,174111
459,9394;0,173888
460,9036;0,173764
461,8678;0,173708
462,8321;0,173657
463,7963;0,173556
464,7605;0,173392
465,7248;0,173206
466,6890;0,17307
467,6532;0,173032
468,6175;0,173075
469,5817;0,173128
470,5459;0,173114
471,5102;0,173018
472,4744;0,17293
473,4386;0,172996
474,4029;0,173306
475,3671;0,173806
476,3313;0,174326
477,2956;0,174663
478,2598;0,174686
479,2240;0,174407
480,1883;0,173978
481,1525;0,173628
482,1167;0,173555
483,0810;0,173843
484,0452;0,174439
485,0094;0,175187
485,9737;0,175911
486,9379;0,176486
487,9021;0,176847
488,8664;0,176969
489,8306;0,176856
490,7948;0,176547
491,7591;0,176145
492,7233;0,175809
493,6875;0,175704
494,6518;0,175931
495,6160;0,176473
496,5802;0,1772
497,5445;0,177923
498,5087;0,178467
499,4729;0,178742
500,4372;0,178778
501,4014;0,178705
502,3656;0,178684
503,3299;0,17881
504,2941;0,179068
505,2583;0,179375
506,2226;0,179655
507,1868;0,179897
508,1510;0,180155
509,1153;0,180503
510,0795;0,180987
511,0437;0,181592
512,0080;0,182262
512,9722;0,182924
513,9365;0,183508
514,9007;0,183969
515,8649;0,184289
516,8292;0,184501
517,7934;0,184681
518,7576;0,184914
519,7219;0,185238
520,6861;0,185611
521,6503;0,185946
522,6146;0,186164
523,5788;0,18624
524,5430;0,186222
525,5073;0,186198
526,4715;0,186238
527,4357;0,186331
528,4000;0,186399
529,3642;0,186356
530,3284;0,186165
531,2927;0,185856
532,2569;0,185497
533,2211;0,185151
534,1854;0,184844
535,1496;0,184561
536,1138;0,184277
537,0781;0,183992
538,0423;0,183738
539,0065;0,183561
539,9708;0,183494
540,9350;0,183532
541,8992;0,183644
542,8635;0,183795
543,8277;0,183961
544,7919;0,184144
545,7562;0,184354
546,7204;0,184605
547,6846;0,184898
548,6489;0,185231
549,6131;0,185603
550,5773;0,18602
551,5416;0,186486
552,5058;0,186997
553,4700;0,187537
554,4343;0,188073
555,3985;0,188556
556,3627;0,188919
557,3270;0,189085
558,2912;0,188988
559,2554;0,188599
560,2197;0,187949
561,1839;0,187125
562,1481;0,186236
563,1124;0,185368
564,0766;0,184548
565,0408;0,183753
566,0051;0,182951
566,9693;0,182146
567,9335;0,181395
568,8978;0,180773
569,8620;0,180332
570,8262;0,180058
571,7905;0,179889
572,7547;0,179757
573,7189;0,179625
574,6832;0,179495
575,6474;0,179386
576,6116;0,179304
577,5759;0,17922
578,5401;0,179085
579,5043;0,178867
580,4686;0,178572
581,4328;0,178253
582,3970;0,177982
583,3613;0,177809
584,3255;0,177741
585,2897;0,177735
586,2540;0,177735
587,2182;0,1777
588,1824;0,177623
589,1467;0,17753
590,1109;0,177455
591,0751;0,177415
592,0394;0,1774
593,0036;0,177369
593,9678;0,177274
594,9321;0,177073
595,8963;0,17675
596,8605;0,176317
597,8248;0,175814
598,7890;0,175301
599,7532;0,174832
600,7175;0,174436
601,6817;0,174102
602,6459;0,173794
603,6102;0,173482
604,5744;0,173161
605,5386;0,172845
606,5029;0,172542
607,4671;0,172226
608,4313;0,171836
609,3956;0,171313
610,3598;0,170639
611,3240;0,169856
612,2883;0,169049
613,2525;0,168296
614,2167;0,167627
615,1810;0,167016
616,1452;0,166404
617,1094;0,165732
618,0737;0,16497
619,0379;0,164119
620,0021;0,163188
620,9664;0,162188
621,9306;0,161121
622,8948;0,160005
623,8591;0,15887
624,8233;0,157773
625,7875;0,156749
626,7518;0,155828
627,7160;0,155013
628,6802;0,154288
629,6445;0,153622
630,6087;0,152984
631,5729;0,15235
632,5372;0,151709
633,5014;0,151075
634,4656;0,150473
635,4299;0,149926
636,3941;0,149434
637,3583;0,148972
638,3226;0,1485
639,2868;0,147985
640,2510;0,147423
641,2153;0,146836
642,1795;0,146264
643,1437;0,145742
644,1080;0,145292
645,0722;0,144917
646,0364;0,1446
647,0007;0,144317
647,9649;0,144032
648,9291;0,143716
649,8934;0,143357
650,8576;0,142971
651,8218;0,142597
652,7861;0,142283
653,7503;0,142078
654,7145;0,142015
655,6788;0,142109
656,6430;0,142343
657,6072;0,142665
658,5715;0,142986
659,5357;0,1432
660,4999;0,143227
661,4642;0,143069
662,4284;0,142819
663,3926;0,142606
664,3569;0,142513
665,3211;0,142513
666,2853;0,142423
667,2496;0,141921
668,2138;0,140779
669,1780;0,139205
670,1423;0,137641
671,1065;0,13627
672,0707;0,135016
673,0350;0,133738
673,9992;0,132329
674,9634;0,130763
675,9277;0,129115
676,8919;0,127514
677,8561;0,12606
678,8204;0,12478
679,7846;0,123648
680,7488;0,122629
681,7131;0,121699
682,6773;0,120842
683,6415;0,120049
684,6058;0,119321
685,5700;0,11867
686,5342;0,118112
687,4985;0,117652
688,4627;0,117271
689,4269;0,116943
690,3912;0,116642
691,3554;0,11635
692,3196;0,116053
693,2839;0,115737
694,2481;0,115385
695,2123;0,114988
696,1766;0,114555
697,1408;0,114112
698,1050;0,11369
699,0693;0,11331
700,0335;0,112967
700,9977;0,112634
701,9620;0,112268
702,9262;0,111834
703,8904;0,111317
704,8547;0,110731
705,8189;0,110114
706,7831;0,109513
707,7474;0,108968
708,7116;0,108495
709,6758;0,108087
710,6401;0,107718
711,6043;0,107356
712,5685;0,106973
713,5328;0,106549
714,4970;0,106075
715,4612;0,105676
716,4255;0,105083
717,3897;0,104446
718,3539;0,10378
719,3182;0,1031
720,2824;0,102416
721,2466;0,101732
722,2109;0,101042
723,1751;0,100339
724,1393;0,0996186
725,1036;0,0988838
726,0678;0,0981444
727,0320;0,0974135
727,9963;0,0967007
728,9605;0,0960074
729,9247;0,0953272
730,8890;0,0946534
731,8532;0,0939881
732,8174;0,0933446
733,7817;0,0927421
734,7459;0,0921931
735,7101;0,0916937
736,6744;0,0912245
737,6386;0,0907614
738,6028;0,0902895
739,5671;0,0898109
740,5313;0,0893395
741,4955;0,0888883
742,4598;0,0884589
743,4240;0,0880407
744,3882;0,0876213
745,3525;0,0871973
746,3167;0,0867763
747,2809;0,0863679
748,2452;0,08597
749,2094;0,0855641
750,1736;0,0851238
751,1379;0,0846329
752,1021;0,0841001
753,0663;0,0835579
754,0306;0,083047
754,9948;0,0825953
755,9590;0,0822051
756,9233;0,0818561
757,8875;0,0815184
758,8517;0,0811669
759,8160;0,080789
760,7802;0,0803836
761,7444;0,0799583
762,7087;0,0795263
763,6729;0,0791066
764,6371;0,078721
765,6014;0,0783891
766,5656;0,078119
767,5298;0,0779021
768,4941;0,0777147
769,4583;0,077527
770,4225;0,0773146
771,3868;0,0770664
772,3510;0,076785
773,3152;0,0764814
774,2795;0,0761686
775,2437;0,0758586
776,2079;0,0755617
777,1722;0,0752875
778,1364;0,0750411
779,1006;0,074819
780,0649;0,0746059
781,0291;0,0743771
781,9933;0,0741077
782,9576;0,0737838
783,9218;0,0734085
784,8860;0,073001
785,8503;0,0725883
786,8145;0,0721955
787,7787;0,0718386
788,7430;0,071522
789,7072;0,071241
790,6714;0,070984
791,6357;0,0707379
792,5999;0,0704916
793,5641;0,0702421
794,5284;0,0699957
795,4926;0,0697675
796,4568;0,0695746
797,4211;0,0694282
798,3853;0,0693281
799,3495;0,0692616
800,3138;0,0692071
801,2780;0,069139
802,2422;0,0690342
803,2065;0,0688773
804,1707;0,0686673
805,1349;0,0684213
806,0992;0,068173
807,0634;0,0679615
808,0276;0,0678154
808,9919;0,0677378
809,9561;0,0677039
810,9203;0,0676735
811,8846;0,0676116
812,8488;0,067505
813,8130;0,0673646
814,7773;0,0672128
815,7415;0,0670673
816,7057;0,0669316
817,6700;0,066799
818,6342;0,0666641
819,5984;0,0665312
820,5627;0,0664122
821,5269;0,0663168
822,4911;0,0662439
823,4554;0,0661814
824,4196;0,0661153
825,3839;0,0660399
826,3481;0,0659607
827,3123;0,0658885
828,2766;0,0658286
829,2408;0,0657742
830,2050;0,0657085
831,1693;0,0656139
832,1335;0,0654809
833,0977;0,0653119
834,0620;0,0651175
835,0262;0,0649096
835,9904;0,0646946
836,9547;0,0644717
837,9189;0,0642373
838,8831;0,0639908
839,8474;0,0637398
840,8116;0,0635011
841,7758;0,063295
842,7401;0,063137
843,7043;0,0630295
844,6685;0,0629597
845,6328;0,0629056
846,5970;0,0628454
847,5612;0,0627686
848,5255;0,0626784
849,4897;0,0625886
850,4539;0,0625134
851,4182;0,0624591
852,3824;0,0624211
853,3466;0,0623875
854,3109;0,062346
855,2751;0,0622911
856,2393;0,0622258
857,2036;0,062159
858,1678;0,0621014
859,1320;0,0620605
860,0963;0,062039
861,0605;0,0620349
862,0247;0,0620443
862,9890;0,0620645
863,9532;0,0620966
864,9174;0,062146
865,8817;0,0622213
866,8459;0,06233
867,8101;0,062474
868,7744;0,0626466
869,7386;0,0628336
870,7028;0,0630177
871,6671;0,0631851
872,6313;0,0633294
873,5955;0,0634519
874,5598;0,0635569
875,5240;0,0636473
876,4882;0,0637217
877,4525;0,063778
878,4167;0,0638194
879,3809;0,0638596
880,3452;0,0639234
881,3094;0,0640423
882,2736;0,0642448
883,2379;0,0645483
884,2021;0,064955
885,1663;0,0654541
886,1306;0,0660292
887,0948;0,0666684
888,0590;0,0673695
889,0233;0,068139
889,9875;0,068982
890,9517;0,0698888
891,9160;0,0708251
892,8802;0,0717334
893,8444;0,0725469
894,8087;0,0732087
895,7729;0,0736868
896,7371;0,0739752
897,7014;0,074084
898,6656;0,0740251
899,6298;0,0738068
900,5941;0,0734375
901,5583;0,0729368
902,5225;0,0723408
903,4868;0,0716969
904,4510;0,0710511
905,4152;0,0704365
906,3795;0,0698714
907,3437;0,0693668
908,3079;0,068935
909,2722;0,0685923
910,2364;0,0683522
911,2007;0,0682175
912,1649;0,0681762
913,1292;0,0682079
914,0934;0,0682931
915,0576;0,0684215
916,0219;0,0685912
916,9861;0,0688035
917,9503;0,0690558
918,9146;0,0693406
919,8788;0,0696474
920,8430;0,0699663
921,8073;0,0702892
922,7715;0,0706085
923,7357;0,0709155
924,7000;0,0712013
925,6642;0,0714591
926,6284;0,0716856
927,5927;0,0718819
928,5569;0,0720517
929,5211;0,0722011
930,4854;0,0723393
931,4496;0,0724781
932,4138;0,0726305
933,3781;0,0728064
934,3423;0,0730094
935,3065;0,0732374
936,2708;0,0734878
937,2350;0,0737638
938,1992;0,074077
939,1635;0,0744436
940,1277;0,0748761
941,0919;0,0753755
942,0562;0,0759308
943,0204;0,076526
943,9846;0,0771514
944,9489;0,0778107
945,9131;0,0785208
946,8773;0,0793024
947,8416;0,0801687
948,8058;0,0811188
949,7700;0,0821406
950,7343;0,0832208
951,6985;0,0843555
952,6627;0,0855542
953,6270;0,0868345
954,5912;0,0882114
955,5554;0,0896881
956,5197;0,0912549
957,4839;0,0928951
958,4481;0,0945933
959,4124;0,0963395
960,3766;0,0981274
961,3408;0,0999495
962,3051;0,101795
963,2693;0,103652
964,2335;0,105517
965,1978;0,107393
966,1620;0,109293
967,1262;0,111234
968,0905;0,113233
969,0547;0,115305
970,0189;0,117476
970,9832;0,119779
971,9474;0,122257
972,9116;0,124954
973,8759;0,127902
974,8401;0,131116
975,8043;0,134594
976,7686;0,138321
977,7328;0,142272
978,6970;0,14641
979,6613;0,150672
980,6255;0,154965
981,5897;0,159168
982,5540;0,163154
983,5182;0,166812
984,4824;0,170071
985,4467;0,17291
986,4109;0,17535
987,3751;0,177436
988,3394;0,179217
989,3036;0,180738
990,2678;0,182035
991,2321;0,183136
992,1963;0,184071
993,1605;0,184867
994,1248;0,185553
995,0890;0,18616
996,0532;0,18672
997,0175;0,187266
997,9817;0,187826
998,9459;0,18842
999,9102;0,189058
1000,8744;0,189745
1001,8386;0,190488
1002,8029;0,191303
1003,7671;0,192213
1004,7313;0,19325
1005,6956;0,194451
1006,6598;0,195853
1007,6240;0,197492
1008,5883;0,199393
1009,5525;0,201562
1010,5167;0,203978
1011,4810;0,206593
1012,4452;0,209338
1013,4094;0,21214
1014,3737;0,214936
1015,3379;0,217681
1016,3021;0,220346
1017,2664;0,222915
1018,2306;0,225379
1019,1948;0,227729
1020,1591;0,229968
1021,1233;0,2321
1022,0875;0,234133
1023,0518;0,236074
1024,0160;0,23792
1024,9802;0,239661
1025,9445;0,241278
1026,9087;0,242746
1027,8729;0,244036
1028,8372;0,245108
1029,8014;0,245915
1030,7656;0,246392
1031,7299;0,246469
1032,6941;0,246086
1033,6583;0,24521
1034,6226;0,243862
1035,5868;0,242119
1036,5510;0,240113
1037,5153;0,238006
1038,4795;0,235964
1039,4437;0,234128
1040,4080;0,232596
1041,3722;0,231412
1042,3364;0,230568
1043,3007;0,230003
1044,2649;0,229625
1045,2291;0,229325
1046,1934;0,229001
1047,1576;0,228578
1048,1218;0,228001
1049,0861;0,227236
1050,0503;0,226258
1051,0145;0,225044
1051,9788;0,223577
1052,9430;0,221859
1053,9072;0,219912
1054,8715;0,217769
1055,8357;0,215457
1056,7999;0,212978
1057,7642;0,2103
1058,7284;0,207376
1059,6926;0,20417
1060,6569;0,20069
1061,6211;0,197001
1062,5853;0,193218
1063,5496;0,189472
1064,5138;0,18588
1065,4780;0,182514
1066,4423;0,1794
1067,4065;0,176528
1068,3707;0,173869
1069,3350;0,171397
1070,2992;0,169082
1071,2634;0,166892
1072,2277;0,164787
1073,1919;0,162713
1074,1561;0,160621
1075,1204;0,158472
1076,0846;0,156257
1077,0488;0,153993
1078,0131;0,151726
1078,9773;0,149514
1079,9415;0,147419
1080,9058;0,145491
1081,8700;0,143761
1082,8342;0,142236
1083,7985;0,140905
1084,7627;0,139749
1085,7269;0,138747
1086,6912;0,137878
1087,6554;0,137127
1088,6196;0,13648
1089,5839;0,135925
1090,5481;0,135459
1091,5123;0,135087
1092,4766;0,134816
1093,4408;0,134651
1094,4050;0,134589
1095,3693;0,134613
1096,3335;0,134703
1097,2977;0,134835
1098,2620;0,134995
1099,2262;0,13517
1100,1904;0,135348
1101,1547;0,135508
1102,1189;0,135623
1103,0831;0,135661
1104,0474;0,135595
1105,0116;0,135411
1105,9758;0,13511
1106,9401;0,134706
1107,9043;0,134206
1108,8685;0,133605
1109,8328;0,132878
1110,7970;0,131985
1111,7612;0,130892
1112,7255;0,129594
1113,6897;0,128128
1114,6539;0,12657
1115,6182;0,125017
1116,5824;0,123552
1117,5466;0,122216
1118,5109;0,121005
1119,4751;0,119869
1120,4393;0,11874
1121,4036;0,117547
1122,3678;0,116236
1123,3320;0,11477
1124,2963;0,113132
1125,2605;0,11132
1126,2247;0,109346
1127,1890;0,107236
1128,1532;0,105033
1129,1174;0,102784
1130,0817;0,100539
1131,0459;0,0983402
1132,0101;0,0962206
1132,9744;0,0942028
1133,9386;0,0923063
1134,9028;0,0905529
1135,8671;0,0889705
1136,8313;0,0875917
1137,7955;0,0864465
1138,7598;0,0855538
1139,7240;0,0849135
1140,6882;0,0845048
1141,6525;0,0842901
1142,6167;0,0842255
1143,5809;0,084271
1144,5452;0,0843991
1145,5094;0,0845972
1146,4736;0,0848652
1147,4379;0,0852091
1148,4021;0,0856348
1149,3663;0,0861428
1150,3306;0,0867247
1151,2948;0,087361
1152,2590;0,0880213
1153,2233;0,0886674
1154,1875;0,0892571
1155,1517;0,089747
1156,1160;0,0900935
1157,0802;0,0902501
1158,0444;0,0901633
1159,0087;0,0897724
1159,9729;0,0890158
1160,9371;0,087843
1161,9014;0,0862296
1162,8656;0,0841888
1163,8298;0,0817746
1164,7941;0,0790755
1165,7583;0,0762016
1166,7225;0,0732686
1167,6868;0,0703832
1168,6510;0,067632
1169,6152;0,0650749
1170,5795;0,0627445
1171,5437;0,0606506
1172,5079;0,0587877
1173,4722;0,0571429
1174,4364;0,0557006
1175,4006;0,0544445
1176,3649;0,0533574
1177,3291;0,0524222
1178,2933;0,0516229
1179,2576;0,0509463
1180,2218;0,0503828
1181,1860;0,0499246
1182,1503;0,0495635
1183,1145;0,04929
1184,0787;0,0490937
1185,0430;0,0489659
1186,0072;0,0489015
1186,9714;0,0488997
1187,9357;0,0489643
1188,8999;0,0491012
1189,8641;0,0493176
1190,8284;0,0496192
1191,7926;0,0500087
1192,7568;0,0504842
1193,7211;0,0510387
1194,6853;0,0516612
1195,6495;0,0523376
1196,6138;0,0530534
1197,5780;0,0537936
1198,5422;0,0545442
1199,5065;0,0552744
1200,4707;0,0560112
1201,4349;0,0567277
1202,3992;0,0574208
1203,3634;0,0580901
1204,3276;0,0587362
1205,2919;0,0593595
1206,2561;0,0599625
1207,2203;0,0605532
1208,1846;0,0611478
1209,1488;0,0617701
1210,1130;0,0624457
1211,0773;0,0631945
1212,0415;0,0640238
1213,0057;0,0649268
1213,9700;0,0658869
1214,9342;0,0668849
1215,8984;0,0679042
1216,8627;0,0689322
1217,8269;0,0699589
1218,7911;0,070975
1219,7554;0,0719708
1220,7196;0,0729375
1221,6838;0,0738682
1222,6481;0,0747585
1223,6123;0,0756059
1224,5765;0,07641
1225,5408;0,077172
1226,5050;0,077895
1227,4692;0,0785823
1228,4335;0,0792353
1229,3977;0,0798512
1230,3619;0,0804221
1231,3262;0,0809376
1232,2904;0,0813881
1233,2546;0,0817694
1234,2189;0,0820838
1235,1831;0,0823397
1236,1473;0,0825482
1237,1116;0,0827205
1238,0758;0,0828645
1239,0400;0,0829837
1240,0043;0,0830759
1240,9685;0,0831339
1241,9327;0,0831464
1242,8970;0,0831006
1243,8612;0,0829863
1244,8254;0,0827989
1245,7897;0,0825424
1246,7539;0,0822281
1247,7181;0,0818719
1248,6824;0,0814897
1249,6466;0,0810929
1250,6108;0,0806874
1251,5751;0,080274
1252,5393;0,079852
1253,5035;0,0794208
1254,4678;0,0789808
1255,4320;0,0785307
1256,3962;0,0780664
1257,3605;0,0775804
1258,3247;0,0770649
1259,2889;0,0765154
1260,2532;0,0759323
1261,2174;0,0753199
1262,1816;0,0746821
1263,1459;0,0740185
1264,1101;0,0733237
1265,0743;0,0725892
1266,0386;0,0718074
1267,0028;0,0709754
1267,9670;0,070097
1268,9313;0,0691832
1269,8955;0,06825
1270,8597;0,0673143
1271,8240;0,0663891
1272,7882;0,0654807
1273,7524;0,064589
1274,7167;0,0637121
1275,6809;0,0628506
1276,6451;0,06201
1277,6094;0,061198
1278,5736;0,0604199
1279,5378;0,0596755
1280,5021;0,0589597
1281,4663;0,0582673
1282,4305;0,0575968
1283,3948;0,0569528
1284,3590;0,0563437
1285,3232;0,055779
1286,2875;0,0552674
1287,2517;0,0548173
1288,2159;0,0544372
1289,1802;0,0541351
1290,1444;0,0539171
1291,1086;0,0537844
1292,0729;0,0537335
1293,0371;0,0537575
1294,0013;0,0538487
1294,9656;0,0540019
1295,9298;0,0542151
1296,8940;0,0544895
1297,8583;0,054828
1298,8225;0,0552312
1299,7867;0,0556959
1300,7510;0,0562131
1301,7152;0,0567711
1302,6794;0,0573594
1303,6437;0,0579724
1304,6079;0,0586113
1305,5721;0,0592804
1306,5364;0,0599829
1307,5006;0,0607167
1308,4648;0,0614744
1309,4291;0,062245
1310,3933;0,0630156
1311,3575;0,0637697
1312,3218;0,0644856
1313,2860;0,0651364
1314,2502;0,0656926
1315,2145;0,0661281
1316,1787;0,0664236
1317,1429;0,0665698
1318,1072;0,0665705
1319,0714;0,066444
1320,0356;0,0662206
1320,9999;0,0659355
1321,9641;0,0656207
1322,9283;0,0653016
1323,8926;0,0649979
1324,8568;0,0647252
1325,8210;0,0644939
1326,7853;0,0643056
1327,7495;0,0641518
1328,7137;0,064016
1329,6780;0,063879
1330,6422;0,0637245
1331,6064;0,0635421
1332,5707;0,0633258
1333,5349;0,0630694
1334,4991;0,0627618
1335,4634;0,0623864
1336,4276;0,0619266
1337,3918;0,0613804
1338,3561;0,0607762
1339,3203;0,0601749
1340,2845;0,059643
1341,2488;0,0592163
1342,2130;0,0588884
1343,1772;0,0586295
1344,1415;0,0584125
1345,1057;0,0582273
1346,0699;0,0580825
1347,0342;0,0579983
1347,9984;0,057996
1348,9626;0,0580874
1349,9269;0,0582694
1350,8911;0,0585251
1351,8553;0,0588317
1352,8196;0,0591724
1353,7838;0,0595452
1354,7480;0,0599624
1355,7123;0,0604388
1356,6765;0,0609762
1357,6407;0,0615572
1358,6050;0,0621527
1359,5692;0,062735
1360,5334;0,063288
1361,4977;0,0638105
1362,4619;0,0643106
1363,4261;0,0647948
1364,3904;0,0652597
1365,3546;0,0656949
1366,3188;0,0660892
1367,2831;0,0664349
1368,2473;0,0667263
1369,2115;0,0669554
1370,1758;0,0671066
1371,1400;0,0671551
1372,1042;0,0670737
1373,0685;0,0668496
1374,0327;0,0665025
1374,9969;0,0660823
1375,9612;0,0656336
1376,9254;0,0651567
1377,8896;0,0646078
1378,8539;0,0639364
1379,8181;0,0631297
1380,7823;0,0622318
1381,7466;0,0613192
1382,7108;0,0604475
1383,6750;0,0596152
1384,6393;0,0587736
1385,6035;0,0578789
1386,5677;0,0569557
1387,5320;0,0561118
1388,4962;0,0554653
1389,4604;0,0550531
1390,4247;0,0548225
1391,3889;0,0546872
1392,3531;0,0545759
1393,3174;0,0544534
1394,2816;0,0543217
1395,2458;0,0542077
1396,2101;0,0541413
1397,1743;0,0541394
1398,1385;0,0542048
1399,1028;0,0543331
1400,0670;0,0545134
1401,0313;0,0547282
1401,9955;0,0549572
1402,9597;0,055187
1403,9240;0,0554213
1404,8882;0,0556818
1405,8524;0,0559952
1406,8167;0,0563725
1407,7809;0,0568032
1408,7451;0,0572681
1409,7094;0,0577573
1410,6736;0,0582751
1411,6378;0,05883
1412,6021;0,0594196
1413,5663;0,0600222
1414,5305;0,0606033
1415,4948;0,0611252
1416,4590;0,061555
1417,4232;0,0618776
1418,3875;0,0621105
1419,3517;0,0622952
1420,3159;0,0624529
1421,2802;0,0625582
1422,2444;0,0625644
1423,2086;0,0624431
1424,1729;0,0622023
1425,1371;0,0618731
1426,1013;0,0614729
1427,0656;0,0609791
1428,0298;0,0603448
1428,9940;0,0595555
1429,9583;0,0586789
1430,9225;0,0578404
1431,8867;0,0571281
1432,8510;0,0565233
1433,8152;0,0559148
1434,7794;0,055174
1435,7437;0,0542677
1436,7079;0,05334
1437,6721;0,0526253
1438,6364;0,0522385
1439,6006;0,0521207
1440,5648;0,0521532
1441,5291;0,0522531
1442,4933;0,0523919
1443,4575;0,0525752
1444,4218;0,0528138
1445,3860;0,0531042
1446,3502;0,0534273
1447,3145;0,0537609
1448,2787;0,0540949
1449,2429;0,054435
1450,2072;0,0547902
1451,1714;0,0551587
1452,1356;0,0555193
1453,0999;0,0558267
1454,0641;0,0559999
1455,0283;0,0559142
1455,9926;0,0554636
1456,9568;0,0547604
1457,9210;0,0541928
1458,8853;0,0540116
1459,8495;0,0541192
1460,8137;0,0543025
1461,7780;0,0543801
1462,7422;0,0542018
1463,7064;0,053662
1464,6707;0,052779
1465,6349;0,0517372
1466,5991;0,0507536
1467,5634;0,0499014
1468,5276;0,0490928
1469,4918;0,0481541
1470,4561;0,0468898
1471,4203;0,0451681
1472,3845;0,0430811
1473,3488;0,0410201
1474,3130;0,0393912
1475,2772;0,0382778
1476,2415;0,0375173
1477,2057;0,0369356
1478,1699;0,0364356
1479,1342;0,0359812
1480,0984;0,0355669
1481,0626;0,0352035
1482,0269;0,0349114
1482,9911;0,0347089
1483,9553;0,0345982
1484,9196;0,0345565
1485,8838;0,0345424
1486,8480;0,0345153
1487,8123;0,0344721
1488,7765;0,0344788
1489,7407;0,0346353
1490,7050;0,0349781
1491,6692;0,035457
1492,6334;0,0360026
1493,5977;0,0365723
1494,5619;0,0371514
1495,5261;0,037746
1496,4904;0,0383804
1497,4546;0,0390881
1498,4188;0,0398824
1499,3831;0,0407366
1500,3473;0,0416044
1501,3115;0,0424446
1502,2758;0,0432238
1503,2400;0,0439003
1504,2042;0,0444006
1505,1685;0,0445974
1506,1327;0,0443654
1507,0969;0,0438116
1508,0612;0,0433206
1509,0254;0,043095
1509,9896;0,0430362
1510,9539;0,0429996
1511,9181;0,0428913
1512,8823;0,0426505
1513,8466;0,0422383
1514,8108;0,0416522
1515,7750;0,040942
1516,7393;0,0401907
1517,7035;0,0394575
1518,6677;0,038739
1519,6320;0,0379928
1520,5962;0,0372117
1521,5604;0,0364695
1522,5247;0,0358755
1523,4889;0,0354855
1524,4531;0,035281
1525,4174;0,0352166
1526,3816;0,0352604
1527,3458;0,0353958
1528,3101;0,0356038
1529,2743;0,0358557
1530,2385;0,0361237
1531,2028;0,0363995
1532,1670;0,0367098
1533,1312;0,0371061
1534,0955;0,0376187
1535,0597;0,0382217
1536,0239;0,0388493
1536,9882;0,0394213
1537,9524;0,0398302
1538,9166;0,039918
1539,8809;0,0395516
1540,8451;0,0388807
1541,8093;0,0383426
1542,7736;0,0381511
1543,7378;0,038194
1544,7020;0,0383234
1545,6663;0,0384673
1546,6305;0,038603
1547,5947;0,0387194
1548,5590;0,0388019
1549,5232;0,0388394
1550,4874;0,0388425
1551,4517;0,038852
1552,4159;0,0389209
1553,3801;0,0390774
1554,3444;0,0393008
1555,3086;0,0395144
1556,2728;0,0395831
1557,2371;0,0393471
1558,2013;0,0388219
1559,1655;0,0383967
1560,1298;0,0383967
1561,0940;0,0387273
1562,0582;0,0391961
1563,0225;0,0397011
1563,9867;0,040198
1564,9509;0,0406545
1565,9152;0,0410404
1566,8794;0,041343
1567,8436;0,0415971
1568,8079;0,041888
1569,7721;0,0422953
1570,7363;0,0428234
1571,7006;0,0434101
1572,6648;0,0439847
1573,6290;0,0445025
1574,5933;0,0449547
1575,5575;0,0453784
1576,5217;0,0458473
1577,4860;0,0464116
1578,4502;0,0470587
1579,4144;0,0477499
1580,3787;0,0484591
1581,3429;0,0491738
1582,3071;0,0498856
1583,2714;0,0505892
1584,2356;0,051285
1585,1998;0,0519781
1586,1641;0,0526704
1587,1283;0,0533524
1588,0925;0,0540035
1589,0568;0,0545978
1590,0210;0,0551116
1590,9852;0,0555239
1591,9495;0,0558137
1592,9137;0,0559626
1593,8779;0,0559642
1594,8422;0,0558357
1595,8064;0,0556142
1596,7706;0,0553391
1597,7349;0,055035
1598,6991;0,0547083
1599,6633;0,0543594
1600,6276;0,0539965
1601,5918;0,0536417
1602,5560;0,0533247
1603,5203;0,0530655
1604,4845;0,0528606
1605,4487;0,0526815
1606,4130;0,0524899
1607,3772;0,0522635
1608,3414;0,0520201
1609,3057;0,0518183
1610,2699;0,0517207
1611,2341;0,0517478
1612,1984;0,0518633
1613,1626;0,0519916
1614,1268;0,0520471
1615,0911;0,05198
1616,0553;0,0518379
1617,0195;0,0517602
1617,9838;0,051849
1618,9480;0,0520817
1619,9122;0,0523678
1620,8765;0,0526238
1621,8407;0,0528027
1622,8049;0,0529054
1623,7692;0,0529737
1624,7334;0,0530535
1625,6976;0,0531568
1626,6619;0,0532692
1627,6261;0,0533845
1628,5903;0,0535223
1629,5546;0,0537119
1630,5188;0,0539609
1631,4830;0,0542365
1632,4473;0,0544612
1633,4115;0,0545192
1634,3757;0,0543056
1635,3400;0,0538577
1636,3042;0,0534265
1637,2684;0,0532432
1638,2327;0,0533044
1639,1969;0,0534888
1640,1611;0,0537072
1641,1254;0,0539231
1642,0896;0,0541169
1643,0538;0,0542462
1644,0181;0,0542238
1644,9823;0,0539507
1645,9465;0,0534414
1646,9108;0,0529208
1647,8750;0,0526494
1648,8392;0,0526722
1649,8035;0,0528262
1650,7677;0,0528327
1651,7319;0,0523407
1652,6962;0,0511593
1653,6604;0,0497351
1654,6246;0,0487991
1655,5889;0,0484534
1656,5531;0,0483921
1657,5173;0,0483682
1658,4816;0,0482444
1659,4458;0,0479306
1660,4100;0,0473727
1661,3743;0,0466029
1662,3385;0,0457789
1663,3027;0,0450963
1664,2670;0,0446408
1665,2312;0,0443506
1666,1954;0,0440806
1667,1597;0,0436675
1668,1239;0,0429992
1669,0881;0,0421122
1670,0524;0,041214
1671,0166;0,0405102
1671,9808;0,0400192
1672,9451;0,0396038
1673,9093;0,0391166
1674,8735;0,0385109
1675,8378;0,0378746
1676,8020;0,0373562
1677,7662;0,0370421
1678,7305;0,0369103
1679,6947;0,0368645
1680,6589;0,0367608
1681,6232;0,0364128
1682,5874;0,0356541
1683,5516;0,0345422
1684,5159;0,0334577
1685,4801;0,0327338
1686,4443;0,0323583
1687,4086;0,0321603
1688,3728;0,032017
1689,3370;0,0318907
1690,3013;0,0317942
1691,2655;0,0317478
1692,2297;0,0317478
1693,1940;0,031757
1694,1582;0,0317162
1695,1224;0,0315711
1696,0867;0,0313041
1697,0509;0,0309507
1698,0151;0,0305875
1698,9794;0,0302965
1699,9436;0,0301302
1700,9078;0,0300953
1701,8721;0,0301644
1702,8363;0,0303016
1703,8005;0,0304807
1704,7648;0,0306919
1705,7290;0,030942
1706,6932;0,0312478
1707,6575;0,0316219
1708,6217;0,0320643
1709,5859;0,032565
1710,5502;0,0331101
1711,5144;0,0336802
1712,4786;0,0342453
1713,4429;0,0347625
1714,4071;0,0351829
1715,3713;0,03548
1716,3356;0,0356977
1717,2998;0,0359505
1718,2640;0,0363218
1719,2283;0,0367988
1720,1925;0,0373315
1721,1567;0,0378864
1722,1210;0,0384462
1723,0852;0,0389956
1724,0494;0,0395192
1725,0137;0,0400075
1725,9779;0,0404634
1726,9421;0,0408997
1727,9064;0,0413273
1728,8706;0,0417405
1729,8348;0,0421021
1730,7991;0,042336
1731,7633;0,0423428
1732,7275;0,042073
1733,6918;0,0416226
1734,6560;0,0411908
1735,6202;0,0408924
1736,5845;0,0406876
1737,5487;0,0404636
1738,5129;0,0401147
1739,4772;0,0395856
1740,4414;0,0388956
1741,4056;0,0381262
1742,3699;0,0373605
1743,3341;0,0366315
1744,2983;0,0359252
1745,2626;0,0352104
1746,2268;0,0344482
1747,1910;0,0335839
1748,1553;0,0325561
1749,1195;0,0313567
1750,0837;0,0300917
1751,0480;0,0289345
1752,0122;0,0279939
1752,9764;0,0272558
1753,9407;0,0266299
1754,9049;0,0260236
1755,8691;0,0253897
1756,8334;0,0247368
1757,7976;0,0241013
1758,7618;0,0235012
1759,7261;0,0229184
1760,6903;0,0223277
1761,6545;0,0217418
1762,6188;0,0212174
1763,5830;0,02081
1764,5472;0,0205295
1765,5115;0,0203377
1766,4757;0,0201767
1767,4399;0,0199969
1768,4042;0,0197672
1769,3684;0,0194731
1770,3326;0,0191135
1771,2969;0,018712
1772,2611;0,0183296
1773,2253;0,0180417
1774,1896;0,0178872
1775,1538;0,0178493
1776,1180;0,0178779
1777,0823;0,0179178
1778,0465;0,0179256
1779,0107;0,0178826
1779,9750;0,0177993
1780,9392;0,0177048
1781,9034;0,0176238
1782,8677;0,0175643
1783,8319;0,0175251
1784,7961;0,0175101
1785,7604;0,017531
1786,7246;0,0175969
1787,6888;0,0177
1788,6531;0,0178081
1789,6173;0,0178682
1790,5815;0,0178279
1791,5458;0,0176762
1792,5100;0,0174731
1793,4742;0,01731
1794,4385;0,0172367
1795,4027;0,0172424
1796,3669;0,017286
1797,3312;0,0173244
1798,2954;0,0173271
1799,2596;0,0172861
1800,2239;0,0172185
1801,1881;0,0171542
1802,1523;0,0171161
1803,1166;0,0171111
1804,0808;0,0171346
1805,0450;0,017178
1806,0093;0,0172296
1806,9735;0,0172741
1807,9377;0,017294
1808,9020;0,0172769
1809,8662;0,0172259
1810,8304;0,0171619
1811,7947;0,0171124
1812,7589;0,0170943
1813,7231;0,0171053
1814,6874;0,0171298
1815,6516;0,0171515
1816,6158;0,017165
1817,5801;0,0171806
1818,5443;0,0172162
1819,5085;0,0172821
1820,4728;0,0173705
1821,4370;0,0174587
1822,4012;0,0175217
1823,3655;0,0175463
1824,3297;0,0175385
1825,2939;0,0175142
1826,2582;0,017482
1827,2224;0,0174339
1828,1866;0,0173552
1829,1509;0,0172488
1830,1151;0,0171469
1831,0793;0,0170927
1832,0436;0,0171058
1833,0078;0,0171704
1833,9720;0,0172501
1834,9363;0,0173107
1835,9005;0,0173393
1836,8647;0,017353
1837,8290;0,0173877
1838,7932;0,0174704
1839,7574;0,0175963
1840,7217;0,0177285
1841,6859;0,0178116
1842,6501;0,0177987
1843,6144;0,0176855
1844,5786;0,0175238
1845,5428;0,0173838
1846,5071;0,017301
1847,4713;0,0172682
1848,4355;0,0172627
1849,3998;0,0172676
1850,3640;0,0172779
1851,3282;0,0172946
1852,2925;0,0173168
1853,2567;0,0173382
1854,2209;0,0173508
1855,1852;0,0173527
1856,1494;0,0173522
1857,1136;0,0173623
1858,0779;0,0173915
1859,0421;0,0174375
1860,0063;0,0174894
1860,9706;0,0175376
1861,9348;0,0175827
1862,8990;0,0176353
1863,8633;0,0177069
1864,8275;0,0177982
1865,7917;0,0178907
1866,7560;0,0179498
1867,7202;0,0179426
1868,6844;0,0178635
1869,6487;0,0177441
1870,6129;0,0176316
1871,5771;0,0175591
1872,5414;0,0175343
1873,5056;0,0175436
1874,4698;0,0175622
1875,4341;0,0175687
1876,3983;0,0175577
1877,3625;0,0175448
1878,3268;0,0175573
1879,2910;0,0176163
1880,2552;0,0177218
1881,2195;0,0178513
1882,1837;0,0179706
1883,1479;0,018052
1884,1122;0,0180855
1885,0764;0,0180788
1886,0406;0,0180456
1887,0049;0,0179957
1887,9691;0,0179333
1888,9333;0,0178633
1889,8976;0,0177971
1890,8618;0,017751
1891,8260;0,0177376
1892,7903;0,0177583
1893,7545;0,0178017
1894,7188;0,0178488
1895,6830;0,0178821
1896,6472;0,0178944
1897,6115;0,0178917
1898,5757;0,017888
1899,5399;0,0178959
1900,5042;0,0179197
1901,4684;0,0179538
1902,4326;0,0179858
1903,3969;0,0180048
1904,3611;0,0180071
1905,3253;0,0179984
1906,2896;0,0179895
1907,2538;0,017989
1908,2180;0,0179968
1909,1823;0,0180038
1910,1465;0,0179974
1911,1107;0,0179703
1912,0750;0,0179264
1913,0392;0,0178789
1914,0034;0,0178453
1914,9677;0,0178431
1915,9319;0,017887
1916,8961;0,0179849
1917,8604;0,01813
1918,8246;0,0182979
1919,7888;0,0184525
1920,7531;0,0185594
1921,7173;0,0185953
1922,6815;0,0185529
1923,6458;0,0184434
1924,6100;0,0182935
1925,5742;0,0181384
1926,5385;0,0180134
1927,5027;0,0179482
1928,4669;0,0179614
1929,4312;0,0180543
1930,3954;0,0182059
1931,3596;0,0183767
1932,3239;0,0185249
1933,2881;0,0186251
1934,2523;0,018676
1935,2166;0,0186934
1936,1808;0,0186928
1937,1450;0,0186785
1938,1093;0,0186438
1939,0735;0,0185825
1940,0377;0,0185013
1941,0020;0,0184215
1941,9662;0,0183684
1942,9304;0,0183534
1943,8947;0,0183653
1944,8589;0,0183841
1945,8231;0,0184027
1946,7874;0,0184351
1947,7516;0,0185063
1948,7158;0,0186306
1949,6801;0,0187933
1950,6443;0,0189476
1951,6085;0,0190314
1952,5728;0,0189976
1953,5370;0,0188414
1954,5012;0,0186111
1955,4655;0,0183943
1956,4297;0,0182835
1957,3939;0,0183352
1958,3582;0,0185426
1959,3224;0,018836
1960,2866;0,0191141
1961,2509;0,0192931
1962,2151;0,0193429
1963,1793;0,0192916
1964,1436;0,0191987
1965,1078;0,0191231
1966,0720;0,019102
1967,0363;0,0191471
1968,0005;0,0192501
1968,9647;0,0193908
1969,9290;0,0195426
1970,8932;0,019676
1971,8574;0,0197673
1972,8217;0,019808
1973,7859;0,0198113
1974,7501;0,019808
1975,7144;0,01983
1976,6786;0,0198959
1977,6428;0,0200068
1978,6071;0,0201532
1979,5713;0,0203213
1980,5355;0,020489
1981,4998;0,020622
1982,4640;0,0206774
1983,4282;0,020622
1984,3925;0,0204535
1985,3567;0,0202104
1986,3209;0,0199577
1987,2852;0,0197561
1988,2494;0,0196358
1989,2136;0,0195917
1990,1779;0,0195993
1991,1421;0,0196357
1992,1063;0,0196891
1993,0706;0,019753
1994,0348;0,0198152
1994,9990;0,0198585
1995,9633;0,019872
1996,9275;0,0198652
1997,8917;0,0198694
1998,8560;0,0199219
1999,8202;0,0200386
2000,7844;0,0201954
2001,7487;0,0203346
2002,7129;0,0203967
2003,6771;0,020358
2004,6414;0,0202516
2005,6056;0,0201544
2006,5698;0,0201411
2007,5341;0,0202314
2008,4983;0,0203701
2009,4625;0,0204607
2010,4268;0,0204317
2011,3910;0,0202879
2012,3552;0,0201121
2013,3195;0,0200196
2014,2837;0,0200915
2015,2479;0,0203272
2016,2122;0,020644
2017,1764;0,0209291
2018,1406;0,0211109
2019,1049;0,021196
2020,0691;0,0212472
2021,0333;0,0213285
2021,9976;0,0214598
2022,9618;0,021611
2023,9260;0,0217277
2024,8903;0,0217649
2025,8545;0,0217034
2026,8187;0,0215471
2027,7830;0,0213158
2028,7472;0,0210474
2029,7114;0,020805
2030,6757;0,0206699
2031,6399;0,0207113
2032,6041;0,0209441
2033,5684;0,0213091
2034,5326;0,0216953
2035,4968;0,0219931
2036,4611;0,0221397
2037,4253;0,0221251
2038,3895;0,0219688
2039,3538;0,021696
2040,3180;0,0213376
2041,2822;0,0209474
2042,2465;0,0206091
2043,2107;0,0204151
2044,1749;0,0204239
2045,1392;0,0206248
2046,1034;0,0209357
2047,0676;0,0212399
2048,0320;0,0214426
2048,9961;0,0215121
2049,9604;0,0214789
2050,9246;0,021399
2051,8889;0,0213167
2052,8530;0,0212485
2053,8174;0,0211884
2054,7815;0,0211229
2055,7458;0,0210457
2056,7100;0,0209632
2057,6743;0,0208925
2058,6384;0,0208514
2059,6028;0,0208487
2060,5669;0,020878
2061,5313;0,0209193
2062,4954;0,0209474
2063,4597;0,0209436
2064,4238;0,0209043
2065,3882;0,0208414
2066,3523;0,0207734
2067,3167;0,0207155
2068,2808;0,0206739
2069,2451;0,0206485
2070,2092;0,0206387
2071,1736;0,0206462
2072,1377;0,0206735
2073,1021;0,0207191
2074,0662;0,0207743
2075,0305;0,020825
2075,9946;0,0208572
2076,9590;0,0208636
2077,9231;0,0208454
2078,8875;0,0208112
2079,8516;0,0207716
2080,8159;0,0207343
2081,7800;0,0207023
2082,7444;0,0206751
2083,7085;0,0206519
2084,6729;0,0206348
2085,6370;0,0206268
2086,6013;0,0206278
2087,5654;0,0206308
2088,5298;0,0206232
2089,4939;0,0205952
2090,4583;0,02055
2091,4224;0,0205081
2092,3867;0,0204983
2093,3508;0,0205401
2094,3152;0,0206268
2095,2793;0,0207243
2096,2437;0,0207881
2097,2078;0,0207909
2098,1721;0,0207391
2099,1362;0,0206671
2100,1006;0,0206139
2101,0647;0,0206022
2102,0291;0,0206263
2102,9932;0,0206643
2103,9575;0,0206959
2104,9216;0,020716
2105,8860;0,0207366
2106,8501;0,0207759
2107,8145;0,0208455
2108,7786;0,0209407
2109,7429;0,021041
2110,7070;0,0211192
2111,6714;0,0211527
2112,6355;0,0211341
2113,5999;0,0210746
2114,5640;0,0209987
2115,5283;0,0209329
2116,4924;0,020895
2117,4568;0,0208895
2118,4209;0,0209108
2119,3853;0,0209518
2120,3494;0,0210095
2121,3137;0,0210845
2122,2778;0,0211741
2123,2422;0,0212675
2124,2063;0,021347
2125,1707;0,0213969
2126,1348;0,0214127
2127,0991;0,0214049
2128,0632;0,0213941
2129,0276;0,0214018
2129,9917;0,0214414
2130,9561;0,0215141
2131,9202;0,0216084
2132,8845;0,021702
2133,8486;0,021766
2134,8130;0,0217747
2135,7771;0,0217215
2136,7415;0,0216316
2137,7056;0,0215594
2138,6699;0,0215686
2139,6340;0,0217015
2140,5984;0,0219572
2141,5625;0,0222903
2142,5269;0,0226337
2143,4910;0,02293
2144,4553;0,0231528
2145,4194;0,0233082
2146,3838;0,0234189
2147,3479;0,0235069
2148,3123;0,0235874
2149,2764;0,0236722
2150,2407;0,023773
2151,2048;0,0238948
2152,1692;0,0240251
2153,1333;0,024129
2154,0977;0,0241621
2155,0618;0,0240965
2156,0261;0,0239475
2156,9902;0,0237805
2157,9546;0,0236829
2158,9187;0,0237091
2159,8831;0,0238394
2160,8472;0,0239941
2161,8115;0,0240866
2162,7756;0,0240675
2163,7400;0,0239375
2164,7041;0,0237379
2165,6685;0,023532
2166,6326;0,0233801
2167,5969;0,023316
2168,5610;0,0233339
2169,5254;0,023395
2170,4895;0,0234513
2171,4539;0,0234723
2172,4180;0,0234574
2173,3823;0,0234268
2174,3464;0,0233967
2175,3108;0,0233607
2176,2749;0,023295
2177,2393;0,023185
2178,2034;0,0230491
2179,1677;0,022936
2180,1318;0,0228943
2181,0962;0,0229342
2182,0603;0,0230153
2183,0247;0,0230692
2183,9888;0,0230453
2184,9531;0,0229406
2185,9172;0,0227956
2186,8816;0,0226616
2187,8457;0,0225696
2188,8101;0,0225204
2189,7742;0,0224967
2190,7385;0,0224822
2191,7026;0,022471
2192,6670;0,0224633
2193,6311;0,0224562
2194,5955;0,0224434
2195,5596;0,0224226
2196,5239;0,0224055
2197,4880;0,0224165
2198,4524;0,0224781
2199,4165;0,0225916
2200,3809;0,0227288
2201,3450;0,0228443
2202,3093;0,0229013
2203,2734;0,0228944
2204,2378;0,0228497
2205,2019;0,0228019
2206,1663;0,0227636
2207,1304;0,0227118
2208,0947;0,0226049
2209,0588;0,0224188
2210,0232;0,0221758
2210,9873;0,0219417
2211,9517;0,0217877
2212,9158;0,021744
2213,8801;0,0217778
2214,8442;0,0218141
2215,8086;0,0217852
2216,7727;0,0216741
2217,7371;0,0215229
2218,7012;0,0214004
2219,6655;0,0213549
2220,6296;0,0213847
2221,5940;0,0214459
2222,5581;0,0214869
2223,5225;0,021485
2224,4866;0,0214596
2225,4509;0,0214557
2226,4150;0,021513
2227,3794;0,0216389
2228,3435;0,021805
2229,3079;0,0219629
2230,2720;0,0220708
2231,2363;0,0221126
2232,2004;0,0221004
2233,1648;0,0220612
2234,1289;0,0220177
2235,0933;0,0219752
2236,0574;0,021922
2237,0217;0,0218424
2237,9858;0,0217326
2238,9502;0,0216092
2239,9143;0,0215057
2240,8787;0,0214566
2241,8428;0,0214808
2242,8071;0,0215712
2243,7712;0,0216958
2244,7356;0,0218105
2245,6997;0,0218747
2246,6641;0,0218643
2247,6282;0,0217781
2248,5925;0,0216373
2249,5566;0,021479
2250,5210;0,0213447
2251,4851;0,021268
2252,4495;0,0212622
2253,4136;0,0213155
2254,3779;0,0213955
2255,3420;0,0214638
2256,3064;0,0214939
2257,2705;0,0214814
2258,2349;0,0214413
2259,1990;0,0213954
2260,1633;0,0213586
2261,1274;0,0213332
2262,0918;0,0213128
2263,0559;0,0212922
2264,0203;0,0212731
2264,9844;0,0212629
2265,9487;0,0212677
2266,9128;0,0212857
2267,8772;0,0213069
2268,8413;0,0213192
2269,8057;0,0213152
2270,7698;0,021296
2271,7341;0,021269
2272,6982;0,0212427
2273,6626;0,0212218
2274,6267;0,021206
2275,5911;0,0211912
2276,5552;0,0211731
2277,5195;0,0211508
2278,4836;0,0211284
2279,4480;0,0211134
2280,4121;0,021113
2281,3765;0,0211285
2282,3406;0,021153
2283,3049;0,0211731
2284,2690;0,0211753
2285,2334;0,0211539
2286,1975;0,0211156
2287,1619;0,0210769
2288,1260;0,0210566
2289,0903;0,0210662
2290,0544;0,0211043
2291,0188;0,0211587
2291,9829;0,0212136
2292,9473;0,0212577
2293,9114;0,021289
2294,8757;0,021314
2295,8398;0,0213428
2296,8042;0,0213835
2297,7683;0,0214388
2298,7327;0,0215057
2299,6968;0,0215778
2300,6611;0,0216483
2301,6252;0,0217131
2302,5896;0,0217723
2303,5537;0,02183
2304,5181;0,0218909
2305,4822;0,0219565
2306,4465;0,0220217
2307,4106;0,0220762
2308,3750;0,0221108
2309,3391;0,0221254
2310,3035;0,0221336
2311,2676;0,0221568
2312,2319;0,0222106
2313,1960;0,0222928
2314,1604;0,0223824
2315,1245;0,0224522
2316,0889;0,0224856
2317,0530;0,0224867
2318,0173;0,0224779
2318,9814;0,0224841
2319,9458;0,0225137
2320,9099;0,0225484
2321,8743;0,022553
2322,8384;0,0224993
2323,8027;0,0223848
2324,7668;0,022231
2325,7312;0,0220678
2326,6953;0,0219178
2327,6597;0,0217915
2328,6238;0,0216911
2329,5881;0,0216171
2330,5522;0,0215712
2331,5166;0,0215516
2332,4807;0,0215464
2333,4451;0,0215319
2334,4092;0,0214818
2335,3735;0,0213807
2336,3376;0,0212363
2337,3020;0,0210799
2338,2661;0,0209503
2339,2305;0,0208697
2340,1946;0,0208279
2341,1589;0,0207943
2342,1230;0,0207499
2343,0874;0,0207167
2344,0515;0,020748
2345,0159;0,020878
2345,9800;0,0210912
2346,9443;0,0213423
2347,9084;0,0215886
2348,8728;0,0218039
2349,8369;0,0219754
2350,8013;0,0221014
2351,7654;0,022191
2352,7297;0,0222655
2353,6938;0,0223498
2354,6582;0,0224526
2355,6223;0,0225496
2356,5867;0,0225924
2357,5508;0,0225362
2358,5151;0,0223652
2359,4792;0,0221021
2360,4436;0,0217957
2361,4077;0,0214964
2362,3721;0,0212377
2363,3362;0,0210373
2364,3005;0,0209068
2365,2646;0,0208586
2366,2290;0,0208994
2367,1931;0,0210184
2368,1575;0,0211801
2369,1216;0,0213342
2370,0859;0,0214375
2371,0500;0,0214747
2372,0144;0,0214636
2372,9785;0,0214402
2373,9429;0,0214354
2374,9070;0,0214596
2375,8713;0,0215023
2376,8354;0,0215435
2377,7998;0,0215688
2378,7639;0,0215763
2379,7283;0,0215763
2380,6924;0,0215832
2381,6567;0,0216081
2382,6208;0,0216546
2383,5852;0,0217178
2384,5493;0,021787
2385,5137;0,0218493
2386,4778;0,0218944
2387,4421;0,0219179
2388,4063;0,0219232
2389,3706;0,0219187
2390,3347;0,0219133
2391,2991;0,0219119
2392,2632;0,0219138
2393,2275;0,0219162
2394,1917;0,0219186
2395,1560;0,021925
2396,1201;0,021941
2397,0845;0,0219688
2398,0486;0,0220032
2399,0129;0,0220344
2399,9771;0,0220545
2400,9414;0,0220642
2401,9055;0,0220739
2402,8699;0,022097
2403,8340;0,0221401
2404,7983;0,0221981
2405,7625;0,0222557
2406,7268;0,0222976
2407,6909;0,0223183
2408,6553;0,0223256
2409,6194;0,022335
2410,5837;0,0223599
2411,5479;0,0224033
2412,5122;0,0224569
2413,4763;0,0225069
2414,4407;0,0225431
2415,4048;0,0225634
2416,3691;0,0225732
2417,3333;0,02258
2418,2976;0,0225881
2419,2617;0,0225969
2420,2261;0,0226032
2421,1902;0,022606
2422,1545;0,0226081
2423,1187;0,0226158
2424,0830;0,0226338
2425,0471;0,0226618
2426,0115;0,0226934
2426,9756;0,0227197
2427,9399;0,0227355
2428,9041;0,0227439
2429,8684;0,022756
2430,8325;0,0227845
2431,7969;0,0228353
2432,7610;0,0229007
2433,7253;0,0229619
2434,6895;0,022998
2435,6538;0,0229982
2436,6179;0,022969
2437,5823;0,0229325
2438,5464;0,0229154
2439,5107;0,0229355
2440,4749;0,0229934
2441,4392;0,0230736
2442,4033;0,0231534
2443,3677;0,0232132
2444,3318;0,0232445
2445,2961;0,0232506
2446,2603;0,0232417
2447,2246;0,0232294
2448,1887;0,0232222
2449,1531;0,0232253
2450,1172;0,0232419
2451,0815;0,0232739
2452,0457;0,0233209
2453,0100;0,0233783
2453,9741;0,0234357
2454,9385;0,0234796
2455,9026;0,0234985
2456,8669;0,0234884
2457,8311;0,0234548
2458,7954;0,0234111
2459,7595;0,0233717
2460,7239;0,0233479
2461,6880;0,0233453
2462,6523;0,0233645
2463,6165;0,0234032
2464,5808;0,0234558
2465,5449;0,0235125
2466,5093;0,0235602
2467,4734;0,0235859
2468,4377;0,0235833
2469,4019;0,023557
2470,3662;0,0235217
2471,3303;0,0234966
2472,2947;0,0234959
2473,2588;0,0235238
2474,2231;0,023573
2475,1873;0,0236299
2476,1516;0,0236801
2477,1157;0,0237139
2478,0801;0,0237289
2479,0442;0,0237293
2480,0085;0,0237238
2480,9727;0,0237214
2481,9370;0,0237279
2482,9011;0,0237436
2483,8655;0,0237649
2484,8296;0,0237875
2485,7939;0,0238103
2486,7581;0,023836
2487,7224;0,0238686
2488,6865;0,0239089
2489,6509;0,0239515
2490,6150;0,0239862
2491,5793;0,0240031
2492,5435;0,0239985
2493,5078;0,0239777
2494,4719;0,0239536
2495,4363;0,0239411
2496,4004;0,0239509
2497,3647;0,0239851
2498,3289;0,0240368
2499,2932;0,0240944
2500,2573;0,0241468
2501,2217;0,0241872
2502,1858;0,0242141
2503,1501;0,0242287
2504,1143;0,0242321
2505,0786;0,0242248
2506,0427;0,0242077
2507,0071;0,0241843
2507,9712;0,024162
2508,9355;0,0241496
2509,8997;0,0241531
2510,8640;0,0241732
2511,8281;0,0242045
2512,7925;0,024238
2513,7566;0,024265
2514,7209;0,0242805
2515,6851;0,0242842
2516,6494;0,0242797
2517,6135;0,0242726
2518,5779;0,0242679
2519,5420;0,0242678
2520,5063;0,0242726
2521,4705;0,0242821
2522,4348;0,0242976
2523,3989;0,0243226
2524,3633;0,0243602
2525,3274;0,0244096
2526,2917;0,0244636
2527,2559;0,0245105
2528,2202;0,0245394
2529,1843;0,0245456
2530,1487;0,0245327
2531,1128;0,0245094
2532,0771;0,0244834
2533,0413;0,0244587
2534,0056;0,0244356
2534,9697;0,0244156
2535,9341;0,0244037
2536,8982;0,0244071
2537,8625;0,0244299
2538,8267;0,0244683
2539,7910;0,0245111
2540,7551;0,0245446
2541,7195;0,02456
2542,6836;0,0245579
2543,6479;0,024547
2544,6121;0,0245386
2545,5764;0,0245407
2546,5405;0,0245551
2547,5049;0,0245776
2548,4690;0,0246013
2549,4333;0,0246196
2550,3975;0,0246291
2551,3618;0,0246313
2552,3259;0,0246321
2553,2903;0,0246397
2554,2544;0,02466
2555,2188;0,0246924
2556,1829;0,0247293
2557,1472;0,0247594
2558,1113;0,0247741
2559,0757;0,0247725
2560,0398;0,0247607
2561,0042;0,0247471
2561,9683;0,0247357
2562,9326;0,0247244
2563,8967;0,0247085
2564,8611;0,0246864
2565,8252;0,0246636
2566,7896;0,0246506
2567,7537;0,0246573
2568,7180;0,0246875
2569,6821;0,0247363
2570,6465;0,0247925
2571,6106;0,0248432
2572,5750;0,0248776
2573,5391;0,0248899
2574,5034;0,0248806
2575,4675;0,0248562
2576,4319;0,0248278
2577,3960;0,0248077
2578,3604;0,0248048
2579,3245;0,0248213
2580,2888;0,0248518
2581,2529;0,0248871
2582,2173;0,0249173
2583,1814;0,024936
2584,1458;0,0249407
2585,1099;0,0249321
2586,0742;0,0249139
2587,0383;0,0248914
2588,0027;0,0248725
2588,9668;0,0248653
2589,9312;0,0248765
2590,8953;0,0249083
2591,8596;0,024957
2592,8237;0,0250137
2593,7881;0,0250677
2594,7522;0,0251091
2595,7166;0,0251324
2596,6807;0,0251379
2597,6450;0,0251314
2598,6091;0,0251222
2599,5735;0,0251202
2600,5376;0,0251324
2601,5020;0,0251603
2602,4661;0,0251993
2603,4304;0,0252413
2604,3945;0,0252783
2605,3589;0,0253058
2606,3230;0,0253244
2607,2874;0,0253383
2608,2515;0,0253521
2609,2158;0,0253685
2610,1799;0,0253864
2611,1443;0,0254022
2612,1084;0,0254121
2613,0728;0,0254149
2614,0369;0,0254129
2615,0012;0,0254119
2615,9653;0,0254191
2616,9297;0,0254405
2617,8938;0,0254787
2618,8582;0,0255308
2619,8223;0,025589
2620,7866;0,0256425
2621,7507;0,0256818
2622,7151;0,0257019
2623,6792;0,025705
2624,6436;0,0256995
2625,6077;0,0256964
2626,5720;0,0257045
2627,5361;0,025727
2628,5005;0,0257608
2629,4646;0,0257994
2630,4290;0,0258364
2631,3931;0,0258684
2632,3574;0,0258951
2633,3215;0,0259168
2634,2859;0,0259332
2635,2500;0,0259429
2636,2144;0,0259464
2637,1785;0,0259479
2638,1428;0,0259556
2639,1069;0,0259777
2640,0713;0,0260174
2641,0354;0,0260696
2641,9998;0,0261224
2642,9639;0,0261633
2643,9282;0,0261864
2644,8923;0,0261951
2645,8567;0,0262007
2646,8208;0,0262145
2647,7852;0,0262419
2648,7493;0,0262796
2649,7136;0,026319
2650,6777;0,0263516
2651,6421;0,0263739
2652,6062;0,0263888
2653,5706;0,0264027
2654,5347;0,0264215
2655,4990;0,0264473
2656,4631;0,0264786
2657,4275;0,0265116
2658,3916;0,0265427
2659,3560;0,0265699
2660,3201;0,0265927
2661,2844;0,0266114
2662,2485;0,0266265
2663,2129;0,0266387
2664,1770;0,0266493
2665,1414;0,0266607
2666,1055;0,0266761
2667,0698;0,0266979
2668,0339;0,0267266
2668,9983;0,0267605
2669,9624;0,026796
2670,9268;0,0268296
2671,8909;0,026859
2672,8552;0,0268834
2673,8193;0,0269032
2674,7837;0,0269198
2675,7478;0,0269354
2676,7122;0,0269532
2677,6763;0,0269771
2678,6406;0,0270096
2679,6047;0,0270509
2680,5691;0,0270975
2681,5332;0,0271437
2682,4976;0,0271839
2683,4617;0,0272154
2684,4260;0,0272384
2685,3901;0,0272556
2686,3545;0,0272699
2687,3186;0,0272842
2688,2830;0,027301
2689,2471;0,0273229
2690,2114;0,0273523
2691,1755;0,02739
2692,1399;0,0274343
2693,1040;0,0274805
2694,0684;0,0275233
2695,0325;0,0275588
2695,9968;0,0275863
2696,9609;0,0276087
2697,9253;0,0276305
2698,8894;0,0276555
2699,8538;0,0276856
2700,8179;0,02772
2701,7822;0,0277564
2702,7463;0,0277927
2703,7107;0,0278278
2704,6748;0,0278625
2705,6392;0,0278983
2706,6033;0,0279366
2707,5676;0,0279767
2708,5317;0,0280164
2709,4961;0,0280525
2710,4602;0,0280837
2711,4246;0,0281114
2712,3887;0,0281394
2713,3530;0,0281717
2714,3171;0,0282098
2715,2815;0,0282524
2716,2456;0,0282959
2717,2100;0,0283368
2718,1741;0,0283736
2719,1384;0,0284064
2720,1025;0,0284354
2721,0669;0,0284601
2722,0310;0,0284799
2722,9954;0,0284957
2723,9595;0,0285113
2724,9238;0,0285329
2725,8879;0,0285661
2726,8523;0,0286135
2727,8164;0,0286718
2728,7808;0,0287336
2729,7449;0,0287898
2730,7092;0,0288333
2731,6733;0,0288614
2732,6377;0,0288761
2733,6018;0,028883
2734,5662;0,0288895
2735,5303;0,0289017
2736,4946;0,0289226
2737,4587;0,0289518
2738,4231;0,0289858
2739,3872;0,0290205
2740,3516;0,0290536
2741,3157;0,0290851
2742,2800;0,0291159
2743,2441;0,0291457
2744,2085;0,0291716
2745,1726;0,0291894
2746,1370;0,0291962
2747,1011;0,0291945
2748,0654;0,0291918
2749,0295;0,029198
2749,9939;0,0292209
2750,9580;0,029262
2751,9224;0,0293163
2752,8865;0,0293754
2753,8508;0,0294315
2754,8149;0,0294802
2755,7793;0,0295208
2756,7434;0,0295549
2757,7078;0,029585
2758,6719;0,029614
2759,6362;0,029645
2760,6003;0,0296808
2761,5647;0,0297222
2762,5288;0,0297667
2763,4932;0,0298098
2764,4573;0,0298469
2765,4216;0,0298775
2766,3857;0,0299057
2767,3501;0,0299391
2768,3142;0,0299833
2769,2786;0,0300391
2770,2427;0,0301008
2771,2070;0,0301599
2772,1711;0,0302094
2773,1355;0,0302472
2774,0996;0,030277
2775,0640;0,0303057
2776,0281;0,030341
2776,9924;0,030388
2777,9565;0,0304478
2778,9209;0,0305177
2779,8850;0,0305918
2780,8494;0,0306627
2781,8135;0,0307247
2782,7778;0,0307751
2783,7419;0,0308159
2784,7063;0,0308523
2785,6704;0,0308905
2786,6348;0,0309349
2787,5989;0,0309869
2788,5632;0,0310455
2789,5273;0,0311088
2790,4917;0,0311762
2791,4558;0,031249
2792,4202;0,0313291
2793,3843;0,0314177
2794,3486;0,0315131
2795,3127;0,0316106
2796,2771;0,0317043
2797,2412;0,0317895
2798,2056;0,0318656
2799,1697;0,0319363
2800,1340;0,0320081
2801,0981;0,0320875
2802,0625;0,0321782
2803,0266;0,0322804
2803,9910;0,0323908
2804,9551;0,0325039
2805,9194;0,0326146
2806,8835;0,032719
2807,8479;0,0328167
2808,8120;0,0329112
2809,7764;0,0330091
2810,7405;0,0331169
2811,7048;0,0332383
2812,6689;0,0333718
2813,6333;0,033512
2814,5974;0,0336528
2815,5618;0,0337906
2816,5259;0,0339259
2817,4902;0,0340617
2818,4543;0,0342014
2819,4187;0,0343473
2820,3828;0,0345008
2821,3472;0,0346633
2822,3113;0,0348363
2823,2756;0,0350198
2824,2397;0,0352114
2825,2041;0,0354069
2826,1682;0,0356024
2827,1326;0,0357977
2828,0967;0,0359966
2829,0610;0,0362062
2830,0251;0,036433
2830,9895;0,0366809
2831,9536;0,0369504
2832,9180;0,0372396
2833,8821;0,0375455
2834,8464;0,0378653
2835,8105;0,0381973
2836,7749;0,0385429
2837,7390;0,0389078
2838,7034;0,0393037
2839,6675;0,0397471
2840,6318;0,0402565
2841,5959;0,0408473
2842,5603;0,0415265
2843,5244;0,0422875
2844,4888;0,0431064
2845,4529;0,0439402
2846,4172;0,0447305
2847,3813;0,0454125
2848,3457;0,0459296
2849,3098;0,0462491
2850,2742;0,0463705
2851,2383;0,0463245
2852,2026;0,0461603
2853,1667;0,0459291
2854,1311;0,0456707
2855,0952;0,0454086
2856,0596;0,0451546
2857,0237;0,0449173
2857,9880;0,0447071
2858,9521;0,0445367
2859,9165;0,0444156
2860,8806;0,0443453
2861,8450;0,0443191
2862,8091;0,0443263
2863,7734;0,0443592
2864,7375;0,0444162
2865,7019;0,0445002
2866,6660;0,0446123
2867,6304;0,0447467
2868,5945;0,0448895
2869,5588;0,0450236
2870,5229;0,0451352
2871,4873;0,0452185
2872,4514;0,0452771
2873,4158;0,0453196
2874,3799;0,0453561
2875,3442;0,0453946
2876,3083;0,0454407
2877,2727;0,0454979
2878,2368;0,0455683
2879,2012;0,0456526
2880,1653;0,0457496
2881,1296;0,0458567
2882,0938;0,0459704
2883,0581;0,0460876
2884,0222;0,046206
2884,9866;0,0463244
2885,9507;0,0464432
2886,9150;0,0465639
2887,8792;0,0466896
2888,8435;0,0468235
2889,8076;0,0469672
2890,7720;0,0471203
2891,7361;0,0472791
2892,7004;0,0474389
2893,6646;0,0475956
2894,6289;0,0477474
2895,5930;0,0478958
2896,5574;0,0480439
2897,5215;0,0481947
2898,4858;0,0483495
2899,4500;0,0485076
2900,4143;0,0486674
2901,3784;0,0488286
2902,3428;0,0489936
2903,3069;0,0491687
2904,2712;0,0493622
2905,2354;0,0495832
2906,1997;0,0498402
2907,1638;0,0501413
2908,1282;0,0504959
2909,0923;0,050915
2910,0566;0,0514085
2911,0208;0,0519785
2911,9851;0,0526119
2912,9492;0,0532752
2913,9136;0,053917
2914,8777;0,0544781
2915,8420;0,0549062
2916,8062;0,0551692
2917,7705;0,0552617
2918,7346;0,0552019
2919,6990;0,0550219
2920,6631;0,0547556
2921,6274;0,0544304
2922,5916;0,0540635
2923,5559;0,0536635
2924,5200;0,0532337
2925,4844;0,052776
2926,4485;0,0522932
2927,4128;0,0517916
2928,3770;0,0512813
2929,3413;0,050775
2930,3054;0,0502846
2931,2698;0,049817
2932,2339;0,0493711
2933,1982;0,0489392
2934,1624;0,0485118
2935,1267;0,0480833
2936,0908;0,0476557
2937,0552;0,0472369
2938,0193;0,0468355
2938,9836;0,0464556
2939,9478;0,0460945
2940,9121;0,0457454
2941,8762;0,0454017
2942,8406;0,0450611
2943,8047;0,0447265
2944,7690;0,0444051
2945,7332;0,0441053
2946,6975;0,0438336
2947,6616;0,043593
2948,6260;0,0433817
2949,5901;0,0431932
2950,5544;0,0430176
2951,5186;0,0428455
2952,4829;0,0426702
2953,4470;0,0424898
2954,4114;0,0423056
2955,3755;0,0421185
2956,3398;0,0419266
2957,3040;0,0417255
2958,2683;0,0415105
2959,2324;0,0412804
2960,1968;0,0410383
2961,1609;0,0407908
2962,1252;0,0405446
2963,0894;0,040304
2964,0537;0,0400698
2965,0178;0,0398401
2965,9822;0,0396119
2966,9463;0,039382
2967,9106;0,0391484
2968,8748;0,0389111
2969,8391;0,038672
2970,8032;0,0384353
2971,7676;0,0382059
2972,7317;0,037988
2973,6960;0,037784
2974,6602;0,0375936
2975,6245;0,0374146
2976,5886;0,0372449
2977,5530;0,0370835
2978,5171;0,0369313
2979,4814;0,0367916
2980,4456;0,0366677
2981,4099;0,0365619
2982,3740;0,0364736
2983,3384;0,0363994
2984,3025;0,0363341
2985,2668;0,0362728
2986,2310;0,0362113
2987,1953;0,0361475
2988,1594;0,0360808
2989,1238;0,0360125
2990,0879;0,0359456
2991,0522;0,0358848
2992,0164;0,0358355
2992,9807;0,0358008
2993,9448;0,0357811
2994,9092;0,0357735
2995,8733;0,0357742
2996,8376;0,0357818
2997,8018;0,0357974
2998,7661;0,0358242
2999,7302;0,0358639
3000,6946;0,0359147
3001,6587;0,0359718
3002,6230;0,0360291
3003,5872;0,0360827
3004,5515;0,0361312
3005,5156;0,0361753
3006,4800;0,0362149
3007,4441;0,0362484
3008,4084;0,0362735
3009,3726;0,0362902
3010,3369;0,0363017
3011,3010;0,0363153
3012,2654;0,0363384
3013,2295;0,0363754
3014,1938;0,0364258
3015,1580;0,0364851
3016,1223;0,0365483
3017,0864;0,0366121
3018,0508;0,0366762
3019,0149;0,0367412
3019,9792;0,0368078
3020,9434;0,0368761
3021,9077;0,0369472
3022,8718;0,0370241
3023,8362;0,0371114
3024,8003;0,0372119
3025,7646;0,0373234
3026,7288;0,0374376
3027,6931;0,0375426
3028,6572;0,0376285
3029,6216;0,0376923
3030,5857;0,0377401
3031,5500;0,0377846
3032,5142;0,0378402
3033,4785;0,0379175
3034,4426;0,03802
3035,4070;0,0381442
3036,3711;0,0382814
3037,3354;0,0384206
3038,2996;0,038551
3039,2639;0,0386654
3040,2280;0,0387621
3041,1924;0,0388457
3042,1565;0,0389256
3043,1208;0,0390122
3044,0850;0,0391122
3045,0493;0,0392264
3046,0134;0,0393507
3046,9778;0,0394796
3047,9419;0,0396096
3048,9063;0,0397408
3049,8704;0,0398747
3050,8347;0,040011
3051,7988;0,040146
3052,7632;0,0402739
3053,7273;0,0403914
3054,6917;0,0405004
3055,6558;0,0406087
3056,6201;0,0407259
3057,5842;0,040858
3058,5486;0,041004
3059,5127;0,0411569
3060,4771;0,0413065
3061,4412;0,0414434
3062,4055;0,0415618
3063,3696;0,0416607
3064,3340;0,0417444
3065,2981;0,0418222
3066,2625;0,0419056
3067,2266;0,0420039
3068,1909;0,0421201
3069,1550;0,0422498
3070,1194;0,0423838
3071,0835;0,0425143
3072,0479;0,0426382
3073,0120;0,0427575
3073,9763;0,0428754
3074,9404;0,0429923
3075,9048;0,0431061
3076,8689;0,0432145
3077,8333;0,0433192
3078,7974;0,043426
3079,7617;0,0435407
3080,7258;0,0436647
3081,6902;0,0437931
3082,6543;0,0439182
3083,6187;0,044035
3084,5828;0,0441445
3085,5471;0,0442525
3086,5112;0,0443653
3087,4756;0,0444853
3088,4397;0,0446103
3089,4041;0,044736
3090,3682;0,0448602
3091,3325;0,0449841
3092,2966;0,0451118
3093,2610;0,0452471
3094,2251;0,0453906
3095,1895;0,045538
3096,1536;0,0456813
3097,1179;0,0458117
3098,0820;0,0459241
3099,0464;0,0460194
3100,0105;0,0461063
3100,9749;0,0461973
3101,9390;0,0463039
3102,9033;0,0464312
3103,8674;0,0465759
3104,8318;0,04673
3105,7959;0,0468855
3106,7603;0,0470386
3107,7244;0,04719
3108,6887;0,0473418
3109,6528;0,0474938
3110,6172;0,0476421
3111,5813;0,0477822
3112,5457;0,0479121
3113,5098;0,0480353
3114,4741;0,0481588
3115,4382;0,0482892
3116,4026;0,0484286
3117,3667;0,0485747
3118,3311;0,0487235
3119,2952;0,0488741
3120,2595;0,04903
3121,2236;0,0491967
3122,1880;0,0493774
3123,1521;0,0495691
3124,1165;0,0497627
3125,0806;0,0499471
3126,0449;0,0501144
3127,0090;0,0502627
3127,9734;0,0503962
3128,9375;0,0505227
3129,9019;0,0506509
3130,8660;0,0507883
3131,8303;0,0509399
3132,7944;0,0511069
3133,7588;0,0512857
3134,7229;0,051469
3135,6873;0,0516479
3136,6514;0,0518166
3137,6157;0,0519748
3138,5798;0,0521278
3139,5442;0,0522838
3140,5083;0,0524496
3141,4727;0,0526275
3142,4368;0,0528159
3143,4011;0,0530109
3144,3652;0,0532081
3145,3296;0,0534043
3146,2937;0,0535964
3147,2581;0,0537815
3148,2222;0,0539571
3149,1865;0,0541225
3150,1506;0,0542795
3151,1150;0,0544331
3152,0791;0,0545895
3153,0435;0,0547544
3154,0076;0,0549304
3154,9719;0,0551162
3155,9360;0,0553069
3156,9004;0,0554961
3157,8645;0,0556797
3158,8289;0,055857
3159,7930;0,0560319
3160,7573;0,0562099
3161,7214;0,0563958
3162,6858;0,0565914
3163,6499;0,0567951
3164,6143;0,0570036
3165,5784;0,0572126
3166,5427;0,0574178
3167,5068;0,0576151
3168,4712;0,0578023
3169,4353;0,0579874
3170,3997;0,0581605
3171,3638;0,0583352
3172,3281;0,0585158
3173,2922;0,0587021
3174,2566;0,0588894
3175,2207;0,0590723
3176,1851;0,0592491
3177,1492;0,0594238
3178,1135;0,0596027
3179,0776;0,0597888
3180,0420;0,0599788
3181,0061;0,0601648
3181,9705;0,0603399
3182,9346;0,0605032
3183,8989;0,0606613
3184,8630;0,0608244
3185,8274;0,0610009
3186,7915;0,0611933
3187,7559;0,0613984
3188,7200;0,0616094
3189,6843;0,0618188
3190,6484;0,0620194
3191,6128;0,0622059
3192,5769;0,0623758
3193,5413;0,062531
3194,5054;0,0626778
3195,4697;0,0628249
3196,4338;0,0629802
3197,3982;0,0631476
3198,3623;0,0633263
3199,3267;0,0635135
3200,2908;0,0637063
3201,2551;0,0639035
3202,2192;0,0641029
3203,1836;0,0642997
3204,1477;0,0644866
3205,1121;0,0646573
3206,0762;0,064811
3207,0405;0,0649538
3208,0046;0,0650963
3208,9690;0,065247
3209,9331;0,0654081
3210,8975;0,0655749
3211,8616;0,0657407
3212,8259;0,0659025
3213,7900;0,0660632
3214,7544;0,0662285
3215,7185;0,0664018
3216,6829;0,0665804
3217,6470;0,0667573
3218,6113;0,0669262
3219,5754;0,067086
3220,5398;0,0672413
3221,5039;0,0673988
3222,4683;0,0675626
3223,4324;0,0677318
3224,3967;0,0679027
3225,3608;0,0680719
3226,3252;0,0682388
3227,2893;0,0684047
3228,2537;0,0685701
3229,2178;0,0687339
3230,1821;0,0688933
3231,1462;0,0690464
3232,1106;0,0691934
3233,0747;0,069337
3234,0391;0,0694812
3235,0032;0,0696299
3235,9675;0,0697871
3236,9316;0,0699564
3237,8960;0,0701398
3238,8601;0,070336
3239,8245;0,0705382
3240,7886;0,0707358
3241,7529;0,0709174
3242,7170;0,0710765
3243,6814;0,0712155
3244,6455;0,0713458
3245,6099;0,0714826
3246,5740;0,071638
3247,5383;0,0718161
3248,5024;0,0720117
3249,4668;0,0722144
3250,4309;0,0724139
3251,3953;0,0726046
3252,3594;0,0727866
3253,3237;0,0729637
3254,2878;0,0731408
3255,2522;0,0733205
3256,2163;0,0735027
3257,1807;0,073686
3258,1448;0,0738689
3259,1091;0,074051
3260,0732;0,0742322
3261,0376;0,0744121
3262,0017;0,074589
3262,9661;0,0747613
3263,9302;0,0749285
3264,8945;0,0750932
3265,8586;0,0752597
3266,8230;0,075432
3267,7871;0,0756099
3268,7515;0,0757874
3269,7156;0,0759539
3270,6799;0,0760985
3271,6440;0,0762155
3272,6084;0,0763073
3273,5725;0,0763838
3274,5369;0,0764566
3275,5010;0,0765334
3276,4653;0,0766151
3277,4294;0,0766973
3278,3938;0,0767755
3279,3579;0,0768495
3280,3223;0,0769231
3281,2864;0,0770015
3282,2507;0,0770867
3283,2148;0,0771753
3284,1792;0,0772598
3285,1433;0,0773323
3286,1077;0,0773884
3287,0718;0,0774274
3288,0361;0,0774521
3289,0002;0,077466
3289,9646;0,0774726
3290,9287;0,0774751
3291,8931;0,0774768
3292,8572;0,0774802
3293,8215;0,077486
3294,7856;0,0774923
3295,7500;0,0774959
3296,7141;0,0774944
3297,6785;0,0774894
3298,6426;0,0774862
3299,6069;0,0774919
3300,5710;0,0775108
3301,5354;0,0775406
3302,4995;0,0775721
3303,4639;0,077593
3304,4280;0,077594
3305,3923;0,0775737
3306,3564;0,0775399
3307,3208;0,0775065
3308,2849;0,0774862
3309,2493;0,0774861
3310,2134;0,0775054
3311,1777;0,0775385
3312,1418;0,077578
3313,1062;0,0776187
3314,0703;0,0776576
3315,0347;0,0776943
3315,9988;0,0777304
3316,9631;0,0777699
3317,9272;0,077819
3318,8916;0,0778837
3319,8557;0,077966
3320,8201;0,0780611
3321,7842;0,0781583
3322,7485;0,0782457
3323,7126;0,0783163
3324,6770;0,0783713
3325,6411;0,0784191
3326,6055;0,07847
3327,5696;0,0785304
3328,5339;0,0785999
3329,4980;0,0786727
3330,4624;0,0787409
3331,4265;0,0787967
3332,3909;0,0788349
3333,3550;0,0788528
3334,3193;0,0788518
3335,2834;0,0788366
3336,2478;0,0788138
3337,2119;0,078788
3338,1763;0,0787576
3339,1404;0,0787145
3340,1047;0,0786477
3341,0688;0,0785509
3342,0332;0,0784274
3342,9973;0,0782893
3343,9617;0,078152
3344,9258;0,0780258
3345,8901;0,0779123
3346,8542;0,0778058
3347,8186;0,0776988
3348,7827;0,077586
3349,7471;0,0774645
3350,7112;0,0773317
3351,6755;0,0771844
3352,6396;0,0770211
3353,6040;0,0768453
3354,5681;0,0766676
3355,5325;0,0765012
3356,4966;0,0763544
3357,4609;0,0762255
3358,4250;0,076103
3359,3894;0,0759731
3360,3535;0,0758279
3361,3179;0,0756693
3362,2820;0,0755064
3363,2463;0,0753486
3364,2104;0,0751996
3365,1748;0,0750558
3366,1389;0,0749106
3367,1033;0,0747584
3368,0674;0,0745986
3369,0317;0,0744349
3369,9958;0,0742737
3370,9602;0,07412
3371,9243;0,0739756
3372,8887;0,0738376
3373,8528;0,0736994
3374,8171;0,0735537
3375,7813;0,0733969
3376,7456;0,073233
3377,7097;0,0730725
3378,6741;0,0729266
3379,6382;0,0727985
3380,6025;0,0726792
3381,5667;0,0725504
3382,5310;0,0723958
3383,4951;0,0722133
3384,4595;0,072019
3385,4236;0,0718393
3386,3879;0,071695
3387,3521;0,0715874
3388,3164;0,0714973
3389,2805;0,0713957
3390,2449;0,0712608
3391,2090;0,0710891
3392,1733;0,0708947
3393,1375;0,0706985
3394,1018;0,0705153
3395,0659;0,0703472
3396,0303;0,0701871
3396,9944;0,0700267
3397,9587;0,0698625
3398,9229;0,0696955
3399,8872;0,0695283
3400,8513;0,069362
3401,8157;0,0691956
3402,7798;0,0690275
3403,7441;0,0688575
3404,7083;0,0686863
3405,6726;0,0685144
3406,6367;0,0683413
3407,6011;0,0681657
3408,5652;0,0679857
3409,5295;0,0677996
3410,4937;0,0676064
3411,4580;0,0674066
3412,4221;0,0672034
3413,3865;0,0670021
3414,3506;0,0668067
3415,3149;0,066616
3416,2791;0,0664217
3417,2434;0,0662115
3418,2075;0,0659765
3419,1719;0,0657188
3420,1360;0,065453
3421,1003;0,0652002
3422,0645;0,0649755
3423,0288;0,0647796
3423,9929;0,0645984
3424,9573;0,0644117
3425,9214;0,0642042
3426,8857;0,0639731
3427,8499;0,0637285
3428,8142;0,0634867
3429,7783;0,0632603
3430,7427;0,0630509
3431,7068;0,062849
3432,6711;0,0626409
3433,6353;0,0624177
3434,5996;0,0621798
3435,5637;0,0619359
3436,5281;0,0616966
3437,4922;0,0614688
3438,4565;0,0612538
3439,4207;0,0610494
3440,3850;0,060851
3441,3491;0,0606511
3442,3135;0,0604374
3443,2776;0,0601936
3444,2419;0,0599068
3445,2061;0,0595785
3446,1704;0,0592304
3447,1345;0,0588986
3448,0989;0,0586148
3449,0630;0,0583882
3450,0273;0,0582019
3450,9915;0,0580258
3451,9558;0,0578338
3452,9199;0,0576162
3453,8843;0,0573809
3454,8484;0,0571428
3455,8127;0,0569119
3456,7769;0,0566857
3457,7412;0,0564521
3458,7053;0,0561997
3459,6697;0,0559264
3460,6338;0,0556424
3461,5981;0,0553641
3462,5623;0,0551045
3463,5266;0,0548653
3464,4907;0,0546371
3465,4551;0,0544056
3466,4192;0,054161
3467,3835;0,0539038
3468,3477;0,0536435
3469,3120;0,0533913
3470,2761;0,0531528
3471,2405;0,0529249
3472,2046;0,0527001
3473,1689;0,0524729
3474,1331;0,0522441
3475,0974;0,0520182
3476,0615;0,0517963
3477,0259;0,0515718
3477,9900;0,0513329
3478,9543;0,0510703
3479,9185;0,050787
3480,8828;0,0504993
3481,8469;0,0502286
3482,8113;0,0499879
3483,7754;0,049773
3484,7397;0,0495665
3485,7039;0,0493492
3486,6682;0,0491114
3487,6323;0,0488572
3488,5967;0,0486014
3489,5608;0,0483585
3490,5251;0,0481345
3491,4893;0,0479236
3492,4536;0,0477142
3493,4177;0,0474975
3494,3821;0,0472753
3495,3462;0,0470609
3496,3105;0,0468693
3497,2747;0,046703
3498,2390;0,0465434
3499,2031;0,0463565
3500,1675;0,0461097
3501,1316;0,0457957
3502,0959;0,0454451
3503,0601;0,0451151
3504,0244;0,0448531
3504,9885;0,0446648
3505,9529;0,0445129
3506,9170;0,0443435
3507,8813;0,0441178
3508,8455;0,0438333
3509,8098;0,0435222
3510,7739;0,0432284
3511,7383;0,0429786
3512,7024;0,0427717
3513,6667;0,0425898
3514,6309;0,0424166
3515,5952;0,0422483
3516,5593;0,0420898
3517,5237;0,0419429
3518,4878;0,0417981
3519,4521;0,0416362
3520,4163;0,0414389
3521,3806;0,0412006
3522,3447;0,0409311
3523,3091;0,0406471
3524,2732;0,0403586
3525,2375;0,0400633
3526,2017;0,0397553
3527,1660;0,0394405
3528,1301;0,0391444
3529,0945;0,0389024
3530,0586;0,038736
3531,0229;0,0386362
3531,9871;0,0385637
3532,9514;0,0384664
3533,9155;0,0383013
3534,8799;0,0380548
3535,8440;0,0377512
3536,8083;0,0374441
3537,7725;0,0371906
3538,7368;0,0370235
3539,7009;0,0369379
3540,6653;0,0368934
3541,6294;0,0368278
3542,5938;0,0366778
3543,5579;0,0364077
3544,5222;0,0360356
3545,4863;0,0356326
3546,4507;0,0352818
3547,4148;0,0350234
3548,3792;0,0348365
3549,3433;0,034663
3550,3076;0,0344482
3551,2717;0,0341738
3552,2361;0,03387
3553,2002;0,033596
3554,1646;0,033398
3555,1287;0,0332781
3556,0930;0,0331996
3557,0571;0,033115
3558,0215;0,0329983
3558,9856;0,0328618
3559,9500;0,0327476
3560,9141;0,0326931
3561,8784;0,0326931
3562,8425;0,0326837
3563,8069;0,0325552
3564,7710;0,0322006
3565,7354;0,0316027
3566,6995;0,0309016
3567,6638;0,0303218
3568,6279;0,0299942
3569,5923;0,0298884
3570,5564;0,0298911
3571,5208;0,0298936
3572,4849;0,0298297
3573,4492;0,0296836
3574,4133;0,0294816
3575,3777;0,0292663
3576,3418;0,0290659
3577,3062;0,0288822
3578,2703;0,0287065
3579,2346;0,0285438
3580,1987;0,0284215
3581,1631;0,0283687
3582,1272;0,0283842
3583,0916;0,0284147
3584,0557;0,0283593
3585,0200;0,028108
3585,9841;0,0276227
3586,9485;0,0270149
3587,9126;0,0264992
3588,8770;0,0262209
3589,8411;0,0261619
3590,8054;0,0262014
3591,7695;0,0262098
3592,7339;0,0261046
3593,6980;0,0258788
3594,6624;0,0255966
3595,6265;0,0253394
3596,5908;0,0251383
3597,5549;0,02496
3598,5193;0,0247544
3599,4834;0,0245135
3600,4478;0,02429
3601,4119;0,0241581
3602,3762;0,0241504
3603,3403;0,0242289
3604,3047;0,0243063
3605,2688;0,0242907
3606,2332;0,0241328
3607,1973;0,023857
3608,1616;0,0235457
3609,1257;0,0232758
3610,0901;0,0230664
3611,0542;0,0228918
3612,0186;0,0227292
3612,9827;0,0225867
3613,9470;0,0224868
3614,9111;0,022426
3615,8755;0,0223503
3616,8396;0,0221726
3617,8040;0,0218326
3618,7681;0,0213708
3619,7324;0,0209388
3620,6965;0,0207017
3621,6609;0,0207291
3622,6250;0,0209828
3623,5894;0,0213644
3624,5535;0,0217431
3625,5178;0,0219534
3626,4819;0,021813
3627,4463;0,0212297
3628,4104;0,020365
3629,3748;0,0195834
3630,3389;0,0191257
3631,3032;0,018965
3632,2673;0,0189555
3633,2317;0,0189735
3634,1958;0,0189572
3635,1602;0,0188991
3636,1243;0,0188227
3637,0886;0,0187524
3638,0527;0,0186964
3639,0171;0,0186518
3639,9812;0,0186246
3640,9456;0,0186424
3641,9097;0,0187456
3642,8740;0,01896
3643,8381;0,0192668
3644,8025;0,0195777
3645,7666;0,0197187
3646,7310;0,0194543
3647,6951;0,0186488
3648,6594;0,0175452
3649,6235;0,0166882
3650,5879;0,0163693
3651,5520;0,0164596
3652,5164;0,0167037
3653,4805;0,0168998
3654,4448;0,0169272
3655,4089;0,0167595
3656,3733;0,0164767
3657,3374;0,0162154
3658,3018;0,0160657
3659,2659;0,0160243
3660,2302;0,0160374
3661,1943;0,0160666
3662,1587;0,0161231
3663,1228;0,0162527
3664,0872;0,0164865
3665,0513;0,0167954
3666,0156;0,0170804
3666,9797;0,0172049
3667,9441;0,0170759
3668,9082;0,0167502
3669,8726;0,0164365
3670,8367;0,0163118
3671,8010;0,0163563
3672,7651;0,0163859
3673,7295;0,016189
3674,6936;0,0156866
3675,6580;0,0150469
3676,6221;0,0145656
3677,5864;0,0143878
3678,5505;0,0144478
3679,5149;0,0146179
3680,4790;0,0148175
3681,4434;0,0150323
3682,4075;0,0152895
3683,3718;0,0156147
3684,3359;0,0159913
3685,3003;0,0163385
3686,2644;0,0165161
3687,2288;0,0163756
3688,1929;0,0158817
3689,1572;0,0152209
3690,1213;0,0146941
3691,0857;0,0144601
3692,0498;0,0144736
3693,0142;0,014617
3693,9783;0,0148029
3694,9426;0,0149929
3695,9067;0,0151785
3696,8711;0,0153528
3697,8352;0,0154886
3698,7996;0,015537
3699,7637;0,0154538
3700,7280;0,0152456
3701,6921;0,014996
3702,6565;0,0148309
3703,6206;0,0148409
3704,5850;0,0150367
3705,5491;0,0153591
3706,5134;0,015706
3707,4775;0,0159475
3708,4419;0,0159473
3709,4060;0,0156282
3710,3704;0,0150752
3711,3345;0,0145392
3712,2988;0,0142466
3713,2629;0,0142394
3714,2273;0,0144267
3715,1914;0,0146963
3716,1558;0,0149626
3717,1199;0,0151718
3718,0842;0,0153018
3719,0483;0,0153623
3720,0127;0,0153835
3720,9768;0,0153874
3721,9412;0,0153673
3722,9053;0,0152967
3723,8696;0,0151688
3724,8337;0,0150282
3725,7981;0,0149586
3726,7622;0,0150305
3727,7266;0,0152614
3728,6907;0,0156135
3729,6550;0,0160136
3730,6191;0,0163669
3731,5835;0,0165636
3732,5476;0,0164949
3733,5120;0,0161088
3734,4761;0,0154972
3735,4404;0,0149017
3736,4045;0,0145594
3737,3689;0,0145599
3738,3330;0,0148612
3739,2974;0,0153627
3740,2615;0,0159333
3741,2258;0,0164086
3742,1899;0,0166125
3743,1543;0,0164607
3744,1184;0,016093
3745,0828;0,0158064
3746,0469;0,0157754
3747,0112;0,0159242
3747,9753;0,0160297
3748,9397;0,0158642
3749,9038;0,0153597
3750,8682;0,0147366
3751,8323;0,0143419
3752,7966;0,0143122
3753,7607;0,0145359
3754,7251;0,0148325
3755,6892;0,0150542
3756,6536;0,0151132
3757,6177;0,015007
3758,5820;0,0148275
3759,5461;0,0147039
3760,5105;0,0147104
3761,4746;0,0148336
3762,4390;0,0150113
3763,4031;0,0151788
3764,3674;0,0152927
3765,3315;0,0153335
3766,2959;0,0152968
3767,2600;0,015183
3768,2244;0,0149988
3769,1885;0,0147743
3770,1528;0,0145727
3771,1169;0,0144692
3772,0813;0,0145088
3773,0454;0,0146824
3774,0098;0,0149333
3774,9739;0,015178
3775,9382;0,0153315
3776,9023;0,0153397
3777,8667;0,0152146
3778,8308;0,0150364
3779,7952;0,0148994
3780,7593;0,0148449
3781,7236;0,0148509
3782,6877;0,0148686
3783,6521;0,0148613
3784,6162;0,0148221
3785,5806;0,0147702
3786,5447;0,0147359
3787,5090;0,0147463
3788,4731;0,0148181
3789,4375;0,0149543
3790,4016;0,0151399
3791,3660;0,0153412
3792,3301;0,0155149
3793,2944;0,015629
3794,2585;0,0156857
3795,2229;0,0157246
3796,1870;0,0157894
3797,1514;0,0158779
3798,1155;0,0159215
3799,0798;0,0158236
3800,0439;0,0155493
3801,0083;0,0151946
3801,9724;0,01493
3802,9368;0,014848
3803,9009;0,0148932
3804,8652;0,0149323
3805,8293;0,0148652
3806,7937;0,0147076
3807,7578;0,0145892
3808,7222;0,0146471
3809,6863;0,0149178
3810,6506;0,0153322
3811,6147;0,0157684
3812,5791;0,0160978
3813,5432;0,0162317
3814,5076;0,0161758
3815,4717;0,0160401
3816,4360;0,0159428
3817,4001;0,0158955
3818,3645;0,0158034
3819,3286;0,0155714
3820,2930;0,0152157
3821,2571;0,0148764
3822,2214;0,0146952
3823,1855;0,014701
3824,1499;0,0148285
3825,1140;0,0149959
3826,0784;0,0151498
3827,0425;0,0152735
3828,0068;0,0153759
3828,9709;0,0154744
3829,9353;0,0155823
3830,8994;0,0157074
3831,8638;0,0158531
3832,8279;0,0160144
3833,7922;0,0161647
3834,7563;0,016249
3835,7207;0,0161986
3836,6848;0,0159757
3837,6492;0,015623
3838,6133;0,0152575
3839,5776;0,0149915
3840,5417;0,0148583
3841,5061;0,0148211
3842,4702;0,0148306
3843,4346;0,0148698
3844,3987;0,0149641
3845,3630;0,0151608
3846,3271;0,0154991
3847,2915;0,0159857
3848,2556;0,0165801
3849,2200;0,0171748
3850,1841;0,0175682
3851,1484;0,017479
3852,1125;0,0167305
3853,0769;0,0155908
3854,0410;0,0146793
3855,0054;0,0143248
3855,9695;0,0144248
3856,9338;0,0147742
3857,8979;0,0152227
3858,8623;0,0156608
3859,8264;0,0159912
3860,7908;0,0161357
3861,7549;0,0160774
3862,7192;0,0158981
3863,6833;0,0157455
3864,6477;0,0157301
3865,6118;0,0158548
3866,5762;0,0160334
3867,5403;0,0161504
3868,5046;0,0161151
3869,4688;0,0159035
3870,4331;0,0155775
3871,3972;0,0152556
3872,3616;0,0150488
3873,3257;0,0150122
3874,2900;0,0151386
3875,2542;0,0153761
3876,2185;0,0156492
3877,1826;0,0158779
3878,1470;0,0160026
3879,1111;0,0160118
3880,0754;0,0159483
3881,0396;0,0158729
3882,0039;0,015811
3882,9680;0,0157426
3883,9324;0,0156465
3884,8965;0,0155476
3885,8608;0,0155071
3886,8250;0,0155628
3887,7893;0,0156812
3888,7534;0,0157683
3889,7178;0,015728
3890,6819;0,0155402
3891,6462;0,0153066
3892,6104;0,0151904
3893,5747;0,0152891
3894,5388;0,0155803
3895,5032;0,0159676
3896,4673;0,0163409
3897,4316;0,0166119
3898,3958;0,0167343
3899,3601;0,0167066
3900,3242;0,0165484
3901,2886;0,0162738
3902,2527;0,0159029
3903,2170;0,0154957
3904,1812;0,0151497
3905,1455;0,0149433
3906,1096;0,0148913
3907,0740;0,0149541
3908,0381;0,0150763
3909,0024;0,0152175
3909,9666;0,015364
3910,9309;0,0155221
3911,8950;0,0156995
3912,8594;0,0158841
3913,8235;0,0160365
3914,7878;0,016105
3915,7520;0,0160583
3916,7163;0,0159189
3917,6804;0,0157607
3918,6448;0,0156623
3919,6089;0,0156534
3920,5732;0,015704
3921,5374;0,0157536
3922,5017;0,0157531
3923,4658;0,0156969
3924,4302;0,0156278
3925,3943;0,0156048
3926,3586;0,0156574
3927,3228;0,0157646
3928,2871;0,0158687
3929,2512;0,015907
3930,2156;0,0158468
3931,1797;0,0157071
3932,1440;0,0155491
3933,1082;0,0154367
3934,0725;0,0154021
3935,0366;0,0154439
3936,0010;0,015542
3936,9651;0,0156705
3937,9294;0,0158
3938,8936;0,0158989
3939,8579;0,0159402
3940,8220;0,0159165
3941,7864;0,0158513
3942,7505;0,0157905
3943,7148;0,0157735
3944,6790;0,0158059
3945,6433;0,0158557
3946,6074;0,0158745
3947,5718;0,0158282
3948,5359;0,0157208
3949,5002;0,0155942
3950,4644;0,0155009
3951,4287;0,0154712
3952,3928;0,0155019
3953,3572;0,0155688
3954,3213;0,0156454
3955,2856;0,0157152
3956,2498;0,0157717
3957,2141;0,0158116
3958,1782;0,0158295
3959,1426;0,0158191
3960,1067;0,0157805
3961,0710;0,0157252
3962,0352;0,0156739
3962,9995;0,0156457
3963,9636;0,0156488
3964,9280;0,0156778
3965,8921;0,0157195
3966,8564;0,0157598
3967,8206;0,0157892
3968,7849;0,0158031
3969,7490;0,0158002
3970,7134;0,0157815
3971,6775;0,0157514
3972,6418;0,0157188
3973,6060;0,0156962
3974,5703;0,0156934
3975,5344;0,015712
3976,4988;0,0157426
3977,4629;0,0157698
3978,4272;0,0157811
3979,3914;0,015774
3980,3557;0,0157571
3981,3198;0,0157445
3982,2842;0,0157464
3983,2483;0,0157636
3984,2126;0,0157873
3985,1768;0,0158062
3986,1411;0,0158132
3987,1052;0,0158102
3988,0696;0,0158052
3989,0337;0,015807
3989,9980;0,0158193
3990,9622;0,0158382
3991,9265;0,0158554
3992,8906;0,0158632
3993,8550;0,0158601
3994,8191;0,0158512
3995,7834;0,0158446
3996,7476;0,0158457
3997,7119;0,0158539
3998,6760;0,015864
3999,6404;0,0158712
4000,6045;0,0157719

##### Extended Information
[Comments]
Sample name
Comment
Username
Division
Organization;UNIVERSIDAD INDUSTRIAL DE SANTANDER

[Detailed Information]
Creation date;28/02/2025 6:26 p.m.

Data array type;Linear data array
Horizontal axis;Wavenumber [cm-1]
Vertical axis;Abs
Start;399,193 cm-1
End;4000,6 cm-1
Data interval;0,964233 cm-1
Data points;3736    

[Measurement Information]
Model name;FT/IR-4X1typeA
Serial No.;A035162111

Accessory;ATR PRO 4X
Accessory S/N;A021162126
Incident angle;45 deg

Measurement date;28/02/2025 6:26 p.m.

Light source;Standard
Detector;TGS
Accumulation;40
Resolution;4 cm-1
Zero filling;On
Apodization;Cosine
Gain;Auto (8)
Aperture;Auto (7 mm)
Scan speed;Auto (2 mm/sec)
Filter;Auto (12800 Hz)

