TITLE;
DATA TYPE;INFRARED SPECTRUM
ORIGIN;JASCO
OWNER;
DATE;25/02/28
TIME;17:44:29
SPECTROMETER/DATA SYSTEM;
LOCALE;9226
RESOLUTION;
DELTAX;0,964233
XUNITS;1/CM
YUNITS;ABSORBANCE
FIRSTX;  399,1927
LASTX; 4000,6047
NPOINTS;    3736
FIRSTY;     0,14265
MAXY;     0,22328
MINY;     0,01216
XYDATA
399,1927;0,142648
400,1569;0,143836
401,1211;0,143509
402,0854;0,142678
403,0496;0,142138
404,0138;0,142332
404,9781;0,143405
405,9423;0,14526
406,9065;0,147628
407,8708;0,150176
408,8350;0,152589
409,7992;0,154606
410,7635;0,156033
411,7277;0,15677
412,6919;0,156852
413,6562;0,156438
414,6204;0,155773
415,5846;0,155192
416,5489;0,155185
417,5131;0,156382
418,4773;0,15913
419,4416;0,162817
420,4058;0,166129
421,3700;0,168257
422,3343;0,169282
423,2985;0,169661
424,2627;0,169788
425,2270;0,169846
426,1912;0,169826
427,1554;0,169646
428,1197;0,169316
429,0839;0,169019
430,0481;0,169075
431,0124;0,169798
431,9766;0,171305
432,9408;0,173397
433,9051;0,17557
434,8693;0,177181
435,8335;0,177709
436,7978;0,177001
437,7620;0,175345
438,7262;0,173319
439,6905;0,171558
440,6547;0,170551
441,6189;0,170516
442,5832;0,171324
443,5474;0,172533
444,5116;0,173588
445,4759;0,174108
446,4401;0,174033
447,4043;0,173563
448,3686;0,172983
449,3328;0,172505
450,2970;0,172181
451,2613;0,17191
452,2255;0,171529
453,1897;0,170943
454,1540;0,170208
455,1182;0,169534
456,0824;0,169201
457,0467;0,169396
458,0109;0,170049
458,9751;0,170831
459,9394;0,171384
460,9036;0,171572
461,8678;0,171508
462,8321;0,171411
463,7963;0,171445
464,7605;0,171619
465,7248;0,171788
466,6890;0,171756
467,6532;0,171408
468,6175;0,170799
469,5817;0,170134
470,5459;0,169674
471,5102;0,169612
472,4744;0,169968
473,4386;0,170573
474,4029;0,171191
475,3671;0,171662
476,3313;0,171941
477,2956;0,172057
478,2598;0,172047
479,2240;0,171932
480,1883;0,171736
481,1525;0,171524
482,1167;0,171413
483,0810;0,171534
484,0452;0,171948
485,0094;0,172589
485,9737;0,173276
486,9379;0,173823
487,9021;0,17413
488,8664;0,174221
489,8306;0,174197
490,7948;0,174174
491,7591;0,17421
492,7233;0,174289
493,6875;0,17435
494,6518;0,174348
495,6160;0,174291
496,5802;0,174234
497,5445;0,174243
498,5087;0,17436
499,4729;0,174584
500,4372;0,174881
501,4014;0,175199
502,3656;0,175485
503,3299;0,175695
504,2941;0,1758
505,2583;0,175793
506,2226;0,175702
507,1868;0,175602
508,1510;0,175601
509,1153;0,175798
510,0795;0,176227
511,0437;0,176842
512,0080;0,177536
512,9722;0,178205
513,9365;0,17879
514,9007;0,179292
515,8649;0,179749
516,8292;0,180189
517,7934;0,180592
518,7576;0,180899
519,7219;0,181056
520,6861;0,181061
521,6503;0,18096
522,6146;0,180817
523,5788;0,180684
524,5430;0,18059
525,5073;0,180537
526,4715;0,180515
527,4357;0,180506
528,4000;0,180483
529,3642;0,180413
530,3284;0,180254
531,2927;0,179978
532,2569;0,179586
533,2211;0,179131
534,1854;0,178697
535,1496;0,178367
536,1138;0,178176
537,0781;0,178096
538,0423;0,178059
539,0065;0,178009
539,9708;0,177937
540,9350;0,177883
541,8992;0,177912
542,8635;0,178065
543,8277;0,17834
544,7919;0,178683
545,7562;0,179022
546,7204;0,179296
547,6846;0,179481
548,6489;0,179609
549,6131;0,179748
550,5773;0,179986
551,5416;0,180392
552,5058;0,180982
553,4700;0,181703
554,4343;0,182436
555,3985;0,183035
556,3627;0,183367
557,3270;0,183351
558,2912;0,18296
559,2554;0,182216
560,2197;0,181178
561,1839;0,179942
562,1481;0,178629
563,1124;0,177368
564,0766;0,176257
565,0408;0,175331
566,0051;0,174559
566,9693;0,173877
567,9335;0,173227
568,8978;0,172601
569,8620;0,172031
570,8262;0,171569
571,7905;0,171246
572,7547;0,171054
573,7189;0,170953
574,6832;0,170887
575,6474;0,170803
576,6116;0,170673
577,5759;0,170496
578,5401;0,170292
579,5043;0,170087
580,4686;0,169896
581,4328;0,169715
582,3970;0,169529
583,3613;0,16932
584,3255;0,169087
585,2897;0,168851
586,2540;0,168655
587,2182;0,168548
588,1824;0,168564
589,1467;0,168702
590,1109;0,168917
591,0751;0,16912
592,0394;0,169214
593,0036;0,169129
593,9678;0,168857
594,9321;0,168448
595,8963;0,167981
596,8605;0,167523
597,8248;0,167114
598,7890;0,166761
599,7532;0,166449
600,7175;0,166159
601,6817;0,165877
602,6459;0,165591
603,6102;0,165294
604,5744;0,164976
605,5386;0,164623
606,5029;0,164211
607,4671;0,163711
608,4313;0,163106
609,3956;0,162406
610,3598;0,161665
611,3240;0,160963
612,2883;0,160379
613,2525;0,159943
614,2167;0,159612
615,1810;0,159278
616,1452;0,158806
617,1094;0,158096
618,0737;0,157132
619,0379;0,155983
620,0021;0,154762
620,9664;0,153563
621,9306;0,152431
622,8948;0,151373
623,8591;0,150375
624,8233;0,149426
625,7875;0,148544
626,7518;0,147751
627,7160;0,147066
628,6802;0,146492
629,6445;0,146011
630,6087;0,145589
631,5729;0,145192
632,5372;0,144792
633,5014;0,144379
634,4656;0,143958
635,4299;0,143533
636,3941;0,143111
637,3583;0,142689
638,3226;0,142269
639,2868;0,141855
640,2510;0,141453
641,2153;0,141065
642,1795;0,140685
643,1437;0,1403
644,1080;0,139898
645,0722;0,139475
646,0364;0,139043
647,0007;0,13862
647,9649;0,138231
648,9291;0,137896
649,8934;0,137633
650,8576;0,137457
651,8218;0,13738
652,7861;0,137403
653,7503;0,137512
654,7145;0,137683
655,6788;0,137883
656,6430;0,138083
657,6072;0,138266
658,5715;0,138416
659,5357;0,138507
660,4999;0,138505
661,4642;0,138394
662,4284;0,138192
663,3926;0,137953
664,3569;0,137744
665,3211;0,137627
666,2853;0,137627
667,2496;0,137623
668,2138;0,137273
669,1780;0,136323
670,1423;0,134985
671,1065;0,133588
672,0707;0,132217
673,0350;0,130805
673,9992;0,129283
674,9634;0,127652
675,9277;0,125978
676,8919;0,124355
677,8561;0,12285
678,8204;0,121486
679,7846;0,120265
680,7488;0,1192
681,7131;0,1183
682,6773;0,117555
683,6415;0,116923
684,6058;0,116352
685,5700;0,115803
686,5342;0,115267
687,4985;0,114758
688,4627;0,114299
689,4269;0,113899
690,3912;0,113552
691,3554;0,113238
692,3196;0,112928
693,2839;0,1126
694,2481;0,112239
695,2123;0,111846
696,1766;0,111426
697,1408;0,110989
698,1050;0,110542
699,0693;0,110092
700,0335;0,109645
700,9977;0,10921
701,9620;0,108791
702,9262;0,108389
703,8904;0,107995
704,8547;0,107601
705,8189;0,107196
706,7831;0,10677
707,7474;0,106317
708,7116;0,105826
709,6758;0,105286
710,6401;0,104687
711,6043;0,104029
712,5685;0,103331
713,5328;0,10263
714,4970;0,101977
715,4612;0,101331
716,4255;0,100893
717,3897;0,100536
718,3539;0,100177
719,3182;0,0997093
720,2824;0,0990485
721,2466;0,0981752
722,2109;0,0971437
723,1751;0,0960479
724,1393;0,0949754
725,1036;0,0939805
726,0678;0,0930825
727,0320;0,0922786
727,9963;0,0915568
728,9605;0,0909031
729,9247;0,0903037
730,8890;0,0897439
731,8532;0,0892083
732,8174;0,0886834
733,7817;0,0881588
734,7459;0,08763
735,7101;0,0870997
736,6744;0,0865789
737,6386;0,0860834
738,6028;0,0856272
739,5671;0,085214
740,5313;0,0848323
741,4955;0,0844604
742,4598;0,0840787
743,4240;0,0836822
744,3882;0,0832837
745,3525;0,0829037
746,3167;0,0825542
747,2809;0,0822264
748,2452;0,0818931
749,2094;0,0815233
750,1736;0,0811011
751,1379;0,0806343
752,1021;0,0801504
753,0663;0,0796823
754,0306;0,0792551
754,9948;0,0788801
755,9590;0,0785557
756,9233;0,0782713
757,8875;0,078008
758,8517;0,07774
759,8160;0,0774382
760,7802;0,0770816
761,7444;0,0766688
762,7087;0,0762231
763,6729;0,0757843
764,6371;0,0753906
765,6014;0,0750601
766,5656;0,0747841
767,5298;0,0745347
768,4941;0,0742808
769,4583;0,0740037
770,4225;0,0737025
771,3868;0,0733902
772,3510;0,073084
773,3152;0,0727965
774,2795;0,0725317
775,2437;0,0722861
776,2079;0,0720533
777,1722;0,0718288
778,1364;0,0716117
779,1006;0,0714024
780,0649;0,0711969
781,0291;0,0709832
781,9933;0,0707424
782,9576;0,070456
783,9218;0,0701161
784,8860;0,0697316
785,8503;0,069327
786,8145;0,0689329
787,7787;0,0685746
788,7430;0,0682651
789,7072;0,0680046
790,6714;0,0677849
791,6357;0,0675952
792,5999;0,0674256
793,5641;0,0672667
794,5284;0,0671099
795,4926;0,0669473
796,4568;0,066773
797,4211;0,0665857
798,3853;0,0663889
799,3495;0,0661906
800,3138;0,066001
801,2780;0,0658288
802,2422;0,0656777
803,2065;0,0655443
804,1707;0,0654195
805,1349;0,0652926
806,0992;0,0651577
807,0634;0,0650166
808,0276;0,0648775
808,9919;0,064749
809,9561;0,0646329
810,9203;0,0645233
811,8846;0,0644104
812,8488;0,0642879
813,8130;0,0641584
814,7773;0,0640316
815,7415;0,0639177
816,7057;0,0638208
817,6700;0,0637384
818,6342;0,0636654
819,5984;0,0636007
820,5627;0,0635481
821,5269;0,0635124
822,4911;0,0634916
823,4554;0,063474
824,4196;0,0634424
825,3839;0,0633842
826,3481;0,0632998
827,3123;0,0632026
828,2766;0,0631119
829,2408;0,063041
830,2050;0,06299
831,1693;0,062946
832,1335;0,0628892
833,0977;0,0628002
834,0620;0,0626653
835,0262;0,0624776
835,9904;0,062238
836,9547;0,0619558
837,9189;0,0616501
838,8831;0,0613472
839,8474;0,0610746
840,8116;0,0608527
841,7758;0,0606881
842,7401;0,0605728
843,7043;0,0604892
844,6685;0,0604177
845,6328;0,0603434
846,5970;0,0602592
847,5612;0,0601651
848,5255;0,0600658
849,4897;0,0599674
850,4539;0,0598755
851,4182;0,0597925
852,3824;0,0597177
853,3466;0,0596473
854,3109;0,0595771
855,2751;0,0595044
856,2393;0,05943
857,2036;0,0593585
858,1678;0,0592981
859,1320;0,0592598
860,0963;0,0592554
861,0605;0,0592934
862,0247;0,0593747
862,9890;0,0594906
863,9532;0,0596248
864,9174;0,0597608
865,8817;0,0598895
866,8459;0,0600115
867,8101;0,0601345
868,7744;0,0602659
869,7386;0,0604077
870,7028;0,0605577
871,6671;0,060714
872,6313;0,0608787
873,5955;0,061056
874,5598;0,0612457
875,5240;0,0614388
876,4882;0,0616197
877,4525;0,0617766
878,4167;0,0619126
879,3809;0,0620503
880,3452;0,0622251
881,3094;0,0624714
882,2736;0,0628097
883,2379;0,0632418
884,2021;0,0637557
885,1663;0,0643362
886,1306;0,0649732
887,0948;0,0656642
888,0590;0,0664099
889,0233;0,0672073
889,9875;0,0680441
890,9517;0,0688967
891,9160;0,0697327
892,8802;0,0705157
893,8444;0,0712101
894,8087;0,0717857
895,7729;0,0722195
896,7371;0,0724968
897,7014;0,0726105
898,6656;0,0725617
899,6298;0,0723589
900,5941;0,0720189
901,5583;0,0715661
902,5225;0,071032
903,4868;0,0704523
904,4510;0,0698638
905,4152;0,0693008
906,3795;0,0687907
907,3437;0,0683508
908,3079;0,0679878
909,2722;0,0676991
910,2364;0,0674774
911,2007;0,0673168
912,1649;0,0672161
913,1292;0,0671787
914,0934;0,0672094
915,0576;0,0673082
916,0219;0,067468
916,9861;0,0676749
917,9503;0,0679139
918,9146;0,0681727
919,8788;0,0684447
920,8430;0,0687257
921,8073;0,0690109
922,7715;0,0692916
923,7357;0,0695574
924,7000;0,0698004
925,6642;0,0700196
926,6284;0,0702215
927,5927;0,0704164
928,5569;0,0706127
929,5211;0,0708124
930,4854;0,0710112
931,4496;0,071203
932,4138;0,0713862
933,3781;0,0715678
934,3423;0,071764
935,3065;0,0719945
936,2708;0,0722767
937,2350;0,0726202
938,1992;0,0730264
939,1635;0,0734922
940,1277;0,0740158
941,0919;0,0745999
942,0562;0,0752509
943,0204;0,0759744
943,9846;0,0767701
944,9489;0,077632
945,9131;0,0785518
946,8773;0,0795256
947,8416;0,0805564
948,8058;0,0816533
949,7700;0,0828245
950,7343;0,0840715
951,6985;0,0853873
952,6627;0,08676
953,6270;0,0881794
954,5912;0,0896426
955,5554;0,0911539
956,5197;0,0927209
957,4839;0,0943481
958,4481;0,0960336
959,4124;0,0977692
960,3766;0,0995443
961,3408;0,101348
962,3051;0,103172
963,2693;0,105004
964,2335;0,106831
965,1978;0,108644
966,1620;0,110442
967,1262;0,112242
968,0905;0,114077
969,0547;0,115991
970,0189;0,118026
970,9832;0,120208
971,9474;0,122551
972,9116;0,125056
973,8759;0,127725
974,8401;0,130566
975,8043;0,133587
976,7686;0,136791
977,7328;0,140164
978,6970;0,143668
979,6613;0,147239
980,6255;0,150787
981,5897;0,154209
982,5540;0,157402
983,5182;0,160285
984,4824;0,162819
985,4467;0,165012
986,4109;0,166914
987,3751;0,16859
988,3394;0,170096
989,3036;0,171459
990,2678;0,172684
991,2321;0,173766
992,1963;0,174706
993,1605;0,175523
994,1248;0,176245
995,0890;0,176908
996,0532;0,177539
997,0175;0,178154
997,9817;0,178755
998,9459;0,179341
999,9102;0,179912
1000,8744;0,18048
1001,8386;0,18107
1002,8029;0,181726
1003,7671;0,182498
1004,7313;0,183434
1005,6956;0,18457
1006,6598;0,185924
1007,6240;0,187493
1008,5883;0,189262
1009,5525;0,191202
1010,5167;0,193275
1011,4810;0,195437
1012,4452;0,197643
1013,4094;0,199852
1014,3737;0,202027
1015,3379;0,204139
1016,3021;0,206158
1017,2664;0,208054
1018,2306;0,209803
1019,1948;0,211394
1020,1591;0,212834
1021,1233;0,214149
1022,0875;0,215373
1023,0518;0,216538
1024,0160;0,217663
1024,9802;0,21875
1025,9445;0,21979
1026,9087;0,220766
1027,8729;0,221655
1028,8372;0,222416
1029,8014;0,222987
1030,7656;0,223282
1031,7299;0,223202
1032,6941;0,222665
1033,6583;0,221634
1034,6226;0,22014
1035,5868;0,218287
1036,5510;0,216229
1037,5153;0,21414
1038,4795;0,212181
1039,4437;0,210476
1040,4080;0,2091
1041,3722;0,20808
1042,3364;0,207402
1043,3007;0,207012
1044,2649;0,20683
1045,2291;0,206761
1046,1934;0,206713
1047,1576;0,206608
1048,1218;0,206393
1049,0861;0,206031
1050,0503;0,205493
1051,0145;0,204751
1051,9788;0,203781
1052,9430;0,20257
1053,9072;0,201127
1054,8715;0,199479
1055,8357;0,197644
1056,7999;0,195618
1057,7642;0,193361
1058,7284;0,190815
1059,6926;0,187939
1060,6569;0,184748
1061,6211;0,181326
1062,5853;0,177806
1063,5496;0,174336
1064,5138;0,171033
1065,4780;0,167965
1066,4423;0,165151
1067,4065;0,162583
1068,3707;0,160237
1069,3350;0,158086
1070,2992;0,156087
1071,2634;0,154186
1072,2277;0,15232
1073,1919;0,150427
1074,1561;0,148464
1075,1204;0,146416
1076,0846;0,144297
1077,0488;0,142145
1078,0131;0,140009
1078,9773;0,137946
1079,9415;0,136005
1080,9058;0,134225
1081,8700;0,132629
1082,8342;0,131223
1083,7985;0,130003
1084,7627;0,128959
1085,7269;0,128074
1086,6912;0,127334
1087,6554;0,12672
1088,6196;0,126218
1089,5839;0,125815
1090,5481;0,12551
1091,5123;0,125303
1092,4766;0,125194
1093,4408;0,125175
1094,4050;0,125231
1095,3693;0,125344
1096,3335;0,125498
1097,2977;0,125684
1098,2620;0,125896
1099,2262;0,126125
1100,1904;0,126348
1101,1547;0,126537
1102,1189;0,126657
1103,0831;0,126681
1104,0474;0,126596
1105,0116;0,126405
1105,9758;0,126124
1106,9401;0,125771
1107,9043;0,125355
1108,8685;0,124861
1109,8328;0,124252
1110,7970;0,123472
1111,7612;0,122471
1112,7255;0,121226
1113,6897;0,119758
1114,6539;0,11814
1115,6182;0,116472
1116,5824;0,114858
1117,5466;0,113375
1118,5109;0,112052
1119,4751;0,110867
1120,4393;0,109759
1121,4036;0,108644
1122,3678;0,107437
1123,3320;0,10607
1124,2963;0,104508
1125,2605;0,102751
1126,2247;0,100828
1127,1890;0,0987923
1128,1532;0,0966984
1129,1174;0,0945927
1130,0817;0,0925053
1131,0459;0,0904526
1132,0101;0,0884471
1132,9744;0,0865077
1133,9386;0,0846661
1134,9028;0,0829655
1135,8671;0,0814525
1136,8313;0,0801669
1137,7955;0,0791344
1138,7598;0,0783646
1139,7240;0,0778539
1140,6882;0,0775886
1141,6525;0,0775481
1142,6167;0,077705
1143,5809;0,0780246
1144,5452;0,0784672
1145,5094;0,0789926
1146,4736;0,0795676
1147,4379;0,0801728
1148,4021;0,080804
1149,3663;0,0814681
1150,3306;0,0821734
1151,2948;0,0829178
1152,2590;0,0836812
1153,2233;0,0844256
1154,1875;0,0851014
1155,1517;0,0856571
1156,1160;0,0860455
1157,0802;0,0862236
1158,0444;0,0861474
1159,0087;0,0857669
1159,9729;0,0850273
1160,9371;0,0838789
1161,9014;0,0822928
1162,8656;0,0802763
1163,8298;0,0778794
1164,7941;0,0751906
1165,7583;0,072324
1166,7225;0,0694009
1167,6868;0,0665337
1168,6510;0,0638132
1169,6152;0,0613023
1170,5795;0,0590356
1171,5437;0,0570234
1172,5079;0,0552584
1173,4722;0,053721
1174,4364;0,0523847
1175,4006;0,0512194
1176,3649;0,0501961
1177,3291;0,0492913
1178,2933;0,0484911
1179,2576;0,0477913
1180,2218;0,0471941
1181,1860;0,0467015
1182,1503;0,0463106
1183,1145;0,0460119
1184,0787;0,0457923
1185,0430;0,0456405
1186,0072;0,0455507
1186,9714;0,0455241
1187,9357;0,0455674
1188,8999;0,0456894
1189,8641;0,0458976
1190,8284;0,0461946
1191,7926;0,0465772
1192,7568;0,0470366
1193,7211;0,0475609
1194,6853;0,0481366
1195,6495;0,0487502
1196,6138;0,0493879
1197,5780;0,0500346
1198,5422;0,050675
1199,5065;0,0512581
1200,4707;0,0518586
1201,4349;0,052434
1202,3992;0,0529885
1203,3634;0,0535244
1204,3276;0,0540387
1205,2919;0,0545225
1206,2561;0,0549671
1207,2203;0,0553713
1208,1846;0,0557477
1209,1488;0,0561226
1210,1130;0,0565308
1211,0773;0,0570064
1212,0415;0,0575736
1213,0057;0,0582413
1213,9700;0,0590015
1214,9342;0,0598331
1215,8984;0,060708
1216,8627;0,0615972
1217,8269;0,0624768
1218,7911;0,0633311
1219,7554;0,0641541
1220,7196;0,064947
1221,6838;0,0657145
1222,6481;0,0664608
1223,6123;0,0671866
1224,5765;0,0678886
1225,5408;0,0685611
1226,5050;0,0691985
1227,4692;0,0697972
1228,4335;0,070356
1229,3977;0,0708753
1230,3619;0,0713551
1231,3262;0,0717929
1232,2904;0,0721832
1233,2546;0,0725189
1234,2189;0,0727941
1235,1831;0,0730072
1236,1473;0,0731633
1237,1116;0,0732732
1238,0758;0,0733499
1239,0400;0,0734032
1240,0043;0,0734355
1240,9685;0,0734403
1241,9327;0,0734044
1242,8970;0,0733132
1243,8612;0,0731563
1244,8254;0,0729314
1245,7897;0,0726458
1246,7539;0,0723128
1247,7181;0,0719481
1248,6824;0,0715643
1249,6466;0,071169
1250,6108;0,0707657
1251,5751;0,0703569
1252,5393;0,069947
1253,5035;0,0695419
1254,4678;0,0691451
1255,4320;0,0687531
1256,3962;0,0683547
1257,3605;0,0679341
1258,3247;0,0674794
1259,2889;0,0669878
1260,2532;0,0664663
1261,2174;0,0659257
1262,1816;0,0653735
1263,1459;0,0648102
1264,1101;0,0642319
1265,0743;0,0636353
1266,0386;0,0630203
1267,0028;0,0623896
1267,9670;0,0617448
1268,9313;0,0610852
1269,8955;0,0604091
1270,8597;0,0597171
1271,8240;0,059014
1272,7882;0,058308
1273,7524;0,0576085
1274,7167;0,0569241
1275,6809;0,0562632
1276,6451;0,0556326
1277,6094;0,0550357
1278,5736;0,0544694
1279,5378;0,053923
1280,5021;0,0533825
1281,4663;0,0528378
1282,4305;0,0522891
1283,3948;0,0517485
1284,3590;0,0512349
1285,3232;0,0507671
1286,2875;0,0503583
1287,2517;0,0500148
1288,2159;0,0497376
1289,1802;0,0495252
1290,1444;0,0493752
1291,1086;0,0492858
1292,0729;0,0492556
1293,0371;0,0492853
1294,0013;0,0493776
1294,9656;0,0495359
1295,9298;0,049762
1296,8940;0,0500546
1297,8583;0,0504092
1298,8225;0,0508197
1299,7867;0,0512802
1300,7510;0,0517856
1301,7152;0,0523316
1302,6794;0,0529136
1303,6437;0,0535275
1304,6079;0,0541703
1305,5721;0,0548407
1306,5364;0,0555384
1307,5006;0,0562626
1308,4648;0,0570103
1309,4291;0,057775
1310,3933;0,0585443
1311,3575;0,0592983
1312,3218;0,0600099
1313,2860;0,060647
1314,2502;0,0611779
1315,2145;0,0615747
1316,1787;0,0618161
1317,1429;0,0618905
1318,1072;0,061803
1319,0714;0,0615804
1320,0356;0,0612694
1320,9999;0,0609227
1321,9641;0,0605834
1322,9283;0,0602767
1323,8926;0,0600124
1324,8568;0,0597936
1325,8210;0,0596216
1326,7853;0,0594972
1327,7495;0,0594159
1328,7137;0,0593638
1329,6780;0,0593183
1330,6422;0,0592538
1331,6064;0,0591528
1332,5707;0,0590113
1333,5349;0,0588375
1334,4991;0,0586391
1335,4634;0,0584091
1336,4276;0,0581181
1337,3918;0,0577236
1338,3561;0,0571985
1339,3203;0,0565663
1340,2845;0,055905
1341,2488;0,0553048
1342,2130;0,0548182
1343,1772;0,0544479
1344,1415;0,0541677
1345,1057;0,0539485
1346,0699;0,0537753
1347,0342;0,0536511
1347,9984;0,0535925
1348,9626;0,0536181
1349,9269;0,0537374
1350,8911;0,0539451
1351,8553;0,0542231
1352,8196;0,0545493
1353,7838;0,0549075
1354,7480;0,0552946
1355,7123;0,0557188
1356,6765;0,0561899
1357,6407;0,0567084
1358,6050;0,0572606
1359,5692;0,0578184
1360,5334;0,0583433
1361,4977;0,0587978
1362,4619;0,0591668
1363,4261;0,0594717
1364,3904;0,0597544
1365,3546;0,0600454
1366,3188;0,0603479
1367,2831;0,0606449
1368,2473;0,0609114
1369,2115;0,061124
1370,1758;0,061262
1371,1400;0,061302
1372,1042;0,0612152
1373,0685;0,0609759
1374,0327;0,060584
1374,9969;0,0600783
1375,9612;0,0595133
1376,9254;0,058915
1377,8896;0,0582648
1378,8539;0,0575279
1379,8181;0,056697
1380,7823;0,0558155
1381,7466;0,0549555
1382,7108;0,0541666
1383,6750;0,0534406
1384,6393;0,0527184
1385,6035;0,0519382
1386,5677;0,0510989
1387,5320;0,0502896
1388,4962;0,0496331
1389,4604;0,049191
1390,4247;0,0489362
1391,3889;0,0487985
1392,3531;0,0487141
1393,3174;0,0486473
1394,2816;0,0485877
1395,2458;0,0485371
1396,2101;0,0484971
1397,1743;0,0484687
1398,1385;0,0484618
1399,1028;0,0484983
1400,0670;0,0486
1401,0313;0,0487716
1401,9955;0,048996
1402,9597;0,0492436
1403,9240;0,0494904
1404,8882;0,0497332
1405,8524;0,0499909
1406,8167;0,0502886
1407,7809;0,0506368
1408,7451;0,0510284
1409,7094;0,0514535
1410,6736;0,0519135
1411,6378;0,0524225
1412,6021;0,0529925
1413,5663;0,0536165
1414,5305;0,054264
1415,4948;0,0548872
1416,4590;0,0554284
1417,4232;0,0558355
1418,3875;0,0560973
1419,3517;0,0562687
1420,3159;0,0564228
1421,2802;0,0565736
1422,2444;0,0566725
1423,2086;0,0566626
1424,1729;0,0565232
1425,1371;0,0562741
1426,1013;0,0559435
1427,0656;0,0555325
1428,0298;0,0550148
1428,9940;0,0543782
1429,9583;0,0536716
1430,9225;0,0529922
1431,8867;0,0524108
1432,8510;0,0519081
1433,8152;0,05138
1434,7794;0,0506996
1435,7437;0,049819
1436,7079;0,0488647
1437,6721;0,0480794
1438,6364;0,0476131
1439,6006;0,0474337
1440,5648;0,0474269
1441,5291;0,0475014
1442,4933;0,0476192
1443,4575;0,0477782
1444,4218;0,0479827
1445,3860;0,0482229
1446,3502;0,0484751
1447,3145;0,0487188
1448,2787;0,0489558
1449,2429;0,0492106
1450,2072;0,0495079
1451,1714;0,049849
1452,1356;0,0502071
1453,0999;0,0505328
1454,0641;0,0507514
1455,0283;0,0507461
1455,9926;0,0503841
1456,9568;0,0496984
1457,9210;0,0490425
1458,8853;0,048745
1459,8495;0,0487809
1460,8137;0,0489443
1461,7780;0,04904
1462,7422;0,0489165
1463,7064;0,0484752
1464,6707;0,0477326
1465,6349;0,0468562
1466,5991;0,0460463
1467,5634;0,0453735
1468,5276;0,0447636
1469,4918;0,0440716
1470,4561;0,043139
1471,4203;0,0418474
1472,3845;0,0402299
1473,3488;0,0385526
1474,3130;0,0371407
1475,2772;0,0361045
1476,2415;0,0353496
1477,2057;0,0347482
1478,1699;0,0342217
1479,1342;0,0337383
1480,0984;0,0332918
1481,0626;0,0328914
1482,0269;0,0325583
1482,9911;0,0323173
1483,9553;0,0321821
1484,9196;0,0321436
1485,8838;0,0321667
1486,8480;0,0321958
1487,8123;0,0321728
1488,7765;0,0320828
1489,7407;0,0319965
1490,7050;0,0320206
1491,6692;0,0321998
1492,6334;0,0325067
1493,5977;0,0328927
1494,5619;0,03332
1495,5261;0,0337682
1496,4904;0,0342311
1497,4546;0,0347178
1498,4188;0,0352474
1499,3831;0,0358258
1500,3473;0,036429
1501,3115;0,0370159
1502,2758;0,0375479
1503,2400;0,0379959
1504,2042;0,0383298
1505,1685;0,0384862
1506,1327;0,0383493
1507,0969;0,037884
1508,0612;0,0373264
1509,0254;0,0369289
1509,9896;0,0366999
1510,9539;0,0365387
1511,9181;0,0363626
1512,8823;0,036121
1513,8466;0,0357843
1514,8108;0,0353434
1515,7750;0,0348175
1516,7393;0,034247
1517,7035;0,0336643
1518,6677;0,03307
1519,6320;0,0324483
1520,5962;0,0318155
1521,5604;0,0312458
1522,5247;0,0308265
1523,4889;0,0305841
1524,4531;0,0304753
1525,4174;0,0304398
1526,3816;0,0304473
1527,3458;0,0305017
1528,3101;0,0306152
1529,2743;0,0307863
1530,2385;0,0310003
1531,2028;0,0312446
1532,1670;0,0315202
1533,1312;0,0318411
1534,0955;0,0322161
1535,0597;0,0326297
1536,0239;0,0330441
1536,9882;0,033411
1537,9524;0,0336728
1538,9166;0,0337509
1539,8809;0,0335744
1540,8451;0,0332169
1541,8093;0,032927
1542,7736;0,0328344
1543,7378;0,0328633
1544,7020;0,0329188
1545,6663;0,0329702
1546,6305;0,0330269
1547,5947;0,0330982
1548,5590;0,0331738
1549,5232;0,0332322
1550,4874;0,033264
1551,4517;0,0332899
1552,4159;0,0333504
1553,3801;0,0334715
1554,3444;0,0336384
1555,3086;0,0337923
1556,2728;0,0338327
1557,2371;0,0336374
1558,2013;0,0332028
1559,1655;0,0328398
1560,1298;0,032868
1561,0940;0,0332365
1562,0582;0,0337537
1563,0225;0,0342982
1563,9867;0,0348181
1564,9509;0,0352893
1565,9152;0,0356966
1566,8794;0,0360376
1567,8436;0,0363404
1568,8079;0,0366685
1569,7721;0,0370836
1570,7363;0,0375933
1571,7006;0,0381504
1572,6648;0,0386956
1573,6290;0,0391893
1574,5933;0,0396193
1575,5575;0,0400036
1576,5217;0,04039
1577,4860;0,0408288
1578,4502;0,041333
1579,4144;0,0418781
1580,3787;0,0424331
1581,3429;0,0429783
1582,3071;0,0435091
1583,2714;0,0440336
1584,2356;0,0445677
1585,1998;0,0451251
1586,1641;0,0457063
1587,1283;0,0462955
1588,0925;0,0468658
1589,0568;0,0473888
1590,0210;0,047842
1590,9852;0,0482081
1591,9495;0,0484703
1592,9137;0,0486111
1593,8779;0,0486204
1594,8422;0,0485073
1595,8064;0,0483021
1596,7706;0,0480442
1597,7349;0,0477652
1598,6991;0,0474807
1599,6633;0,0471941
1600,6276;0,0469058
1601,5918;0,046622
1602,5560;0,0463565
1603,5203;0,0461244
1604,4845;0,04593
1605,4487;0,0457587
1606,4130;0,0455812
1607,3772;0,0453727
1608,3414;0,0451398
1609,3057;0,0449304
1610,2699;0,0448068
1611,2341;0,044797
1612,1984;0,044872
1613,1626;0,0449582
1614,1268;0,0449665
1615,0911;0,0448387
1616,0553;0,0446168
1617,0195;0,0444553
1617,9838;0,0444892
1618,9480;0,0447124
1619,9122;0,0450216
1620,8765;0,045308
1621,8407;0,0455027
1622,8049;0,0455924
1623,7692;0,0456182
1624,7334;0,0456407
1625,6976;0,0456918
1626,6619;0,0457692
1627,6261;0,045868
1628,5903;0,0460032
1629,5546;0,0461966
1630,5188;0,0464475
1631,4830;0,0467179
1632,4473;0,0469344
1633,4115;0,046996
1634,3757;0,0468077
1635,3400;0,0463888
1636,3042;0,0459591
1637,2684;0,0457564
1638,2327;0,0458066
1639,1969;0,0459987
1640,1611;0,046235
1641,1254;0,0464676
1642,0896;0,0466718
1643,0538;0,0468107
1644,0181;0,0468139
1644,9823;0,0466
1645,9465;0,0461769
1646,9108;0,0457331
1647,8750;0,0454988
1648,8392;0,0455166
1649,8035;0,0456419
1650,7677;0,0456419
1651,7319;0,0452419
1652,6962;0,0443011
1653,6604;0,0431965
1654,6246;0,0425534
1655,5889;0,0424577
1656,5531;0,0426204
1657,5173;0,0428008
1658,4816;0,0428676
1659,4458;0,0427411
1660,4100;0,0423722
1661,3743;0,0417833
1662,3385;0,0411141
1663,3027;0,0405577
1664,2670;0,0402159
1665,2312;0,0400459
1666,1954;0,0399153
1667,1597;0,0396671
1668,1239;0,0391822
1669,0881;0,0384688
1670,0524;0,0377035
1671,0166;0,0370912
1671,9808;0,0366779
1672,9451;0,0363532
1673,9093;0,0359823
1674,8735;0,0355177
1675,8378;0,0350378
1676,8020;0,0346791
1677,7662;0,0345167
1678,7305;0,0345187
1679,6947;0,0345839
1680,6589;0,034576
1681,6232;0,0343297
1682,5874;0,033696
1683,5516;0,0327194
1684,5159;0,0317515
1685,4801;0,0311251
1686,4443;0,0308413
1687,4086;0,0307246
1688,3728;0,0306377
1689,3370;0,0305339
1690,3013;0,0304278
1691,2655;0,0303517
1692,2297;0,0303221
1693,1940;0,0303263
1694,1582;0,0303266
1695,1224;0,0302737
1696,0867;0,0301267
1697,0509;0,029874
1698,0151;0,029553
1698,9794;0,0292511
1699,9436;0,029071
1700,9078;0,0290692
1701,8721;0,029225
1702,8363;0,0294699
1703,8005;0,0297339
1704,7648;0,0299755
1705,7290;0,030193
1706,6932;0,0304213
1707,6575;0,030708
1708,6217;0,0310843
1709,5859;0,0315543
1710,5502;0,0321024
1711,5144;0,0327027
1712,4786;0,0333184
1713,4429;0,0338967
1714,4071;0,0343659
1715,3713;0,0346544
1716,3356;0,0347547
1717,2998;0,0347889
1718,2640;0,0349317
1719,2283;0,0352515
1720,1925;0,0356998
1721,1567;0,0361979
1722,1210;0,0366859
1723,0852;0,0371301
1724,0494;0,037523
1725,0137;0,0378808
1725,9779;0,0382339
1726,9421;0,0386085
1727,9064;0,0390104
1728,8706;0,0394144
1729,8348;0,0397609
1730,7991;0,0399548
1731,7633;0,0398847
1732,7275;0,0395018
1733,6918;0,0389287
1734,6560;0,0384129
1735,6202;0,0381003
1736,5845;0,0379435
1737,5487;0,0378071
1738,5129;0,0375738
1739,4772;0,0371913
1740,4414;0,0366847
1741,4056;0,0361301
1742,3699;0,035594
1743,3341;0,0350908
1744,2983;0,0345962
1745,2626;0,0340799
1746,2268;0,0335141
1747,1910;0,0328579
1748,1553;0,032055
1749,1195;0,0310817
1750,0837;0,0300154
1751,0480;0,0290136
1752,0122;0,0281948
1752,9764;0,0275658
1753,9407;0,0270538
1754,9049;0,0265741
1755,8691;0,026078
1756,8334;0,0255648
1757,7976;0,0250575
1758,7618;0,024562
1759,7261;0,0240519
1760,6903;0,0234987
1761,6545;0,022919
1762,6188;0,0223831
1763,5830;0,021967
1764,5472;0,0216968
1765,5115;0,0215388
1766,4757;0,0214279
1767,4399;0,0212991
1768,4042;0,0211041
1769,3684;0,0208158
1770,3326;0,0204328
1771,2969;0,0199926
1772,2611;0,0195789
1773,2253;0,019285
1774,1896;0,0191507
1775,1538;0,0191448
1776,1180;0,0192004
1777,0823;0,0192532
1778,0465;0,0192628
1779,0107;0,0192209
1779,9750;0,0191486
1780,9392;0,0190761
1781,9034;0,0190172
1782,8677;0,0189642
1783,8319;0,0189063
1784,7961;0,0188523
1785,7604;0,0188309
1786,7246;0,0188682
1787,6888;0,0189641
1788,6531;0,0190837
1789,6173;0,0191658
1790,5815;0,0191476
1791,5458;0,019009
1792,5100;0,0188075
1793,4742;0,0186438
1794,4385;0,0185782
1795,4027;0,0186008
1796,3669;0,0186669
1797,3312;0,0187316
1798,2954;0,018764
1799,2596;0,0187491
1800,2239;0,0186862
1801,1881;0,0185874
1802,1523;0,018475
1803,1166;0,0183758
1804,0808;0,0183143
1805,0450;0,0183044
1806,0093;0,0183428
1806,9735;0,0184066
1807,9377;0,0184583
1808,9020;0,0184605
1809,8662;0,0183963
1810,8304;0,0182823
1811,7947;0,0181594
1812,7589;0,0180664
1813,7231;0,0180195
1814,6874;0,0180118
1815,6516;0,0180254
1816,6158;0,0180452
1817,5801;0,0180679
1818,5443;0,0181003
1819,5085;0,0181487
1820,4728;0,0182091
1821,4370;0,0182657
1822,4012;0,0182991
1823,3655;0,0182995
1824,3297;0,0182739
1825,2939;0,0182398
1826,2582;0,0182072
1827,2224;0,0181664
1828,1866;0,0180964
1829,1509;0,0179903
1830,1151;0,0178743
1831,0793;0,0177958
1832,0436;0,0177848
1833,0078;0,017831
1833,9720;0,0178956
1834,9363;0,0179375
1835,9005;0,0179381
1836,8647;0,0179143
1837,8290;0,0179074
1838,7932;0,0179514
1839,7574;0,0180471
1840,7217;0,0181598
1841,6859;0,0182357
1842,6501;0,018227
1843,6144;0,0181242
1844,5786;0,0179729
1845,5428;0,0178442
1846,5071;0,0177788
1847,4713;0,0177707
1848,4355;0,0177897
1849,3998;0,0178079
1850,3640;0,0178121
1851,3282;0,0178033
1852,2925;0,0177903
1853,2567;0,0177816
1854,2209;0,0177807
1855,1852;0,0177868
1856,1494;0,0177973
1857,1136;0,01781
1858,0779;0,017823
1859,0421;0,0178341
1860,0063;0,0178426
1860,9706;0,0178508
1861,9348;0,0178657
1862,8990;0,0178957
1863,8633;0,0179454
1864,8275;0,0180096
1865,7917;0,0180695
1866,7560;0,0180963
1867,7202;0,0180648
1868,6844;0,0179759
1869,6487;0,0178627
1870,6129;0,0177672
1871,5771;0,0177121
1872,5414;0,0176943
1873,5056;0,0176943
1874,4698;0,0176895
1875,4341;0,0176656
1876,3983;0,0176232
1877,3625;0,0175775
1878,3268;0,0175484
1879,2910;0,0175483
1880,2552;0,0175767
1881,2195;0,017622
1882,1837;0,0176688
1883,1479;0,0177055
1884,1122;0,0177263
1885,0764;0,0177301
1886,0406;0,0177165
1887,0049;0,017686
1887,9691;0,0176423
1888,9333;0,0175953
1889,8976;0,0175569
1890,8618;0,0175325
1891,8260;0,0175157
1892,7903;0,0174932
1893,7545;0,0174566
1894,7188;0,0174116
1895,6830;0,0173784
1896,6472;0,0173783
1897,6115;0,0174165
1898,5757;0,0174747
1899,5399;0,0175218
1900,5042;0,017533
1901,4684;0,017505
1902,4326;0,0174577
1903,3969;0,0174196
1904,3611;0,0174072
1905,3253;0,017415
1906,2896;0,0174204
1907,2538;0,0174019
1908,2180;0,0173551
1909,1823;0,0172973
1910,1465;0,0172553
1911,1107;0,0172453
1912,0750;0,0172617
1913,0392;0,0172817
1914,0034;0,0172802
1914,9677;0,0172438
1915,9319;0,0171808
1916,8961;0,0171205
1917,8604;0,0170991
1918,8246;0,0171344
1919,7888;0,0172121
1920,7531;0,0172921
1921,7173;0,0173304
1922,6815;0,0172998
1923,6458;0,0172027
1924,6100;0,0170668
1925,5742;0,0169264
1926,5385;0,0168023
1927,5027;0,0166965
1928,4669;0,0166011
1929,4312;0,0165139
1930,3954;0,0164465
1931,3596;0,0164198
1932,3239;0,0164496
1933,2881;0,0165317
1934,2523;0,0166381
1935,2166;0,0167274
1936,1808;0,016763
1937,1450;0,01673
1938,1093;0,0166392
1939,0735;0,0165194
1940,0377;0,0164037
1941,0020;0,0163183
1941,9662;0,0162736
1942,9304;0,0162616
1943,8947;0,01626
1944,8589;0,0162428
1945,8231;0,0161893
1946,7874;0,0160888
1947,7516;0,0159418
1948,7158;0,0157608
1949,6801;0,015569
1950,6443;0,0153954
1951,6085;0,015266
1952,5728;0,0151944
1953,5370;0,0151755
1954,5012;0,0151836
1955,4655;0,0151795
1956,4297;0,0151244
1957,3939;0,0150002
1958,3582;0,0148247
1959,3224;0,0146489
1960,2866;0,0145312
1961,2509;0,0144978
1962,2151;0,0145177
1963,1793;0,0145152
1964,1436;0,0144145
1965,1078;0,0141897
1966,0720;0,0138858
1967,0363;0,0135934
1968,0005;0,0133878
1968,9647;0,0132783
1969,9290;0,0132115
1970,8932;0,0131192
1971,8574;0,012972
1972,8217;0,0127996
1973,7859;0,0126746
1974,7501;0,0126717
1975,7144;0,0128256
1976,6786;0,0131109
1977,6428;0,0134547
1978,6071;0,0137746
1979,5713;0,014021
1980,5355;0,0141977
1981,4998;0,0143537
1982,4640;0,0145528
1983,4282;0,0148342
1984,3925;0,0151824
1985,3567;0,0155229
1986,3209;0,0157541
1987,2852;0,0157989
1988,2494;0,0156468
1989,2136;0,0153614
1990,1779;0,015052
1991,1421;0,014823
1992,1063;0,0147286
1993,0706;0,0147577
1994,0348;0,0148569
1994,9990;0,0149688
1995,9633;0,0150583
1996,9275;0,0151151
1997,8917;0,0151413
1998,8560;0,0151377
1999,8202;0,0150967
2000,7844;0,0150075
2001,7487;0,0148688
2002,7129;0,0146996
2003,6771;0,0145377
2004,6414;0,0144224
2005,6056;0,0143713
2006,5698;0,0143671
2007,5341;0,0143713
2008,4983;0,0143568
2009,4625;0,0143297
2010,4268;0,0143181
2011,3910;0,0143382
2012,3552;0,014368
2013,3195;0,0143572
2014,2837;0,0142685
2015,2479;0,0141206
2016,2122;0,0139931
2017,1764;0,0139804
2018,1406;0,0141236
2019,1049;0,0143761
2020,0691;0,0146292
2021,0333;0,0147756
2021,9976;0,0147623
2022,9618;0,0146066
2023,9260;0,0143772
2024,8903;0,0141621
2025,8545;0,0140401
2026,8187;0,0140615
2027,7830;0,0142344
2028,7472;0,0145143
2029,7114;0,014809
2030,6757;0,0150099
2031,6399;0,0150455
2032,6041;0,0149287
2033,5684;0,0147615
2034,5326;0,0146845
2035,4968;0,0147991
2036,4611;0,0151132
2037,4253;0,0155433
2038,3895;0,0159613
2039,3538;0,016254
2040,3180;0,0163656
2041,2822;0,0163109
2042,2465;0,0161592
2043,2107;0,016002
2044,1749;0,0159177
2045,1392;0,0159494
2046,1034;0,0160966
2047,0676;0,0163228
2048,0320;0,0165737
2048,9961;0,0168025
2049,9604;0,016985
2050,9246;0,0171182
2051,8889;0,0172076
2052,8530;0,0172578
2053,8174;0,0172733
2054,7815;0,017268
2055,7458;0,0172705
2056,7100;0,0173159
2057,6743;0,0174248
2058,6384;0,0175837
2059,6028;0,017744
2060,5669;0,0178464
2061,5313;0,0178562
2062,4954;0,0177889
2063,4597;0,0177058
2064,4238;0,0176808
2065,3882;0,0177574
2066,3523;0,0179267
2067,3167;0,0181386
2068,2808;0,0183352
2069,2451;0,0184804
2070,2092;0,0185683
2071,1736;0,0186119
2072,1377;0,0186274
2073,1021;0,0186236
2074,0662;0,0186036
2075,0305;0,0185693
2075,9946;0,0185242
2076,9590;0,0184723
2077,9231;0,0184174
2078,8875;0,0183643
2079,8516;0,0183212
2080,8159;0,0182974
2081,7800;0,0182968
2082,7444;0,018314
2083,7085;0,0183368
2084,6729;0,0183563
2085,6370;0,0183755
2086,6013;0,0184074
2087,5654;0,0184622
2088,5298;0,0185324
2089,4939;0,0185895
2090,4583;0,0185985
2091,4224;0,01854
2092,3867;0,018426
2093,3508;0,0182981
2094,3152;0,018208
2095,2793;0,0181929
2096,2437;0,0182591
2097,2078;0,0183838
2098,1721;0,0185285
2099,1362;0,0186555
2100,1006;0,0187385
2101,0647;0,0187667
2102,0291;0,0187439
2102,9932;0,0186873
2103,9575;0,0186231
2104,9216;0,0185795
2105,8860;0,0185784
2106,8501;0,0186292
2107,8145;0,0187266
2108,7786;0,0188517
2109,7429;0,0189773
2110,7070;0,0190743
2111,6714;0,0191199
2112,6355;0,019104
2113,5999;0,0190333
2114,5640;0,0189282
2115,5283;0,0188155
2116,4924;0,0187184
2117,4568;0,0186515
2118,4209;0,0186185
2119,3853;0,0186156
2120,3494;0,0186344
2121,3137;0,0186644
2122,2778;0,0186954
2123,2422;0,0187182
2124,2063;0,0187266
2125,1707;0,0187163
2126,1348;0,0186835
2127,0991;0,0186229
2128,0632;0,0185311
2129,0276;0,0184128
2129,9917;0,0182886
2130,9561;0,0181937
2131,9202;0,018166
2132,8845;0,0182234
2133,8486;0,0183444
2134,8130;0,0184678
2135,7771;0,0185172
2136,7415;0,0184414
2137,7056;0,0182404
2138,6699;0,0179631
2139,6340;0,0176775
2140,5984;0,0174386
2141,5625;0,0172751
2142,5269;0,0171971
2143,4910;0,0172134
2144,4553;0,017334
2145,4194;0,0175498
2146,3838;0,0178053
2147,3479;0,017992
2148,3123;0,0179833
2149,2764;0,0176979
2150,2407;0,0171512
2151,2048;0,0164586
2152,1692;0,0157848
2153,1333;0,0152721
2154,0977;0,0149903
2155,0618;0,0149364
2156,0261;0,0150698
2156,9902;0,015348
2157,9546;0,0157314
2158,9187;0,0161615
2159,8831;0,0165501
2160,8472;0,016809
2161,8115;0,0168949
2162,7756;0,0168261
2163,7400;0,0166658
2164,7041;0,0164896
2165,6685;0,0163575
2166,6326;0,0162994
2167,5969;0,0163141
2168,5610;0,0163759
2169,5254;0,016448
2170,4895;0,0164982
2171,4539;0,0165165
2172,4180;0,0165247
2173,3823;0,0165696
2174,3464;0,016696
2175,3108;0,0169153
2176,2749;0,0171924
2177,2393;0,0174633
2178,2034;0,0176688
2179,1677;0,0177808
2180,1318;0,0178033
2181,0962;0,0177558
2182,0603;0,0176586
2183,0247;0,0175332
2183,9888;0,0174145
2184,9531;0,0173536
2185,9172;0,0174001
2186,8816;0,017571
2187,8457;0,0178319
2188,8101;0,0181057
2189,7742;0,0183068
2190,7385;0,018379
2191,7026;0,0183138
2192,6670;0,0181432
2193,6311;0,0179179
2194,5955;0,0176878
2195,5596;0,0174938
2196,5239;0,017368
2197,4880;0,0173332
2198,4524;0,0173988
2199,4165;0,017555
2200,3809;0,0177728
2201,3450;0,0180108
2202,3093;0,0182252
2203,2734;0,0183798
2204,2378;0,0184523
2205,2019;0,0184386
2206,1663;0,0183546
2207,1304;0,0182344
2208,0947;0,018122
2209,0588;0,0180579
2210,0232;0,0180668
2210,9873;0,0181497
2211,9517;0,0182856
2212,9158;0,0184386
2213,8801;0,0185679
2214,8442;0,0186396
2215,8086;0,0186362
2216,7727;0,0185657
2217,7371;0,0184609
2218,7012;0,0183689
2219,6655;0,018331
2220,6296;0,0183652
2221,5940;0,0184607
2222,5581;0,0185895
2223,5225;0,0187249
2224,4866;0,0188516
2225,4509;0,0189619
2226,4150;0,0190413
2227,3794;0,0190624
2228,3435;0,0189975
2229,3079;0,0188434
2230,2720;0,0186401
2231,2363;0,018464
2232,2004;0,0183939
2233,1648;0,01847
2234,1289;0,0186711
2235,0933;0,0189268
2236,0574;0,0191537
2237,0217;0,0192952
2237,9858;0,0193402
2238,9502;0,0193159
2239,9143;0,0192647
2240,8787;0,0192235
2241,8428;0,0192148
2242,8071;0,0192473
2243,7712;0,0193211
2244,7356;0,0194277
2245,6997;0,0195497
2246,6641;0,0196618
2247,6282;0,0197371
2248,5925;0,0197576
2249,5566;0,019722
2250,5210;0,0196468
2251,4851;0,0195604
2252,4495;0,0194935
2253,4136;0,0194686
2254,3779;0,0194932
2255,3420;0,0195588
2256,3064;0,0196441
2257,2705;0,0197235
2258,2349;0,0197755
2259,1990;0,0197893
2260,1633;0,0197676
2261,1274;0,0197244
2262,0918;0,0196802
2263,0559;0,0196543
2264,0203;0,0196576
2264,9844;0,0196899
2265,9487;0,0197408
2266,9128;0,0197959
2267,8772;0,0198443
2268,8413;0,0198819
2269,8057;0,0199103
2270,7698;0,0199315
2271,7341;0,0199445
2272,6982;0,0199463
2273,6626;0,0199367
2274,6267;0,0199228
2275,5911;0,0199173
2276,5552;0,0199324
2277,5195;0,0199729
2278,4836;0,0200344
2279,4480;0,0201084
2280,4121;0,0201893
2281,3765;0,0202781
2282,3406;0,0203789
2283,3049;0,020492
2284,2690;0,0206099
2285,2334;0,0207194
2286,1975;0,0208093
2287,1619;0,0208779
2288,1260;0,0209361
2289,0903;0,021003
2290,0544;0,0210979
2291,0188;0,0212314
2291,9829;0,0214007
2292,9473;0,0215903
2293,9114;0,021777
2294,8757;0,0219379
2295,8398;0,0220583
2296,8042;0,0221373
2297,7683;0,0221881
2298,7327;0,0222329
2299,6968;0,0222939
2300,6611;0,0223843
2301,6252;0,0225051
2302,5896;0,0226469
2303,5537;0,0227971
2304,5181;0,0229464
2305,4822;0,0230893
2306,4465;0,0232209
2307,4106;0,0233315
2308,3750;0,0234048
2309,3391;0,0234238
2310,3035;0,0233806
2311,2676;0,0232853
2312,2319;0,0231656
2313,1960;0,0230563
2314,1604;0,022983
2315,1245;0,0229521
2316,0889;0,0229513
2317,0530;0,0229596
2318,0173;0,0229596
2318,9814;0,0229458
2319,9458;0,0229267
2320,9099;0,0229198
2321,8743;0,022942
2322,8384;0,0229972
2323,8027;0,0230689
2324,7668;0,0231234
2325,7312;0,0231244
2326,6953;0,0230508
2327,6597;0,0229088
2328,6238;0,0227296
2329,5881;0,022557
2330,5522;0,0224276
2331,5166;0,0223557
2332,4807;0,0223271
2333,4451;0,0223069
2334,4092;0,022257
2335,3735;0,0221585
2336,3376;0,0220279
2337,3020;0,0219198
2338,2661;0,0219052
2339,2305;0,0220282
2340,1946;0,0222606
2341,1589;0,0224861
2342,1230;0,0225457
2343,0874;0,0223615
2344,0515;0,0220682
2345,0159;0,0219549
2345,9800;0,022206
2346,9443;0,0227524
2347,9084;0,0233686
2348,8728;0,0238383
2349,8369;0,0240481
2350,8013;0,0240031
2351,7654;0,0237951
2352,7297;0,0235431
2353,6938;0,0233388
2354,6582;0,023231
2355,6223;0,0232385
2356,5867;0,0233428
2357,5508;0,0234674
2358,5151;0,0234961
2359,4792;0,0233431
2360,4436;0,0230156
2361,4077;0,022602
2362,3721;0,0222009
2363,3362;0,0218651
2364,3005;0,0215983
2365,2646;0,0213846
2366,2290;0,0212135
2367,1931;0,021083
2368,1575;0,0209899
2369,1216;0,0209243
2370,0859;0,0208728
2371,0500;0,0208284
2372,0144;0,020795
2372,9785;0,0207853
2373,9429;0,020812
2374,9070;0,0208806
2375,8713;0,0209866
2376,8354;0,0211194
2377,7998;0,0212663
2378,7639;0,0214138
2379,7283;0,0215466
2380,6924;0,021647
2381,6567;0,0216977
2382,6208;0,0216881
2383,5852;0,0216189
2384,5493;0,021503
2385,5137;0,0213609
2386,4778;0,0212147
2387,4421;0,0210822
2388,4063;0,0209748
2389,3706;0,0208983
2390,3347;0,0208535
2391,2991;0,0208376
2392,2632;0,0208436
2393,2275;0,020862
2394,1917;0,0208831
2395,1560;0,0208994
2396,1201;0,0209079
2397,0845;0,0209091
2398,0486;0,0209074
2399,0129;0,0209088
2399,9771;0,0209201
2400,9414;0,0209476
2401,9055;0,0209924
2402,8699;0,0210482
2403,8340;0,021101
2404,7983;0,0211343
2405,7625;0,0211373
2406,7268;0,0211108
2407,6909;0,0210683
2408,6553;0,02103
2409,6194;0,0210133
2410,5837;0,0210264
2411,5479;0,0210662
2412,5122;0,0211216
2413,4763;0,0211788
2414,4407;0,0212256
2415,4048;0,0212539
2416,3691;0,0212606
2417,3333;0,0212479
2418,2976;0,021222
2419,2617;0,0211919
2420,2261;0,0211661
2421,1902;0,0211497
2422,1545;0,021144
2423,1187;0,0211484
2424,0830;0,0211622
2425,0471;0,0211858
2426,0115;0,0212186
2426,9756;0,0212561
2427,9399;0,0212893
2428,9041;0,0213091
2429,8684;0,0213118
2430,8325;0,0213037
2431,7969;0,0212991
2432,7610;0,0213126
2433,7253;0,021351
2434,6895;0,0214083
2435,6538;0,0214695
2436,6179;0,0215185
2437,5823;0,0215464
2438,5464;0,0215544
2439,5107;0,0215507
2440,4749;0,0215451
2441,4392;0,0215436
2442,4033;0,0215472
2443,3677;0,0215546
2444,3318;0,0215648
2445,2961;0,0215781
2446,2603;0,0215945
2447,2246;0,0216116
2448,1887;0,0216236
2449,1531;0,0216237
2450,1172;0,0216086
2451,0815;0,0215826
2452,0457;0,0215564
2453,0100;0,0215426
2453,9741;0,0215485
2454,9385;0,0215717
2455,9026;0,021602
2456,8669;0,0216278
2457,8311;0,0216425
2458,7954;0,0216477
2459,7595;0,0216504
2460,7239;0,0216572
2461,6880;0,0216704
2462,6523;0,0216878
2463,6165;0,0217061
2464,5808;0,0217237
2465,5449;0,021742
2466,5093;0,0217631
2467,4734;0,0217883
2468,4377;0,0218171
2469,4019;0,0218486
2470,3662;0,021882
2471,3303;0,0219165
2472,2947;0,0219494
2473,2588;0,0219755
2474,2231;0,0219871
2475,1873;0,0219778
2476,1516;0,0219464
2477,1157;0,0218996
2478,0801;0,0218518
2479,0442;0,0218202
2480,0085;0,0218177
2480,9727;0,021847
2481,9370;0,0218983
2482,9011;0,0219536
2483,8655;0,0219946
2484,8296;0,0220107
2485,7939;0,0220034
2486,7581;0,0219834
2487,7224;0,0219644
2488,6865;0,0219563
2489,6509;0,0219615
2490,6150;0,0219766
2491,5793;0,0219954
2492,5435;0,0220138
2493,5078;0,0220309
2494,4719;0,022049
2495,4363;0,0220712
2496,4004;0,0220984
2497,3647;0,0221284
2498,3289;0,0221552
2499,2932;0,0221722
2500,2573;0,0221752
2501,2217;0,022165
2502,1858;0,0221475
2503,1501;0,022131
2504,1143;0,0221231
2505,0786;0,022128
2506,0427;0,0221455
2507,0071;0,0221725
2507,9712;0,0222048
2508,9355;0,022238
2509,8997;0,0222684
2510,8640;0,0222935
2511,8281;0,0223122
2512,7925;0,0223246
2513,7566;0,0223312
2514,7209;0,0223321
2515,6851;0,0223273
2516,6494;0,0223167
2517,6135;0,0223021
2518,5779;0,022287
2519,5420;0,0222762
2520,5063;0,0222739
2521,4705;0,0222824
2522,4348;0,0223005
2523,3989;0,0223244
2524,3633;0,0223483
2525,3274;0,0223664
2526,2917;0,0223756
2527,2559;0,0223766
2528,2202;0,0223747
2529,1843;0,0223774
2530,1487;0,0223894
2531,1128;0,0224091
2532,0771;0,0224275
2533,0413;0,0224321
2534,0056;0,0224141
2534,9697;0,0223748
2535,9341;0,022327
2536,8982;0,022289
2537,8625;0,0222756
2538,8267;0,0222907
2539,7910;0,0223251
2540,7551;0,0223623
2541,7195;0,0223875
2542,6836;0,0223942
2543,6479;0,0223857
2544,6121;0,0223711
2545,5764;0,0223597
2546,5405;0,0223567
2547,5049;0,0223631
2548,4690;0,0223771
2549,4333;0,0223961
2550,3975;0,0224166
2551,3618;0,0224347
2552,3259;0,0224468
2553,2903;0,0224521
2554,2544;0,0224535
2555,2188;0,0224562
2556,1829;0,0224643
2557,1472;0,0224773
2558,1113;0,0224907
2559,0757;0,0224998
2560,0398;0,0225048
2561,0042;0,0225115
2561,9683;0,0225279
2562,9326;0,0225574
2563,8967;0,0225955
2564,8611;0,0226313
2565,8252;0,0226547
2566,7896;0,0226618
2567,7537;0,0226571
2568,7180;0,0226489
2569,6821;0,0226433
2570,6465;0,0226403
2571,6106;0,0226348
2572,5750;0,0226214
2573,5391;0,0225986
2574,5034;0,0225711
2575,4675;0,0225476
2576,4319;0,0225368
2577,3960;0,0225437
2578,3604;0,0225674
2579,3245;0,0226022
2580,2888;0,0226397
2581,2529;0,0226726
2582,2173;0,022697
2583,1814;0,0227143
2584,1458;0,022729
2585,1099;0,0227459
2586,0742;0,0227663
2587,0383;0,0227865
2588,0027;0,0227998
2588,9668;0,022801
2589,9312;0,0227904
2590,8953;0,0227756
2591,8596;0,0227684
2592,8237;0,0227777
2593,7881;0,0228051
2594,7522;0,0228429
2595,7166;0,0228791
2596,6807;0,0229043
2597,6450;0,0229173
2598,6091;0,0229252
2599,5735;0,0229386
2600,5376;0,0229641
2601,5020;0,0230007
2602,4661;0,0230407
2603,4304;0,0230753
2604,3945;0,0230996
2605,3589;0,0231155
2606,3230;0,0231293
2607,2874;0,0231472
2608,2515;0,0231715
2609,2158;0,0231996
2610,1799;0,0232251
2611,1443;0,0232417
2612,1084;0,0232456
2613,0728;0,023238
2614,0369;0,023225
2615,0012;0,0232159
2615,9653;0,0232209
2616,9297;0,0232462
2617,8938;0,0232917
2618,8582;0,0233493
2619,8223;0,0234059
2620,7866;0,0234481
2621,7507;0,0234684
2622,7151;0,0234684
2623,6792;0,023458
2624,6436;0,0234508
2625,6077;0,0234582
2626,5720;0,0234842
2627,5361;0,0235247
2628,5005;0,0235706
2629,4646;0,0236125
2630,4290;0,0236453
2631,3931;0,0236694
2632,3574;0,0236901
2633,3215;0,023713
2634,2859;0,0237414
2635,2500;0,0237737
2636,2144;0,0238053
2637,1785;0,0238315
2638,1428;0,0238511
2639,1069;0,0238672
2640,0713;0,0238857
2641,0354;0,0239113
2641,9998;0,0239441
2642,9639;0,0239795
2643,9282;0,024011
2644,8923;0,0240354
2645,8567;0,0240549
2646,8208;0,0240762
2647,7852;0,024106
2648,7493;0,0241458
2649,7136;0,0241905
2650,6777;0,0242308
2651,6421;0,0242588
2652,6062;0,0242724
2653,5706;0,0242765
2654,5347;0,0242797
2655,4990;0,0242898
2656,4631;0,0243098
2657,4275;0,0243378
2658,3916;0,0243693
2659,3560;0,0244004
2660,3201;0,0244294
2661,2844;0,0244566
2662,2485;0,0244831
2663,2129;0,0245089
2664,1770;0,0245327
2665,1414;0,0245527
2666,1055;0,0245675
2667,0698;0,0245773
2668,0339;0,024584
2668,9983;0,0245898
2669,9624;0,0245973
2670,9268;0,0246078
2671,8909;0,0246223
2672,8552;0,0246412
2673,8193;0,0246646
2674,7837;0,0246923
2675,7478;0,0247229
2676,7122;0,0247538
2677,6763;0,0247818
2678,6406;0,0248042
2679,6047;0,0248199
2680,5691;0,024831
2681,5332;0,0248416
2682,4976;0,0248569
2683,4617;0,0248812
2684,4260;0,0249164
2685,3901;0,0249607
2686,3545;0,025009
2687,3186;0,0250546
2688,2830;0,0250916
2689,2471;0,0251174
2690,2114;0,025134
2691,1755;0,0251474
2692,1399;0,0251645
2693,1040;0,0251903
2694,0684;0,0252252
2695,0325;0,0252659
2695,9968;0,0253067
2696,9609;0,0253429
2697,9253;0,0253716
2698,8894;0,0253926
2699,8538;0,0254079
2700,8179;0,025421
2701,7822;0,0254363
2702,7463;0,025458
2703,7107;0,025488
2704,6748;0,0255248
2705,6392;0,0255634
2706,6033;0,0255983
2707,5676;0,0256261
2708,5317;0,0256479
2709,4961;0,0256677
2710,4602;0,0256896
2711,4246;0,0257146
2712,3887;0,0257407
2713,3530;0,0257646
2714,3171;0,0257855
2715,2815;0,0258052
2716,2456;0,0258278
2717,2100;0,0258561
2718,1741;0,0258898
2719,1384;0,0259258
2720,1025;0,0259598
2721,0669;0,0259882
2722,0310;0,0260102
2722,9954;0,0260273
2723,9595;0,0260429
2724,9238;0,0260613
2725,8879;0,0260864
2726,8523;0,0261195
2727,8164;0,0261589
2728,7808;0,0262004
2729,7449;0,0262389
2730,7092;0,0262706
2731,6733;0,0262945
2732,6377;0,0263117
2733,6018;0,0263244
2734,5662;0,0263346
2735,5303;0,0263439
2736,4946;0,0263541
2737,4587;0,0263674
2738,4231;0,0263855
2739,3872;0,0264089
2740,3516;0,0264364
2741,3157;0,0264657
2742,2800;0,0264943
2743,2441;0,0265211
2744,2085;0,0265459
2745,1726;0,0265685
2746,1370;0,0265881
2747,1011;0,0266034
2748,0654;0,0266129
2749,0295;0,026617
2749,9939;0,0266179
2750,9580;0,0266203
2751,9224;0,0266301
2752,8865;0,0266528
2753,8508;0,026691
2754,8149;0,0267433
2755,7793;0,0268047
2756,7434;0,0268674
2757,7078;0,0269241
2758,6719;0,0269695
2759,6362;0,0270018
2760,6003;0,0270225
2761,5647;0,0270347
2762,5288;0,0270432
2763,4932;0,0270532
2764,4573;0,0270693
2765,4216;0,0270949
2766,3857;0,0271301
2767,3501;0,0271718
2768,3142;0,0272147
2769,2786;0,0272537
2770,2427;0,0272861
2771,2070;0,0273123
2772,1711;0,027336
2773,1355;0,0273613
2774,0996;0,0273914
2775,0640;0,0274278
2776,0281;0,0274704
2776,9924;0,0275184
2777,9565;0,027571
2778,9209;0,0276274
2779,8850;0,0276862
2780,8494;0,0277456
2781,8135;0,0278035
2782,7778;0,0278584
2783,7419;0,0279097
2784,7063;0,0279575
2785,6704;0,0280023
2786,6348;0,0280441
2787,5989;0,0280831
2788,5632;0,0281205
2789,5273;0,0281599
2790,4917;0,028207
2791,4558;0,028267
2792,4202;0,0283417
2793,3843;0,0284265
2794,3486;0,0285114
2795,3127;0,0285856
2796,2771;0,028643
2797,2412;0,0286861
2798,2056;0,0287249
2799,1697;0,028772
2800,1340;0,0288359
2801,0981;0,0289176
2802,0625;0,0290114
2803,0266;0,0291089
2803,9910;0,0292034
2804,9551;0,0292922
2805,9194;0,0293754
2806,8835;0,0294546
2807,8479;0,0295316
2808,8120;0,0296083
2809,7764;0,0296875
2810,7405;0,029773
2811,7048;0,0298681
2812,6689;0,0299741
2813,6333;0,0300894
2814,5974;0,03021
2815,5618;0,0303313
2816,5259;0,03045
2817,4902;0,0305653
2818,4543;0,0306785
2819,4187;0,030792
2820,3828;0,0309079
2821,3472;0,0310274
2822,3113;0,0311509
2823,2756;0,0312796
2824,2397;0,0314161
2825,2041;0,0315646
2826,1682;0,0317285
2827,1326;0,0319086
2828,0967;0,0321014
2829,0610;0,0323007
2830,0251;0,0325009
2830,9895;0,0327009
2831,9536;0,0329046
2832,9180;0,0331194
2833,8821;0,0333514
2834,8464;0,033603
2835,8105;0,0338718
2836,7749;0,0341539
2837,7390;0,0344481
2838,7034;0,0347596
2839,6675;0,0351004
2840,6318;0,0354874
2841,5959;0,0359365
2842,5603;0,0364568
2843,5244;0,0370436
2844,4888;0,0376744
2845,4529;0,0383093
2846,4172;0,0388978
2847,3813;0,0393895
2848,3457;0,0397476
2849,3098;0,0399578
2850,2742;0,0400306
2851,2383;0,0399949
2852,2026;0,0398884
2853,1667;0,0397465
2854,1311;0,0395958
2855,0952;0,0394517
2856,0596;0,0393201
2857,0237;0,0392019
2857,9880;0,0390974
2858,9521;0,0390098
2859,9165;0,0389463
2860,8806;0,0389152
2861,8450;0,0389229
2862,8091;0,0389699
2863,7734;0,0390504
2864,7375;0,0391547
2865,7019;0,0392725
2866,6660;0,0393959
2867,6304;0,0395195
2868,5945;0,0396388
2869,5588;0,0397489
2870,5229;0,0398454
2871,4873;0,0399257
2872,4514;0,0399911
2873,4158;0,0400467
2874,3799;0,040099
2875,3442;0,0401538
2876,3083;0,0402147
2877,2727;0,0402823
2878,2368;0,0403557
2879,2012;0,0404329
2880,1653;0,0405121
2881,1296;0,0405928
2882,0938;0,0406765
2883,0581;0,0407671
2884,0222;0,0408688
2884,9866;0,0409833
2885,9507;0,0411076
2886,9150;0,0412349
2887,8792;0,0413578
2888,8435;0,0414721
2889,8076;0,0415796
2890,7720;0,0416855
2891,7361;0,0417948
2892,7004;0,0419084
2893,6646;0,0420233
2894,6289;0,0421352
2895,5930;0,0422417
2896,5574;0,0423449
2897,5215;0,0424489
2898,4858;0,0425575
2899,4500;0,0426712
2900,4143;0,0427873
2901,3784;0,0429013
2902,3428;0,0430104
2903,3069;0,0431155
2904,2712;0,0432213
2905,2354;0,0433361
2906,1997;0,0434707
2907,1638;0,0436373
2908,1282;0,0438491
2909,0923;0,0441177
2910,0566;0,0444497
2911,0208;0,0448411
2911,9851;0,0452735
2912,9492;0,0457137
2913,9136;0,0461191
2914,8777;0,046447
2915,8420;0,0466648
2916,8062;0,0467569
2917,7705;0,0467257
2918,7346;0,0465877
2919,6990;0,0463671
2920,6631;0,0460902
2921,6274;0,0457801
2922,5916;0,0454539
2923,5559;0,0451212
2924,5200;0,0447834
2925,4844;0,0444371
2926,4485;0,0440784
2927,4128;0,0437077
2928,3770;0,0433315
2929,3413;0,0429615
2930,3054;0,0426092
2931,2698;0,0422817
2932,2339;0,0419792
2933,1982;0,041696
2934,1624;0,0414239
2935,1267;0,041157
2936,0908;0,0408929
2937,0552;0,0406325
2938,0193;0,040377
2938,9836;0,0401256
2939,9478;0,0398738
2940,9121;0,0396151
2941,8762;0,0393448
2942,8406;0,0390632
2943,8047;0,0387767
2944,7690;0,0384967
2945,7332;0,0382348
2946,6975;0,0379995
2947,6616;0,0377936
2948,6260;0,0376149
2949,5901;0,0374571
2950,5544;0,0373121
2951,5186;0,0371707
2952,4829;0,037024
2953,4470;0,0368652
2954,4114;0,0366915
2955,3755;0,0365046
2956,3398;0,0363089
2957,3040;0,0361089
2958,2683;0,0359066
2959,2324;0,0357015
2960,1968;0,0354934
2961,1609;0,0352857
2962,1252;0,035086
2963,0894;0,0349032
2964,0537;0,0347427
2965,0178;0,0346023
2965,9822;0,034472
2966,9463;0,0343389
2967,9106;0,0341923
2968,8748;0,0340282
2969,8391;0,0338491
2970,8032;0,0336613
2971,7676;0,0334716
2972,7317;0,0332859
2973,6960;0,0331093
2974,6602;0,032947
2975,6245;0,0328029
2976,5886;0,0326787
2977,5530;0,0325715
2978,5171;0,0324748
2979,4814;0,0323809
2980,4456;0,0322842
2981,4099;0,0321835
2982,3740;0,0320817
2983,3384;0,0319839
2984,3025;0,0318954
2985,2668;0,0318206
2986,2310;0,0317621
2987,1953;0,03172
2988,1594;0,031691
2989,1238;0,0316688
2990,0879;0,0316457
2991,0522;0,0316159
2992,0164;0,0315792
2992,9807;0,0315409
2993,9448;0,0315098
2994,9092;0,0314936
2995,8733;0,0314954
2996,8376;0,0315131
2997,8018;0,0315419
2998,7661;0,031577
2999,7302;0,0316155
3000,6946;0,0316547
3001,6587;0,0316913
3002,6230;0,031721
3003,5872;0,0317404
3004,5515;0,03175
3005,5156;0,0317551
3006,4800;0,0317638
3007,4441;0,0317827
3008,4084;0,0318134
3009,3726;0,0318518
3010,3369;0,0318914
3011,3010;0,0319272
3012,2654;0,031959
3013,2295;0,0319903
3014,1938;0,0320249
3015,1580;0,0320642
3016,1223;0,0321071
3017,0864;0,0321513
3018,0508;0,0321963
3019,0149;0,0322433
3019,9792;0,0322935
3020,9434;0,0323458
3021,9077;0,0323976
3022,8718;0,0324477
3023,8362;0,0324986
3024,8003;0,0325573
3025,7646;0,0326314
3026,7288;0,0327234
3027,6931;0,0328275
3028,6572;0,0329314
3029,6216;0,0330219
3030,5857;0,0330909
3031,5500;0,0331397
3032,5142;0,0331772
3033,4785;0,0332151
3034,4426;0,0332629
3035,4070;0,0333252
3036,3711;0,0334016
3037,3354;0,0334891
3038,2996;0,0335836
3039,2639;0,0336806
3040,2280;0,0337763
3041,1924;0,033868
3042,1565;0,0339546
3043,1208;0,0340363
3044,0850;0,0341144
3045,0493;0,0341901
3046,0134;0,034265
3046,9778;0,0343417
3047,9419;0,0344242
3048,9063;0,0345176
3049,8704;0,0346254
3050,8347;0,0347476
3051,7988;0,0348789
3052,7632;0,0350097
3053,7273;0,0351298
3054,6917;0,035232
3055,6558;0,0353163
3056,6201;0,0353898
3057,5842;0,0354642
3058,5486;0,035551
3059,5127;0,035656
3060,4771;0,0357775
3061,4412;0,035907
3062,4055;0,0360323
3063,3696;0,036143
3064,3340;0,0362341
3065,2981;0,0363084
3066,2625;0,0363748
3067,2266;0,0364447
3068,1909;0,0365272
3069,1550;0,0366268
3070,1194;0,0367424
3071,0835;0,03687
3072,0479;0,0370044
3073,0120;0,0371413
3073,9763;0,0372775
3074,9404;0,0374102
3075,9048;0,0375363
3076,8689;0,0376529
3077,8333;0,0377574
3078,7974;0,0378494
3079,7617;0,0379308
3080,7258;0,0380063
3081,6902;0,0380812
3082,6543;0,0381599
3083,6187;0,0382441
3084,5828;0,0383322
3085,5471;0,038422
3086,5112;0,0385127
3087,4756;0,0386075
3088,4397;0,0387129
3089,4041;0,0388351
3090,3682;0,0389755
3091,3325;0,0391275
3092,2966;0,0392782
3093,2610;0,0394144
3094,2251;0,0395284
3095,1895;0,0396221
3096,1536;0,0397046
3097,1179;0,0397868
3098,0820;0,0398762
3099,0464;0,0399747
3100,0105;0,0400809
3100,9749;0,0401933
3101,9390;0,0403121
3102,9033;0,0404381
3103,8674;0,0405707
3104,8318;0,0407065
3105,7959;0,0408413
3106,7603;0,0409726
3107,7244;0,0411014
3108,6887;0,0412305
3109,6528;0,0413623
3110,6172;0,0414958
3111,5813;0,0416275
3112,5457;0,041754
3113,5098;0,0418752
3114,4741;0,0419947
3115,4382;0,0421172
3116,4026;0,0422453
3117,3667;0,0423765
3118,3311;0,042505
3119,2952;0,0426249
3120,2595;0,042734
3121,2236;0,0428353
3122,1880;0,0429355
3123,1521;0,0430422
3124,1165;0,0431617
3125,0806;0,0432971
3126,0449;0,043448
3127,0090;0,0436098
3127,9734;0,0437744
3128,9375;0,0439318
3129,9019;0,044074
3130,8660;0,0441983
3131,8303;0,0443095
3132,7944;0,0444178
3133,7588;0,0445337
3134,7229;0,0446631
3135,6873;0,0448051
3136,6514;0,0449543
3137,6157;0,0451057
3138,5798;0,0452577
3139,5442;0,0454116
3140,5083;0,0455685
3141,4727;0,0457267
3142,4368;0,0458811
3143,4011;0,046027
3144,3652;0,0461635
3145,3296;0,0462956
3146,2937;0,0464305
3147,2581;0,0465738
3148,2222;0,0467253
3149,1865;0,0468789
3150,1506;0,0470271
3151,1150;0,0471653
3152,0791;0,0472951
3153,0435;0,0474235
3154,0076;0,0475589
3154,9719;0,0477059
3155,9360;0,0478637
3156,9004;0,0480269
3157,8645;0,0481884
3158,8289;0,0483431
3159,7930;0,0484904
3160,7573;0,0486334
3161,7214;0,0487775
3162,6858;0,0489276
3163,6499;0,0490861
3164,6143;0,0492515
3165,5784;0,0494193
3166,5427;0,0495835
3167,5068;0,0497397
3168,4712;0,0498877
3169,4353;0,0500064
3170,3997;0,0501529
3171,3638;0,050306
3172,3281;0,0504645
3173,2922;0,0506222
3174,2566;0,0507718
3175,2207;0,0509104
3176,1851;0,0510421
3177,1492;0,0511761
3178,1135;0,0513216
3179,0776;0,0514824
3180,0420;0,0516551
3181,0061;0,0518315
3181,9705;0,0520035
3182,9346;0,0521661
3183,8989;0,0523175
3184,8630;0,0524583
3185,8274;0,0525898
3186,7915;0,0527152
3187,7559;0,0528398
3188,7200;0,0529709
3189,6843;0,053115
3190,6484;0,0532738
3191,6128;0,0534426
3192,5769;0,0536123
3193,5413;0,0537744
3194,5054;0,0539253
3195,4697;0,0540678
3196,4338;0,0542072
3197,3982;0,0543472
3198,3623;0,0544872
3199,3267;0,0546241
3200,2908;0,0547569
3201,2551;0,0548895
3202,2192;0,0550296
3203,1836;0,0551831
3204,1477;0,0553491
3205,1121;0,0555189
3206,0762;0,0556801
3207,0405;0,0558238
3208,0046;0,0559491
3208,9690;0,0560626
3209,9331;0,0561739
3210,8975;0,0562905
3211,8616;0,0564153
3212,8259;0,0565478
3213,7900;0,0566865
3214,7544;0,0568295
3215,7185;0,0569741
3216,6829;0,0571163
3217,6470;0,057252
3218,6113;0,0573804
3219,5754;0,0575054
3220,5398;0,0576347
3221,5039;0,0577757
3222,4683;0,0579304
3223,4324;0,0580937
3224,3967;0,0582564
3225,3608;0,0584102
3226,3252;0,0585521
3227,2893;0,0586857
3228,2537;0,0588187
3229,2178;0,0589578
3230,1821;0,0591047
3231,1462;0,0592545
3232,1106;0,0593979
3233,0747;0,0595264
3234,0391;0,0596372
3235,0032;0,0597361
3235,9675;0,0598365
3236,9316;0,059953
3237,8960;0,0600954
3238,8601;0,0602635
3239,8245;0,060447
3240,7886;0,0606303
3241,7529;0,0607994
3242,7170;0,0609465
3243,6814;0,0610724
3244,6455;0,061185
3245,6099;0,0612959
3246,5740;0,0614163
3247,5383;0,0615539
3248,5024;0,0617111
3249,4668;0,061885
3250,4309;0,0620678
3251,3953;0,06225
3252,3594;0,062423
3253,3237;0,0625824
3254,2878;0,062729
3255,2522;0,0628683
3256,2163;0,0630074
3257,1807;0,0631524
3258,1448;0,0633059
3259,1091;0,0634668
3260,0732;0,0636311
3261,0376;0,063794
3262,0017;0,0639517
3262,9661;0,0641039
3263,9302;0,0642537
3264,8945;0,0644071
3265,8586;0,0645693
3266,8230;0,0647414
3267,7871;0,0649181
3268,7515;0,0650874
3269,7156;0,0652344
3270,6799;0,0653469
3271,6440;0,0654208
3272,6084;0,0654626
3273,5725;0,0654879
3274,5369;0,0655145
3275,5010;0,0655555
3276,4653;0,0656145
3277,4294;0,0656862
3278,3938;0,0657613
3279,3579;0,0658318
3280,3223;0,0658943
3281,2864;0,0659497
3282,2507;0,0660008
3283,2148;0,0660503
3284,1792;0,0661004
3285,1433;0,0661534
3286,1077;0,0662113
3287,0718;0,0662742
3288,0361;0,0663384
3289,0002;0,0663962
3289,9646;0,0664384
3290,9287;0,066459
3291,8931;0,0664585
3292,8572;0,0664438
3293,8215;0,0664246
3294,7856;0,0664099
3295,7500;0,0664055
3296,7141;0,0664147
3297,6785;0,0664388
3298,6426;0,0664774
3299,6069;0,0665273
3300,5710;0,0665822
3301,5354;0,0666333
3302,4995;0,0666723
3303,4639;0,0666938
3304,4280;0,0666962
3305,3923;0,066681
3306,3564;0,0666517
3307,3208;0,0666144
3308,2849;0,0665776
3309,2493;0,0665524
3310,2134;0,0665481
3311,1777;0,0665688
3312,1418;0,0666102
3313,1062;0,0666622
3314,0703;0,0667151
3315,0347;0,0667651
3315,9988;0,0668174
3316,9631;0,0668819
3317,9272;0,066967
3318,8916;0,0670733
3319,8557;0,0671924
3320,8201;0,0673113
3321,7842;0,0674179
3322,7485;0,0675067
3323,7126;0,0675803
3324,6770;0,0676475
3325,6411;0,0677193
3326,6055;0,0678041
3327,5696;0,0679044
3328,5339;0,0680152
3329,4980;0,0681262
3330,4624;0,068225
3331,4265;0,0683016
3332,3909;0,0683517
3333,3550;0,0683766
3334,3193;0,0683815
3335,2834;0,0683717
3336,2478;0,0683509
3337,2119;0,0683199
3338,1763;0,0682777
3339,1404;0,0682227
3340,1047;0,0681538
3341,0688;0,0680716
3342,0332;0,067978
3342,9973;0,0678761
3343,9617;0,0677691
3344,9258;0,0676591
3345,8901;0,0675471
3346,8542;0,0674342
3347,8186;0,0673219
3348,7827;0,0672112
3349,7471;0,067101
3350,7112;0,0669862
3351,6755;0,0668588
3352,6396;0,0667128
3353,6040;0,066549
3354,5681;0,0663776
3355,5325;0,0662143
3356,4966;0,066072
3357,4609;0,0659542
3358,4250;0,0658528
3359,3894;0,0657543
3360,3535;0,0656472
3361,3179;0,0655281
3362,2820;0,0654019
3363,2463;0,0652762
3364,2104;0,0651557
3365,1748;0,0650385
3366,1389;0,064918
3367,1033;0,0647872
3368,0674;0,0646438
3369,0317;0,064491
3369,9958;0,0643369
3370,9602;0,0641903
3371,9243;0,0640565
3372,8887;0,0639352
3373,8528;0,0638208
3374,8171;0,0637054
3375,7813;0,0635829
3376,7456;0,0634528
3377,7097;0,0633199
3378,6741;0,0631907
3379,6382;0,0630677
3380,6025;0,0629467
3381,5667;0,0628187
3382,5310;0,062676
3383,4951;0,0625198
3384,4595;0,0623622
3385,4236;0,062221
3386,3879;0,0621095
3387,3521;0,062028
3388,3164;0,0619627
3389,2805;0,0618925
3390,2449;0,0617989
3391,2090;0,0616737
3392,1733;0,0615204
3393,1375;0,0613503
3394,1018;0,0611765
3395,0659;0,0610103
3396,0303;0,0608598
3396,9944;0,0607294
3397,9587;0,0606176
3398,9229;0,0605156
3399,8872;0,0604087
3400,8513;0,0602829
3401,8157;0,0601329
3402,7798;0,0599655
3403,7441;0,0597966
3404,7083;0,0596412
3405,6726;0,0595045
3406,6367;0,0593789
3407,6011;0,0592482
3408,5652;0,0590973
3409,5295;0,0589189
3410,4937;0,0587175
3411,4580;0,0585077
3412,4221;0,0583084
3413,3865;0,0581357
3414,3506;0,0579961
3415,3149;0,0578818
3416,2791;0,0577722
3417,2434;0,0576411
3418,2075;0,057467
3419,1719;0,0572434
3420,1360;0,0569831
3421,1003;0,056713
3422,0645;0,056461
3423,0288;0,0562443
3423,9929;0,056064
3424,9573;0,0559088
3425,9214;0,0557625
3426,8857;0,0556106
3427,8499;0,0554439
3428,8142;0,0552586
3429,7783;0,0550554
3430,7427;0,0548372
3431,7068;0,0546093
3432,6711;0,0543785
3433,6353;0,0541534
3434,5996;0,0539418
3435,5637;0,0537469
3436,5281;0,0535657
3437,4922;0,0533905
3438,4565;0,0532146
3439,4207;0,053037
3440,3850;0,0528627
3441,3491;0,0526968
3442,3135;0,0525349
3443,2776;0,0523602
3444,2419;0,0521496
3445,2061;0,0518891
3446,1704;0,0515867
3447,1345;0,0512736
3448,0989;0,0509878
3449,0630;0,0507524
3450,0273;0,050565
3450,9915;0,0504045
3451,9558;0,050247
3452,9199;0,0500796
3453,8843;0,0499032
3454,8484;0,0497251
3455,8127;0,0495491
3456,7769;0,0493693
3457,7412;0,0491742
3458,7053;0,0489554
3459,6697;0,0487147
3460,6338;0,0484651
3461,5981;0,048224
3462,5623;0,0480037
3463,5266;0,0478043
3464,4907;0,0476153
3465,4551;0,0474224
3466,4192;0,0472161
3467,3835;0,0469971
3468,3477;0,0467734
3469,3120;0,0465527
3470,2761;0,0463352
3471,2405;0,0461139
3472,2046;0,045882
3473,1689;0,0456424
3474,1331;0,0454103
3475,0974;0,045205
3476,0615;0,0450353
3477,0259;0,0448894
3477,9900;0,0447393
3478,9543;0,0445555
3479,9185;0,0443262
3480,8828;0,0440657
3481,8469;0,0438075
3482,8113;0,0435821
3483,7754;0,0433979
3484,7397;0,0432378
3485,7039;0,043072
3486,6682;0,0428768
3487,6323;0,0426491
3488,5967;0,0424079
3489,5608;0,0421813
3490,5251;0,0419886
3491,4893;0,0418272
3492,4536;0,0416756
3493,4177;0,041508
3494,3821;0,041314
3495,3462;0,0411091
3496,3105;0,040927
3497,2747;0,0407935
3498,2390;0,0407028
3499,2031;0,0406138
3500,1675;0,0404706
3501,1316;0,0402379
3502,0959;0,0399294
3503,0601;0,0396064
3504,0244;0,0393378
3504,9885;0,0391516
3505,9529;0,0390204
3506,9170;0,0388855
3507,8813;0,0386976
3508,8455;0,038446
3509,8098;0,038162
3510,7739;0,0378945
3511,7383;0,0376762
3512,7024;0,0375073
3513,6667;0,0373664
3514,6309;0,0372325
3515,5952;0,0370996
3516,5593;0,0369752
3517,5237;0,036869
3518,4878;0,0367797
3519,4521;0,0366931
3520,4163;0,0365888
3521,3806;0,0364511
3522,3447;0,0362751
3523,3091;0,0360647
3524,2732;0,0358257
3525,2375;0,03556
3526,2017;0,0352693
3527,1660;0,0349642
3528,1301;0,03467
3529,0945;0,0344199
3530,0586;0,0342369
3531,0229;0,0341185
3531,9871;0,0340354
3532,9514;0,0339454
3533,9155;0,0338118
3534,8799;0,0336208
3535,8440;0,0333895
3536,8083;0,033159
3537,7725;0,0329754
3538,7368;0,0328668
3539,7009;0,0328319
3540,6653;0,0328391
3541,6294;0,0328344
3542,5938;0,032755
3543,5579;0,0325527
3544,5222;0,0322243
3545,4863;0,0318282
3546,4507;0,031458
3547,4148;0,0311847
3548,3792;0,0310169
3549,3433;0,0309077
3550,3076;0,0307893
3551,2717;0,0306143
3552,2361;0,0303826
3553,2002;0,0301391
3554,1646;0,0299393
3555,1287;0,0298083
3556,0930;0,0297291
3557,0571;0,029662
3558,0215;0,0295778
3558,9856;0,0294824
3559,9500;0,0294155
3560,9141;0,0294194
3561,8784;0,0294977
3562,8425;0,0295917
3563,8069;0,0295859
3564,7710;0,0293466
3565,7354;0,0288089
3566,6995;0,0280756
3567,6638;0,0273903
3568,6279;0,0269514
3569,5923;0,0267833
3570,5564;0,0267854
3571,5208;0,0268347
3572,4849;0,0268451
3573,4492;0,0267826
3574,4133;0,0266567
3575,3777;0,0264959
3576,3418;0,0263205
3577,3062;0,0261353
3578,2703;0,0259452
3579,2346;0,0257778
3580,1987;0,0256833
3581,1631;0,0257055
3582,1272;0,0258447
3583,0916;0,0260367
3584,0557;0,0261601
3585,0200;0,0260733
3585,9841;0,0256963
3586,9485;0,0251132
3587,9126;0,0245642
3588,8770;0,0242628
3589,8411;0,0242424
3590,8054;0,024385
3591,7695;0,0245303
3592,7339;0,0245549
3593,6980;0,0244171
3594,6624;0,0241668
3595,6265;0,0238999
3596,5908;0,023678
3597,5549;0,0234897
3598,5193;0,0232864
3599,4834;0,0230491
3600,4478;0,0228229
3601,4119;0,0226868
3602,3762;0,0226845
3603,3403;0,0227836
3604,3047;0,0228888
3605,2688;0,0228887
3606,2332;0,0227102
3607,1973;0,022363
3608,1616;0,0219411
3609,1257;0,0215614
3610,0901;0,0212904
3611,0542;0,0211295
3612,0186;0,0210523
3612,9827;0,0210382
3613,9470;0,0210716
3614,9111;0,0211179
3615,8755;0,0211077
3616,8396;0,0209535
3617,8040;0,0206057
3618,7681;0,0201236
3619,7324;0,019687
3620,6965;0,0194885
3621,6609;0,0196045
3622,6250;0,0199756
3623,5894;0,0204682
3624,5535;0,0209203
3625,5178;0,0211487
3626,4819;0,0209656
3627,4463;0,0202841
3628,4104;0,0192977
3629,3748;0,0184377
3630,3389;0,0179936
3631,3032;0,0179165
3632,2673;0,0179974
3633,2317;0,0180622
3634,1958;0,0180352
3635,1602;0,0179266
3636,1243;0,0177903
3637,0886;0,0176738
3638,0527;0,0175906
3639,0171;0,0175302
3639,9812;0,0174892
3640,9456;0,0174912
3641,9097;0,0175767
3642,8740;0,0177698
3643,8381;0,0180451
3644,8025;0,018306
3645,7666;0,0183711
3646,7310;0,0179934
3647,6951;0,0170182
3648,6594;0,0156999
3649,6235;0,0146772
3650,5879;0,0143356
3651,5520;0,0145347
3652,5164;0,0149397
3653,4805;0,0152812
3654,4448;0,0154104
3655,4089;0,015307
3656,3733;0,0150765
3657,3374;0,0148792
3658,3018;0,0148097
3659,2659;0,0148467
3660,2302;0,0149111
3661,1943;0,0149515
3662,1587;0,0149855
3663,1228;0,0150766
3664,0872;0,0152687
3665,0513;0,0155315
3666,0156;0,015754
3666,9797;0,0157889
3667,9441;0,0155437
3668,9082;0,0150955
3669,8726;0,0146939
3670,8367;0,0145544
3671,8010;0,0146624
3672,7651;0,014809
3673,7295;0,014748
3674,6936;0,0143638
3675,6580;0,0137988
3676,6221;0,013361
3677,5864;0,0132315
3678,5505;0,0133592
3679,5149;0,0136048
3680,4790;0,013874
3681,4434;0,0141492
3682,4075;0,0144587
3683,3718;0,0148251
3684,3359;0,0152234
3685,3003;0,015566
3686,2644;0,015715
3687,2288;0,0155331
3688,1929;0,0149968
3689,1572;0,0143076
3690,1213;0,0137925
3691,0857;0,0136316
3692,0498;0,0137736
3693,0142;0,0140761
3693,9783;0,0144266
3694,9426;0,0147685
3695,9067;0,0150799
3696,8711;0,0153437
3697,8352;0,0155276
3698,7996;0,0155843
3699,7637;0,0154776
3700,7280;0,0152256
3701,6921;0,0149263
3702,6565;0,0147208
3703,6206;0,0147107
3704,5850;0,014907
3705,5491;0,0152419
3706,5134;0,0156004
3707,4775;0,0158363
3708,4419;0,0157862
3709,4060;0,0153344
3710,3704;0,014547
3711,3345;0,0137308
3712,2988;0,0132282
3713,2629;0,0131606
3714,2273;0,0134342
3715,1914;0,0138891
3716,1558;0,0143901
3717,1199;0,0148473
3718,0842;0,0152117
3719,0483;0,0154706
3720,0127;0,0156379
3720,9768;0,0157352
3721,9412;0,015774
3722,9053;0,0157546
3723,8696;0,015687
3724,8337;0,0156092
3725,7981;0,0155796
3726,7622;0,0156429
3727,7266;0,0158066
3728,6907;0,0160427
3729,6550;0,0163049
3730,6191;0,0165343
3731,5835;0,0166516
3732,5476;0,016549
3733,5120;0,016128
3734,4761;0,0154148
3735,4404;0,0146432
3736,4045;0,0141235
3737,3689;0,0140145
3738,3330;0,0142715
3739,2974;0,0147386
3740,2615;0,0152234
3741,2258;0,0155233
3742,1899;0,0154604
3743,1543;0,0149928
3744,1184;0,0143449
3745,0828;0,0138978
3746,0469;0,0138424
3747,0112;0,0140426
3747,9753;0,0141932
3748,9397;0,0140093
3749,9038;0,0134109
3750,8682;0,0126732
3751,8323;0,0122449
3752,7966;0,0123182
3753,7607;0,0127438
3754,7251;0,013261
3755,6892;0,0136532
3756,6536;0,0137931
3757,6177;0,013672
3758,5820;0,0134135
3759,5461;0,0132056
3760,5105;0,0131727
3761,4746;0,013313
3762,4390;0,0135423
3763,4031;0,0137647
3764,3674;0,0139131
3765,3315;0,0139579
3766,2959;0,0138948
3767,2600;0,0137289
3768,2244;0,0134739
3769,1885;0,0131724
3770,1528;0,0129104
3771,1169;0,0127895
3772,0813;0,0128689
3773,0454;0,0131308
3774,0098;0,0134909
3774,9739;0,0138338
3775,9382;0,0140479
3776,9023;0,0140646
3777,8667;0,013898
3778,8308;0,0136516
3779,7952;0,0134545
3780,7593;0,0133739
3781,7236;0,0133897
3782,6877;0,0134376
3783,6521;0,0134614
3784,6162;0,0134409
3785,5806;0,0133913
3786,5447;0,0133466
3787,5090;0,0133405
3788,4731;0,0133946
3789,4375;0,0135141
3790,4016;0,0136848
3791,3660;0,0138734
3792,3301;0,014037
3793,2944;0,0141424
3794,2585;0,0141877
3795,2229;0,0142049
3796,1870;0,0142299
3797,1514;0,0142563
3798,1155;0,0142168
3799,0798;0,0140223
3800,0439;0,0136522
3801,0083;0,0132252
3801,9724;0,0129365
3802,9368;0,0128864
3803,9009;0,0130013
3804,8652;0,013114
3805,8293;0,0130963
3806,7937;0,0129565
3807,7578;0,0128428
3808,7222;0,0129202
3809,6863;0,0132346
3810,6506;0,0136987
3811,6147;0,0141615
3812,5791;0,0144738
3813,5432;0,0145418
3814,5076;0,0143845
3815,4717;0,0141423
3816,4360;0,0139707
3817,4001;0,013901
3818,3645;0,0138289
3819,3286;0,0136314
3820,2930;0,013302
3821,2571;0,012984
3822,2214;0,0128441
3823,1855;0,0129278
3824,1499;0,0131578
3825,1140;0,0134233
3826,0784;0,0136448
3827,0425;0,0137935
3828,0068;0,0138811
3828,9709;0,0139377
3829,9353;0,0139905
3830,8994;0,0140561
3831,8638;0,0141413
3832,8279;0,0142427
3833,7922;0,0143388
3834,7563;0,0143855
3835,7207;0,0143278
3836,6848;0,0141362
3837,6492;0,013847
3838,6133;0,0135577
3839,5776;0,0133586
3840,5417;0,0132685
3841,5061;0,0132454
3842,4702;0,0132455
3843,4346;0,0132666
3844,3987;0,0133532
3845,3630;0,0135641
3846,3271;0,0139331
3847,2915;0,0144461
3848,2556;0,0150364
3849,2200;0,0155781
3850,1841;0,0158682
3851,1484;0,0156382
3852,1125;0,0147276
3853,0769;0,0134365
3854,0410;0,0124553
3855,0054;0,0121612
3855,9695;0,0124149
3856,9338;0,0129382
3857,8979;0,0135304
3858,8623;0,0140669
3859,8264;0,0144574
3860,7908;0,0146361
3861,7549;0,0145902
3862,7192;0,014398
3863,6833;0,0142099
3864,6477;0,0141534
3865,6118;0,0142507
3866,5762;0,014425
3867,5403;0,0145582
3868,5046;0,0145482
3869,4688;0,014355
3870,4331;0,0140264
3871,3972;0,0136799
3872,3616;0,0134418
3873,3257;0,0133873
3874,2900;0,0135217
3875,2542;0,0137932
3876,2185;0,0141157
3877,1826;0,0143939
3878,1470;0,0145527
3879,1111;0,0145699
3880,0754;0,0144876
3881,0396;0,0143761
3882,0039;0,0142709
3882,9680;0,014152
3883,9324;0,0139924
3884,8965;0,0138205
3885,8608;0,0137203
3886,8250;0,0137586
3887,7893;0,0139155
3888,7534;0,0140845
3889,7178;0,0141375
3890,6819;0,0140174
3891,6462;0,0138038
3892,6104;0,0136709
3893,5747;0,0137464
3894,5388;0,0140267
3895,5032;0,0144121
3896,4673;0,0147802
3897,4316;0,0150363
3898,3958;0,015138
3899,3601;0,0150957
3900,3242;0,0149389
3901,2886;0,0146791
3902,2527;0,0143184
3903,2170;0,0139003
3904,1812;0,0135251
3905,1455;0,0132939
3906,1096;0,0132418
3907,0740;0,0133306
3908,0381;0,0134901
3909,0024;0,0136614
3909,9666;0,0138197
3910,9309;0,013973
3911,8950;0,014141
3912,8594;0,0143267
3913,8235;0,0144986
3914,7878;0,014599
3915,7520;0,0145774
3916,7163;0,0144352
3917,6804;0,0142422
3918,6448;0,0140967
3919,6089;0,0140589
3920,5732;0,0141182
3921,5374;0,0142123
3922,5017;0,0142715
3923,4658;0,014263
3924,4302;0,0142107
3925,3943;0,0141755
3926,3586;0,0142056
3927,3228;0,0142997
3928,2871;0,0144072
3929,2512;0,0144559
3930,2156;0,0143916
3931,1797;0,0142137
3932,1440;0,0139823
3933,1082;0,0137838
3934,0725;0,0136831
3935,0366;0,0137012
3936,0010;0,0138231
3936,9651;0,0140129
3937,9294;0,0142234
3938,8936;0,0144037
3939,8579;0,01451
3940,8220;0,0145238
3941,7864;0,0144664
3942,7505;0,0143914
3943,7148;0,0143523
3944,6790;0,0143674
3945,6433;0,0144089
3946,6074;0,0144234
3947,5718;0,014367
3948,5359;0,0142359
3949,5002;0,0140726
3950,4644;0,0139391
3951,4287;0,0138768
3952,3928;0,0138879
3953,3572;0,0139454
3954,3213;0,0140164
3955,2856;0,0140802
3956,2498;0,0141322
3957,2141;0,0141749
3958,1782;0,014207
3959,1426;0,0142198
3960,1067;0,014204
3961,0710;0,0141606
3962,0352;0,0141042
3962,9995;0,014057
3963,9636;0,0140359
3964,9280;0,0140441
3965,8921;0,0140726
3966,8564;0,0141079
3967,8206;0,0141403
3968,7849;0,0141671
3969,7490;0,0141893
3970,7134;0,0142067
3971,6775;0,0142152
3972,6418;0,014209
3973,6060;0,014186
3974,5703;0,0141511
3975,5344;0,0141146
3976,4988;0,0140868
3977,4629;0,0140726
3978,4272;0,0140694
3979,3914;0,0140703
3980,3557;0,0140687
3981,3198;0,0140628
3982,2842;0,0140557
3983,2483;0,0140536
3984,2126;0,0140613
3985,1768;0,0140784
3986,1411;0,0140997
3987,1052;0,0141184
3988,0696;0,0141309
3989,0337;0,0141386
3989,9980;0,0141468
3990,9622;0,0141594
3991,9265;0,0141739
3992,8906;0,014182
3993,8550;0,0141749
3994,8191;0,0141507
3995,7834;0,0141165
3996,7476;0,0140848
3997,7119;0,0140657
3998,6760;0,0140609
3999,6404;0,0140653
4000,6045;0,0140329

##### Extended Information
[Comments]
Sample name
Comment
Username
Division
Organization;UNIVERSIDAD INDUSTRIAL DE SANTANDER

[Detailed Information]
Creation date;28/02/2025 5:44 p.m.

Data array type;Linear data array
Horizontal axis;Wavenumber [cm-1]
Vertical axis;Abs
Start;399,193 cm-1
End;4000,6 cm-1
Data interval;0,964233 cm-1
Data points;3736    

[Measurement Information]
Model name;FT/IR-4X1typeA
Serial No.;A035162111

Accessory;ATR PRO 4X
Accessory S/N;A021162126
Incident angle;45 deg

Measurement date;28/02/2025 5:34 p.m.

Light source;Standard
Detector;TGS
Accumulation;40
Resolution;4 cm-1
Zero filling;On
Apodization;Cosine
Gain;Auto (8)
Aperture;Auto (7 mm)
Scan speed;Auto (2 mm/sec)
Filter;Auto (12800 Hz)

