TITLE;
DATA TYPE;INFRARED SPECTRUM
ORIGIN;JASCO
OWNER;
DATE;25/02/28
TIME;18:31:20
SPECTROMETER/DATA SYSTEM;
LOCALE;9226
RESOLUTION;
DELTAX;0,964233
XUNITS;1/CM
YUNITS;ABSORBANCE
FIRSTX;  399,1927
LASTX; 4000,6047
NPOINTS;    3736
FIRSTY;     0,15059
MAXY;     0,21568
MINY;     0,01279
XYDATA
399,1927;0,150588
400,1569;0,148349
401,1211;0,146689
402,0854;0,145829
403,0496;0,145577
404,0138;0,1456
404,9781;0,145593
405,9423;0,145371
406,9065;0,144908
407,8708;0,144313
408,8350;0,143752
409,7992;0,143393
410,7635;0,143365
411,7277;0,143728
412,6919;0,144453
413,6562;0,145452
414,6204;0,146635
415,5846;0,147934
416,5489;0,149271
417,5131;0,15046
418,4773;0,151182
419,4416;0,151208
420,4058;0,150714
421,3700;0,150138
422,3343;0,149833
423,2985;0,149942
424,2627;0,150438
425,2270;0,151159
426,1912;0,151869
427,1554;0,152366
428,1197;0,15258
429,0839;0,1526
430,0481;0,152611
431,0124;0,152781
431,9766;0,153165
432,9408;0,153657
433,9051;0,154032
434,8693;0,154075
435,8335;0,153713
436,7978;0,153074
437,7620;0,152414
438,7262;0,151979
439,6905;0,151891
440,6547;0,152119
441,6189;0,152523
442,5832;0,152921
443,5474;0,153172
444,5116;0,153222
445,4759;0,153095
446,4401;0,15284
447,4043;0,152489
448,3686;0,152057
449,3328;0,151565
450,2970;0,151062
451,2613;0,150627
452,2255;0,150345
453,1897;0,150268
454,1540;0,150394
455,1182;0,150652
456,0824;0,150917
457,0467;0,151049
458,0109;0,150963
458,9751;0,150695
459,9394;0,150373
460,9036;0,150109
461,8678;0,149937
462,8321;0,149818
463,7963;0,149698
464,7605;0,149557
465,7248;0,149429
466,6890;0,149378
467,6532;0,149438
468,6175;0,14958
469,5817;0,149724
470,5459;0,149786
471,5102;0,149731
472,4744;0,149607
473,4386;0,149509
474,4029;0,149512
475,3671;0,149625
476,3313;0,149809
477,2956;0,150007
478,2598;0,150177
479,2240;0,150299
480,1883;0,150383
481,1525;0,150456
482,1167;0,150553
483,0810;0,150698
484,0452;0,150891
485,0094;0,151097
485,9737;0,151274
486,9379;0,151398
487,9021;0,151489
488,8664;0,151593
489,8306;0,151764
490,7948;0,152028
491,7591;0,152362
492,7233;0,15271
493,6875;0,153007
494,6518;0,153214
495,6160;0,153328
496,5802;0,153369
497,5445;0,153368
498,5087;0,153358
499,4729;0,153373
500,4372;0,153453
501,4014;0,153632
502,3656;0,153924
503,3299;0,15431
504,2941;0,154748
505,2583;0,155194
506,2226;0,155614
507,1868;0,155993
508,1510;0,156328
509,1153;0,156628
510,0795;0,156906
511,0437;0,157184
512,0080;0,157482
512,9722;0,157817
513,9365;0,158201
514,9007;0,158636
515,8649;0,15912
516,8292;0,159641
517,7934;0,160174
518,7576;0,160672
519,7219;0,161071
520,6861;0,161313
521,6503;0,161369
522,6146;0,161252
523,5788;0,161023
524,5430;0,160786
525,5073;0,16066
526,4715;0,160721
527,4357;0,160952
528,4000;0,161252
529,3642;0,161496
530,3284;0,161596
531,2927;0,161531
532,2569;0,161344
533,2211;0,161106
534,1854;0,16087
535,1496;0,160643
536,1138;0,160395
537,0781;0,160102
538,0423;0,159787
539,0065;0,159523
539,9708;0,159402
540,9350;0,159476
541,8992;0,159718
542,8635;0,160038
543,8277;0,160328
544,7919;0,160522
545,7562;0,160633
546,7204;0,160736
547,6846;0,160923
548,6489;0,161243
549,6131;0,161684
550,5773;0,162187
551,5416;0,162687
552,5058;0,163143
553,4700;0,163552
554,4343;0,163935
555,3985;0,164303
556,3627;0,164631
557,3270;0,164851
558,2912;0,164869
559,2554;0,164615
560,2197;0,164083
561,1839;0,163344
562,1481;0,16252
563,1124;0,161721
564,0766;0,160998
565,0408;0,160328
566,0051;0,159656
566,9693;0,158953
567,9335;0,15825
568,8978;0,157629
569,8620;0,157167
570,8262;0,156888
571,7905;0,156754
572,7547;0,156694
573,7189;0,156652
574,6832;0,156602
575,6474;0,156541
576,6116;0,156463
577,5759;0,156348
578,5401;0,15617
579,5043;0,155928
580,4686;0,155664
581,4328;0,155456
582,3970;0,155372
583,3613;0,155429
584,3255;0,155575
585,2897;0,155716
586,2540;0,155766
587,2182;0,155704
588,1824;0,155575
589,1467;0,155464
590,1109;0,155439
591,0751;0,15551
592,0394;0,155619
593,0036;0,155674
593,9678;0,155604
594,9321;0,155387
595,8963;0,155048
596,8605;0,154634
597,8248;0,154186
598,7890;0,153739
599,7532;0,15332
600,7175;0,152954
601,6817;0,152658
602,6459;0,152428
603,6102;0,152237
604,5744;0,15204
605,5386;0,151795
606,5029;0,15147
607,4671;0,151061
608,4313;0,15058
609,3956;0,150058
610,3598;0,149524
611,3240;0,149001
612,2883;0,148494
613,2525;0,147985
614,2167;0,147439
615,1810;0,146818
616,1452;0,146094
617,1094;0,145271
618,0737;0,144378
619,0379;0,143457
620,0021;0,142538
620,9664;0,141631
621,9306;0,140729
622,8948;0,139822
623,8591;0,138911
624,8233;0,138012
625,7875;0,137143
626,7518;0,136329
627,7160;0,135588
628,6802;0,134923
629,6445;0,134319
630,6087;0,133743
631,5729;0,13316
632,5372;0,132548
633,5014;0,13191
634,4656;0,131279
635,4299;0,130691
636,3941;0,130168
637,3583;0,129703
638,3226;0,129267
639,2868;0,128828
640,2510;0,128374
641,2153;0,127915
642,1795;0,127479
643,1437;0,127083
644,1080;0,126726
645,0722;0,126387
646,0364;0,126031
647,0007;0,125639
647,9649;0,125215
648,9291;0,124795
649,8934;0,124432
650,8576;0,124167
651,8218;0,124007
652,7861;0,123929
653,7503;0,123897
654,7145;0,12389
655,6788;0,123918
656,6430;0,124007
657,6072;0,124165
658,5715;0,124355
659,5357;0,124504
660,4999;0,124542
661,4642;0,124458
662,4284;0,124317
663,3926;0,124208
664,3569;0,124179
665,3211;0,124179
666,2853;0,12402
667,2496;0,123406
668,2138;0,122188
669,1780;0,120669
670,1423;0,119316
671,1065;0,118251
672,0707;0,117327
673,0350;0,11637
673,9992;0,115262
674,9634;0,113976
675,9277;0,112572
676,8919;0,111163
677,8561;0,10984
678,8204;0,108637
679,7846;0,107551
680,7488;0,106574
681,7131;0,105706
682,6773;0,104945
683,6415;0,104283
684,6058;0,103706
685,5700;0,103209
686,5342;0,102788
687,4985;0,102436
688,4627;0,102135
689,4269;0,101864
690,3912;0,101608
691,3554;0,101356
692,3196;0,101097
693,2839;0,100814
694,2481;0,100495
695,2123;0,100142
696,1766;0,0997782
697,1408;0,0994359
698,1050;0,0991385
699,0693;0,0988825
700,0335;0,0986386
700,9977;0,0983676
701,9620;0,0980419
702,9262;0,0976572
703,8904;0,0972322
704,8547;0,0967939
705,8189;0,0963666
706,7831;0,095965
707,7474;0,0955922
708,7116;0,0952418
709,6758;0,0948996
710,6401;0,0945459
711,6043;0,0941583
712,5685;0,0937188
713,5328;0,0932201
714,4970;0,0926697
715,4612;0,0921693
716,4255;0,0915546
717,3897;0,0909352
718,3539;0,0903216
719,3182;0,0897184
720,2824;0,089125
721,2466;0,0885357
722,2109;0,0879399
723,1751;0,0873243
724,1393;0,0866775
725,1036;0,0859973
726,0678;0,0852947
727,0320;0,084593
727,9963;0,0839196
728,9605;0,0832926
729,9247;0,0827131
730,8890;0,0821667
731,8532;0,0816348
732,8174;0,081107
733,7817;0,080588
734,7459;0,0800926
735,7101;0,0796344
736,6744;0,0792148
737,6386;0,0788204
738,6028;0,0784299
739,5671;0,0780266
740,5313;0,0776081
741,4955;0,0771861
742,4598;0,0767779
743,4240;0,0763945
744,3882;0,076034
745,3525;0,075684
746,3167;0,0753291
747,2809;0,0749587
748,2452;0,0745684
749,2094;0,0741572
750,1736;0,073726
751,1379;0,0732785
752,1021;0,0728252
753,0663;0,0723849
754,0306;0,0719787
754,9948;0,0716196
755,9590;0,0713037
756,9233;0,0710102
757,8875;0,0707116
758,8517;0,0703869
759,8160;0,0700308
760,7802;0,0696528
761,7444;0,0692689
762,7087;0,068893
763,6729;0,0685326
764,6371;0,0681906
765,6014;0,0678686
766,5656;0,0675682
767,5298;0,0672895
768,4941;0,06703
769,4583;0,0667851
770,4225;0,0665507
771,3868;0,066325
772,3510;0,0661069
773,3152;0,0658928
774,2795;0,0656761
775,2437;0,065451
776,2079;0,0652176
777,1722;0,0649847
778,1364;0,0647635
779,1006;0,0645582
780,0649;0,0643593
781,0291;0,0641461
781,9933;0,0638976
782,9576;0,0636055
783,9218;0,0632799
784,8860;0,062943
785,8503;0,0626183
786,8145;0,0623191
787,7787;0,0620462
788,7430;0,0617922
789,7072;0,0615486
790,6714;0,0613113
791,6357;0,0610811
792,5999;0,0608616
793,5641;0,0606561
794,5284;0,0604662
795,4926;0,0602916
796,4568;0,0601317
797,4211;0,0599868
798,3853;0,0598587
799,3495;0,0597474
800,3138;0,059648
801,2780;0,0595488
802,2422;0,0594337
803,2065;0,05929
804,1707;0,0591171
805,1349;0,0589309
806,0992;0,0587586
807,0634;0,0586265
808,0276;0,0585465
808,9919;0,0585082
809,9561;0,0584837
810,9203;0,0584401
811,8846;0,0583555
812,8488;0,058228
813,8130;0,0580741
814,7773;0,0579175
815,7415;0,0577765
816,7057;0,0576567
817,6700;0,0575529
818,6342;0,0574587
819,5984;0,0573739
820,5627;0,0573057
821,5269;0,0572615
822,4911;0,0572415
823,4554;0,0572349
824,4196;0,0572258
825,3839;0,057202
826,3481;0,0571613
827,3123;0,0571093
828,2766;0,0570523
829,2408;0,0569912
830,2050;0,0569205
831,1693;0,0568344
832,1335;0,0567317
833,0977;0,0566166
834,0620;0,0564935
835,0262;0,0563597
835,9904;0,0562045
836,9547;0,0560143
837,9189;0,0557826
838,8831;0,0555187
839,8474;0,0552478
840,8116;0,0550028
841,7758;0,0548112
842,7401;0,0546837
843,7043;0,0546105
844,6685;0,0545663
845,6328;0,0545227
846,5970;0,0544601
847,5612;0,054375
848,5255;0,0542778
849,4897;0,0541844
850,4539;0,0541061
851,4182;0,0540441
852,3824;0,0539915
853,3466;0,0539386
854,3109;0,053879
855,2751;0,0538122
856,2393;0,0537419
857,2036;0,053674
858,1678;0,0536151
859,1320;0,0535732
860,0963;0,0535571
861,0605;0,0535734
862,0247;0,0536232
862,9890;0,0536998
863,9532;0,053791
864,9174;0,0538859
865,8817;0,0539804
866,8459;0,054079
867,8101;0,0541901
868,7744;0,0543185
869,7386;0,0544604
870,7028;0,0546037
871,6671;0,0547337
872,6313;0,0548404
873,5955;0,0549219
874,5598;0,0549842
875,5240;0,0550369
876,4882;0,0550884
877,4525;0,0551431
878,4167;0,0552007
879,3809;0,055259
880,3452;0,0553187
881,3094;0,0553885
882,2736;0,055489
883,2379;0,0556503
884,2021;0,0559033
885,1663;0,0562676
886,1306;0,0567427
887,0948;0,0573086
888,0590;0,0579367
889,0233;0,0586035
889,9875;0,0592982
890,9517;0,0600178
891,9160;0,0607539
892,8802;0,0614815
893,8444;0,0621572
894,8087;0,0627316
895,7729;0,0631647
896,7371;0,0634368
897,7014;0,0635486
898,6656;0,063513
899,6298;0,0633473
900,5941;0,0630702
901,5583;0,0627037
902,5225;0,0622755
903,4868;0,0618152
904,4510;0,0613489
905,4152;0,0608951
906,3795;0,060466
907,3437;0,0600739
908,3079;0,0597357
909,2722;0,0594721
910,2364;0,0593002
911,2007;0,0592259
912,1649;0,059241
913,1292;0,0593276
914,0934;0,0594662
915,0576;0,0596431
916,0219;0,0598519
916,9861;0,0600906
917,9503;0,0603574
918,9146;0,0606472
919,8788;0,0609513
920,8430;0,0612596
921,8073;0,0615613
922,7715;0,0618473
923,7357;0,0621099
924,7000;0,0623429
925,6642;0,062542
926,6284;0,0627044
927,5927;0,0628296
928,5569;0,0629202
929,5211;0,0629833
930,4854;0,0630302
931,4496;0,0630756
932,4138;0,0631343
933,3781;0,0632187
934,3423;0,0633364
935,3065;0,0634903
936,2708;0,063681
937,2350;0,063908
938,1992;0,0641708
939,1635;0,0644682
940,1277;0,0647971
941,0919;0,0651518
942,0562;0,0655272
943,0204;0,0659218
943,9846;0,0663423
944,9489;0,0668033
945,9131;0,0673232
946,8773;0,0679158
947,8416;0,0685835
948,8058;0,0693159
949,7700;0,0700961
950,7343;0,0709113
951,6985;0,0717616
952,6627;0,0726613
953,6270;0,0736314
954,5912;0,0746887
955,5554;0,075837
956,5197;0,0770671
957,4839;0,0783628
958,4481;0,0797097
959,4124;0,0810997
960,3766;0,0825309
961,3408;0,0840026
962,3051;0,0855127
963,2693;0,0870566
964,2335;0,088631
965,1978;0,0902369
966,1620;0,0918812
967,1262;0,0935756
968,0905;0,0953348
969,0547;0,0971753
970,0189;0,0991166
970,9832;0,101183
971,9474;0,103404
972,9116;0,105812
973,8759;0,108433
974,8401;0,11129
975,8043;0,114388
976,7686;0,117725
977,7328;0,121284
978,6970;0,12503
979,6613;0,128907
980,6255;0,132829
981,5897;0,136688
982,5540;0,14036
983,5182;0,143735
984,4824;0,146737
985,4467;0,149338
986,4109;0,151552
987,3751;0,153423
988,3394;0,155002
989,3036;0,156337
990,2678;0,157465
991,2321;0,158415
992,1963;0,159211
993,1605;0,159877
994,1248;0,16044
995,0890;0,16093
996,0532;0,161377
997,0175;0,161808
997,9817;0,162245
998,9459;0,162693
999,9102;0,163155
1000,8744;0,163633
1001,8386;0,164142
1002,8029;0,164709
1003,7671;0,165369
1004,7313;0,166155
1005,6956;0,167093
1006,6598;0,168204
1007,6240;0,169515
1008,5883;0,171048
1009,5525;0,172818
1010,5167;0,174812
1011,4810;0,176988
1012,4452;0,17928
1013,4094;0,181624
1014,3737;0,183975
1015,3379;0,186314
1016,3021;0,188639
1017,2664;0,190946
1018,2306;0,193219
1019,1948;0,195436
1020,1591;0,197581
1021,1233;0,199651
1022,0875;0,201657
1023,0518;0,203618
1024,0160;0,205538
1024,9802;0,207407
1025,9445;0,209195
1026,9087;0,210861
1027,8729;0,212359
1028,8372;0,213642
1029,8014;0,214662
1030,7656;0,215362
1031,7299;0,215683
1032,6941;0,215569
1033,6583;0,214983
1034,6226;0,213929
1035,5868;0,212464
1036,5510;0,2107
1037,5153;0,20879
1038,4795;0,206905
1039,4437;0,205202
1040,4080;0,203797
1041,3722;0,202752
1042,3364;0,202065
1043,3007;0,201681
1044,2649;0,201505
1045,2291;0,201425
1046,1934;0,201339
1047,1576;0,201169
1048,1218;0,200863
1049,0861;0,200384
1050,0503;0,199706
1051,0145;0,198799
1051,9788;0,197642
1052,9430;0,196232
1053,9072;0,194588
1054,8715;0,192744
1055,8357;0,190728
1056,7999;0,188539
1057,7642;0,186139
1058,7284;0,183473
1059,6926;0,180501
1060,6569;0,177234
1061,6211;0,173745
1062,5853;0,170157
1063,5496;0,166605
1064,5138;0,163206
1065,4780;0,160031
1066,4423;0,15711
1067,4065;0,154436
1068,3707;0,151986
1069,3350;0,149731
1070,2992;0,147635
1071,2634;0,145654
1072,2277;0,143739
1073,1919;0,141841
1074,1561;0,139916
1075,1204;0,13794
1076,0846;0,13591
1077,0488;0,133852
1078,0131;0,131808
1078,9773;0,12983
1079,9415;0,127968
1080,9058;0,126256
1081,8700;0,124709
1082,8342;0,12333
1083,7985;0,122115
1084,7627;0,121061
1085,7269;0,120162
1086,6912;0,119411
1087,6554;0,118793
1088,6196;0,118287
1089,5839;0,117876
1090,5481;0,117553
1091,5123;0,117319
1092,4766;0,117178
1093,4408;0,117133
1094,4050;0,117176
1095,3693;0,117292
1096,3335;0,117465
1097,2977;0,117683
1098,2620;0,117934
1099,2262;0,118207
1100,1904;0,118486
1101,1547;0,118745
1102,1189;0,118955
1103,0831;0,119088
1104,0474;0,119122
1105,0116;0,119047
1105,9758;0,118864
1106,9401;0,118579
1107,9043;0,118195
1108,8685;0,117705
1109,8328;0,117081
1110,7970;0,116288
1111,7612;0,115297
1112,7255;0,114104
1113,6897;0,112743
1114,6539;0,111289
1115,6182;0,109831
1116,5824;0,108453
1117,5466;0,107205
1118,5109;0,106093
1119,4751;0,105084
1120,4393;0,104115
1121,4036;0,103116
1122,3678;0,102022
1123,3320;0,100785
1124,2963;0,0993774
1125,2605;0,0977923
1126,2247;0,0960441
1127,1890;0,0941627
1128,1532;0,092189
1129,1174;0,0901684
1130,0817;0,0881466
1131,0459;0,0861656
1132,0101;0,0842617
1132,9744;0,0824639
1133,9386;0,0807945
1134,9028;0,07927
1135,8671;0,0779042
1136,8313;0,0767107
1137,7955;0,0757031
1138,7598;0,0748917
1139,7240;0,0742788
1140,6882;0,0738542
1141,6525;0,0735955
1142,6167;0,0734725
1143,5809;0,0734552
1144,5452;0,0735202
1145,5094;0,0736542
1146,4736;0,0738524
1147,4379;0,0741156
1148,4021;0,0744463
1149,3663;0,0748458
1150,3306;0,0753115
1151,2948;0,0758337
1152,2590;0,0763936
1153,2233;0,0769616
1154,1875;0,0774998
1155,1517;0,0779646
1156,1160;0,0783104
1157,0802;0,0784903
1158,0444;0,0784552
1159,0087;0,0781541
1159,9729;0,0775362
1160,9371;0,0765586
1161,9014;0,0751958
1162,8656;0,0734504
1163,8298;0,0713586
1164,7941;0,0689894
1165,7583;0,0664375
1166,7225;0,0638102
1167,6868;0,0612119
1168,6510;0,0587291
1169,6152;0,0564201
1170,5795;0,0543146
1171,5437;0,0524195
1172,5079;0,0507306
1173,4722;0,0492409
1174,4364;0,0479442
1175,4006;0,0468315
1176,3649;0,0458866
1177,3291;0,0450857
1178,2933;0,0444027
1179,2576;0,0438162
1180,2218;0,0433149
1181,1860;0,0428962
1182,1503;0,042561
1183,1145;0,042308
1184,0787;0,0421314
1185,0430;0,042024
1186,0072;0,0419805
1186,9714;0,0419996
1187,9357;0,0420832
1188,8999;0,0422333
1189,8641;0,0424506
1190,8284;0,0427341
1191,7926;0,0430822
1192,7568;0,0434929
1193,7211;0,0439626
1194,6853;0,0444845
1195,6495;0,0450478
1196,6138;0,0456387
1197,5780;0,0462425
1198,5422;0,0468461
1199,5065;0,0474512
1200,4707;0,0480261
1201,4349;0,0485816
1202,3992;0,049118
1203,3634;0,0496374
1204,3276;0,0501415
1205,2919;0,0506309
1206,2561;0,0511064
1207,2203;0,0515718
1208,1846;0,0520371
1209,1488;0,0525189
1210,1130;0,0530381
1211,0773;0,0536134
1212,0415;0,0542555
1213,0057;0,054964
1213,9700;0,0557284
1214,9342;0,0565329
1215,8984;0,0573617
1216,8627;0,0582027
1217,8269;0,0590484
1218,7911;0,059893
1219,7554;0,0607308
1220,7196;0,0615528
1221,6838;0,0623471
1222,6481;0,0631013
1223,6123;0,0638066
1224,5765;0,0644622
1225,5408;0,0650759
1226,5050;0,0656606
1227,4692;0,066228
1228,4335;0,0667819
1229,3977;0,0673155
1230,3619;0,0678147
1231,3262;0,0682641
1232,2904;0,0686536
1233,2546;0,0689814
1234,2189;0,0692531
1235,1831;0,0694774
1236,1473;0,069663
1237,1116;0,0698163
1238,0758;0,0699418
1239,0400;0,0700424
1240,0043;0,0701191
1240,9685;0,0701699
1241,9327;0,0701882
1242,8970;0,0701638
1243,8612;0,0700857
1244,8254;0,0699463
1245,7897;0,0697449
1246,7539;0,0694886
1247,7181;0,0691899
1248,6824;0,0688613
1249,6466;0,0685123
1250,6108;0,0681477
1251,5751;0,0677701
1252,5393;0,0673831
1253,5035;0,0669927
1254,4678;0,066606
1255,4320;0,0662265
1256,3962;0,0658511
1257,3605;0,0654704
1258,3247;0,065072
1259,2889;0,0646459
1260,2532;0,0641876
1261,2174;0,0636971
1262,1816;0,0631755
1263,1459;0,0626228
1264,1101;0,0620367
1265,0743;0,0614155
1266,0386;0,0607598
1267,0028;0,0600731
1267,9670;0,0593614
1268,9313;0,0586312
1269,8955;0,05789
1270,8597;0,0571455
1271,8240;0,056405
1272,7882;0,0556741
1273,7524;0,0549556
1274,7167;0,0542506
1275,6809;0,0535603
1276,6451;0,0528879
1277,6094;0,052238
1278,5736;0,0516138
1279,5378;0,0510146
1280,5021;0,0504358
1281,4663;0,0498712
1282,4305;0,0493178
1283,3948;0,0487774
1284,3590;0,0482577
1285,3232;0,0477692
1286,2875;0,0473235
1287,2517;0,0469315
1288,2159;0,0466023
1289,1802;0,046342
1290,1444;0,0461529
1291,1086;0,0460329
1292,0729;0,0459774
1293,0371;0,0459809
1294,0013;0,0460401
1294,9656;0,0461546
1295,9298;0,0463259
1296,8940;0,0465565
1297,8583;0,0468478
1298,8225;0,0471996
1299,7867;0,0476085
1300,7510;0,0480688
1301,7152;0,0485719
1302,6794;0,0491091
1303,6437;0,0496731
1304,6079;0,0502599
1305,5721;0,050868
1306,5364;0,0514969
1307,5006;0,0521444
1308,4648;0,0528058
1309,4291;0,0534745
1310,3933;0,0541418
1311,3575;0,0547967
1312,3218;0,0554244
1313,2860;0,0560053
1314,2502;0,0565155
1315,2145;0,0569286
1316,1787;0,0572187
1317,1429;0,0573655
1318,1072;0,0573631
1319,0714;0,0572266
1320,0356;0,0569921
1320,9999;0,056706
1321,9641;0,05641
1322,9283;0,0561319
1323,8926;0,055886
1324,8568;0,0556775
1325,8210;0,0555071
1326,7853;0,0553713
1327,7495;0,0552619
1328,7137;0,0551654
1329,6780;0,0550654
1330,6422;0,0549469
1331,6064;0,0548014
1332,5707;0,0546274
1333,5349;0,0544258
1334,4991;0,0541918
1335,4634;0,0539091
1336,4276;0,0535528
1337,3918;0,0531041
1338,3561;0,0525726
1339,3203;0,0520084
1340,2845;0,0514822
1341,2488;0,0510455
1342,2130;0,050708
1343,1772;0,0504487
1344,1415;0,0502394
1345,1057;0,0500629
1346,0699;0,0499193
1347,0342;0,0498237
1347,9984;0,0497977
1348,9626;0,0498575
1349,9269;0,0500048
1350,8911;0,0502247
1351,8553;0,0504925
1352,8196;0,0507864
1353,7838;0,0510993
1354,7480;0,0514427
1355,7123;0,0518374
1356,6765;0,0522957
1357,6407;0,0528091
1358,6050;0,0533496
1359,5692;0,0538797
1360,5334;0,0543661
1361,4977;0,0547936
1362,4619;0,055171
1363,4261;0,0555219
1364,3904;0,0558642
1365,3546;0,0562002
1366,3188;0,0565203
1367,2831;0,0568117
1368,2473;0,0570634
1369,2115;0,0572648
1370,1758;0,0574008
1371,1400;0,0574468
1372,1042;0,0573741
1373,0685;0,0571666
1374,0327;0,0568416
1374,9969;0,0564502
1375,9612;0,0560402
1376,9254;0,0556169
1377,8896;0,0551409
1378,8539;0,0545646
1379,8181;0,0538752
1380,7823;0,0531138
1381,7466;0,0523529
1382,7108;0,0516447
1383,6750;0,050984
1384,6393;0,0503156
1385,6035;0,049584
1386,5677;0,0487988
1387,5320;0,048058
1388,4962;0,0474835
1389,4604;0,0471278
1390,4247;0,0469557
1391,3889;0,0468894
1392,3531;0,0468533
1393,3174;0,0467976
1394,2816;0,0467076
1395,2458;0,046601
1396,2101;0,0465109
1397,1743;0,0464648
1398,1385;0,046477
1399,1028;0,0465506
1400,0670;0,0466801
1401,0313;0,0468516
1401,9955;0,0470462
1402,9597;0,0472474
1403,9240;0,0474519
1404,8882;0,047674
1405,8524;0,0479371
1406,8167;0,0482546
1407,7809;0,0486198
1408,7451;0,0490136
1409,7094;0,0494219
1410,6736;0,0498453
1411,6378;0,0502977
1412,6021;0,0507918
1413,5663;0,0513247
1414,5305;0,0518727
1415,4948;0,0523935
1416,4590;0,0528346
1417,4232;0,0531542
1418,3875;0,0533541
1419,3517;0,0534852
1420,3159;0,0535938
1421,2802;0,053675
1422,2444;0,0536884
1423,2086;0,0535999
1424,1729;0,0534062
1425,1371;0,0531289
1426,1013;0,0527831
1427,0656;0,0523519
1428,0298;0,0517961
1428,9940;0,0511059
1429,9583;0,0503459
1430,9225;0,0496344
1431,8867;0,049055
1432,8510;0,0485898
1433,8152;0,0481264
1434,7794;0,0475247
1435,7437;0,0467273
1436,7079;0,0458551
1437,6721;0,0451408
1438,6364;0,0447229
1439,6006;0,0445706
1440,5648;0,044581
1441,5291;0,04467
1442,4933;0,0447975
1443,4575;0,0449559
1444,4218;0,0451492
1445,3860;0,0453763
1446,3502;0,0456253
1447,3145;0,0458817
1448,2787;0,0461402
1449,2429;0,04641
1450,2072;0,0467068
1451,1714;0,0470389
1452,1356;0,0473972
1453,0999;0,047743
1454,0641;0,0479893
1455,0283;0,0479872
1455,9926;0,0475884
1456,9568;0,0468708
1457,9210;0,0462289
1458,8853;0,0459533
1459,8495;0,045984
1460,8137;0,0461297
1461,7780;0,0462158
1462,7422;0,0460892
1463,7064;0,0456355
1464,6707;0,0448627
1465,6349;0,0439449
1466,5991;0,0430946
1467,5634;0,0423923
1468,5276;0,0417657
1469,4918;0,0410559
1470,4561;0,040074
1471,4203;0,038678
1472,3845;0,0369249
1473,3488;0,0351528
1474,3130;0,0337326
1475,2772;0,0327568
1476,2415;0,0320949
1477,2057;0,0315991
1478,1699;0,0311841
1479,1342;0,0308146
1480,0984;0,0304817
1481,0626;0,0301915
1482,0269;0,0299613
1482,9911;0,0298101
1483,9553;0,0297434
1484,9196;0,0297426
1485,8838;0,0297645
1486,8480;0,0297563
1487,8123;0,0296942
1488,7765;0,0296305
1489,7407;0,0296772
1490,7050;0,0299028
1491,6692;0,0302837
1492,6334;0,0307597
1493,5977;0,0312812
1494,5619;0,0318132
1495,5261;0,0323316
1496,4904;0,0328321
1497,4546;0,0333439
1498,4188;0,0339118
1499,3831;0,0345545
1500,3473;0,0352563
1501,3115;0,0359892
1502,2758;0,0367205
1503,2400;0,0373993
1504,2042;0,0379267
1505,1685;0,0381284
1506,1327;0,0378296
1507,0969;0,0371464
1508,0612;0,0365403
1509,0254;0,0362596
1509,9896;0,0361991
1510,9539;0,0361991
1511,9181;0,0361551
1512,8823;0,0359986
1513,8466;0,0356855
1514,8108;0,0352124
1515,7750;0,034632
1516,7393;0,03403
1517,7035;0,033464
1518,6677;0,0329234
1519,6320;0,0323531
1520,5962;0,0317275
1521,5604;0,0311023
1522,5247;0,0305782
1523,4889;0,0302162
1524,4531;0,0300101
1525,4174;0,0299267
1526,3816;0,0299436
1527,3458;0,0300523
1528,3101;0,0302394
1529,2743;0,0304769
1530,2385;0,0307274
1531,2028;0,0309624
1532,1670;0,0311864
1533,1312;0,0314464
1534,0955;0,0317988
1535,0597;0,0322561
1536,0239;0,0327766
1536,9882;0,0332811
1537,9524;0,033648
1538,9166;0,033705
1539,8809;0,0333283
1540,8451;0,0326979
1541,8093;0,0322414
1542,7736;0,0321203
1543,7378;0,0321976
1544,7020;0,0323345
1545,6663;0,0324771
1546,6305;0,032618
1547,5947;0,0327556
1548,5590;0,0328773
1549,5232;0,0329653
1550,4874;0,0330171
1551,4517;0,0330619
1552,4159;0,0331504
1553,3801;0,0333205
1554,3444;0,0335648
1555,3086;0,0338135
1556,2728;0,0339229
1557,2371;0,0337084
1558,2013;0,0331623
1559,1655;0,0326772
1560,1298;0,0325959
1561,0940;0,0328356
1562,0582;0,0332149
1563,0225;0,0336425
1563,9867;0,0340811
1564,9509;0,0345022
1565,9152;0,0348725
1566,8794;0,0351664
1567,8436;0,0353952
1568,8079;0,0356237
1569,7721;0,0359324
1570,7363;0,0363498
1571,7006;0,0368398
1572,6648;0,0373396
1573,6290;0,0377902
1574,5933;0,0381521
1575,5575;0,0384358
1576,5217;0,0387209
1577,4860;0,0390978
1578,4502;0,0395868
1579,4144;0,0401517
1580,3787;0,0407517
1581,3429;0,0413578
1582,3071;0,0419522
1583,2714;0,0425292
1584,2356;0,0430963
1585,1998;0,0436674
1586,1641;0,0442501
1587,1283;0,0448376
1588,0925;0,04541
1589,0568;0,0459411
1590,0210;0,0464052
1590,9852;0,0467783
1591,9495;0,0470382
1592,9137;0,0471671
1593,8779;0,0471618
1594,8422;0,0470411
1595,8064;0,0468412
1596,7706;0,0465986
1597,7349;0,0463351
1598,6991;0,0460566
1599,6633;0,0457631
1600,6276;0,0454605
1601,5918;0,0451663
1602,5560;0,0449037
1603,5203;0,0446887
1604,4845;0,0445168
1605,4487;0,0443619
1606,4130;0,0441872
1607,3772;0,0439702
1608,3414;0,0437289
1609,3057;0,0435263
1610,2699;0,0434343
1611,2341;0,0434831
1612,1984;0,0436402
1613,1626;0,0438231
1614,1268;0,0439253
1615,0911;0,0438658
1616,0553;0,0436697
1617,0195;0,043489
1617,9838;0,043468
1618,9480;0,043617
1619,9122;0,0438504
1620,8765;0,0440711
1621,8407;0,0442148
1622,8049;0,0442728
1623,7692;0,0442905
1624,7334;0,0443251
1625,6976;0,0443948
1626,6619;0,044482
1627,6261;0,0445735
1628,5903;0,0446868
1629,5546;0,0448555
1630,5188;0,0450933
1631,4830;0,0453693
1632,4473;0,0456
1633,4115;0,0456564
1634,3757;0,0454179
1635,3400;0,0449196
1636,3042;0,0444326
1637,2684;0,044212
1638,2327;0,0442597
1639,1969;0,0444497
1640,1611;0,0446883
1641,1254;0,0449363
1642,0896;0,0451708
1643,0538;0,0453435
1644,0181;0,0453588
1644,9823;0,045111
1645,9465;0,0446173
1646,9108;0,0441178
1647,8750;0,0438864
1648,8392;0,0439698
1649,8035;0,0441994
1650,7677;0,0442871
1651,7319;0,0438676
1652,6962;0,0427368
1653,6604;0,0413464
1654,6246;0,0404472
1655,5889;0,0401536
1656,5531;0,0401625
1657,5173;0,0402272
1658,4816;0,0402095
1659,4458;0,0400178
1660,4100;0,0395951
1661,3743;0,0389682
1662,3385;0,0382847
1663,3027;0,0377302
1664,2670;0,037387
1665,2312;0,0371988
1666,1954;0,0370291
1667,1597;0,0367218
1668,1239;0,0361664
1669,0881;0,0353933
1670,0524;0,0346
1671,0166;0,0339882
1671,9808;0,0335835
1672,9451;0,0332595
1673,9093;0,0328754
1674,8735;0,0323817
1675,8378;0,0318565
1676,8020;0,0314389
1677,7662;0,0312126
1678,7305;0,0311597
1679,6947;0,0311895
1680,6589;0,0311629
1681,6232;0,0308979
1682,5874;0,0302347
1683,5516;0,0292355
1684,5159;0,0282721
1685,4801;0,02766
1686,4443;0,0273781
1687,4086;0,0272577
1688,3728;0,0271808
1689,3370;0,0271119
1690,3013;0,0270648
1691,2655;0,027061
1692,2297;0,0271001
1693,1940;0,0271494
1694,1582;0,0271536
1695,1224;0,0270585
1696,0867;0,026838
1697,0509;0,0265115
1698,0151;0,0261405
1698,9794;0,0258074
1699,9436;0,0255852
1700,9078;0,0255057
1701,8721;0,0255524
1702,8363;0,0256832
1703,8005;0,0258578
1704,7648;0,0260534
1705,7290;0,0262708
1706,6932;0,0265293
1707,6575;0,0268493
1708,6217;0,0272366
1709,5859;0,0276817
1710,5502;0,0281678
1711,5144;0,0286735
1712,4786;0,0291694
1713,4429;0,0296134
1714,4071;0,0299544
1715,3713;0,0301583
1716,3356;0,030263
1717,2998;0,0303918
1718,2640;0,0306489
1719,2283;0,0310333
1720,1925;0,0314897
1721,1567;0,031973
1722,1210;0,0324573
1723,0852;0,0329254
1724,0494;0,0333659
1725,0137;0,0337769
1725,9779;0,034168
1726,9421;0,0345549
1727,9064;0,0349475
1728,8706;0,0353367
1729,8348;0,0356809
1730,7991;0,0358986
1731,7633;0,0358864
1732,7275;0,0355966
1733,6918;0,0351372
1734,6560;0,0347219
1735,6202;0,0344708
1736,5845;0,034339
1737,5487;0,0342062
1738,5129;0,0339602
1739,4772;0,0335409
1740,4414;0,032965
1741,4056;0,0323151
1742,3699;0,0316798
1743,3341;0,0310971
1744,2983;0,0305529
1745,2626;0,03001
1746,2268;0,0294223
1747,1910;0,0287328
1748,1553;0,0278858
1749,1195;0,0268817
1750,0837;0,025825
1751,0480;0,0248737
1752,0122;0,0241203
1752,9764;0,0235448
1753,9407;0,0230623
1754,9049;0,0225894
1755,8691;0,0220845
1756,8334;0,0215574
1757,7976;0,0210418
1758,7618;0,0205554
1759,7261;0,0200831
1760,6903;0,019604
1761,6545;0,0191301
1762,6188;0,0187107
1763,5830;0,0183927
1764,5472;0,0181816
1765,5115;0,0180406
1766,4757;0,0179177
1767,4399;0,0177691
1768,4042;0,0175685
1769,3684;0,0173037
1770,3326;0,0169739
1771,2969;0,0166021
1772,2611;0,0162496
1773,2253;0,0159935
1774,1896;0,0158736
1775,1538;0,0158711
1776,1180;0,0159325
1777,0823;0,0159989
1778,0465;0,0160257
1779,0107;0,015995
1779,9750;0,0159203
1780,9392;0,0158331
1781,9034;0,0157596
1782,8677;0,015709
1783,8319;0,0156835
1784,7961;0,0156917
1785,7604;0,0157481
1786,7246;0,0158583
1787,6888;0,0160037
1788,6531;0,0161381
1789,6173;0,0161962
1790,5815;0,0161223
1791,5458;0,0159198
1792,5100;0,0156773
1793,4742;0,0155094
1794,4385;0,0154655
1795,4027;0,0155171
1796,3669;0,0156046
1797,3312;0,0156741
1798,2954;0,0156929
1799,2596;0,0156572
1800,2239;0,0155909
1801,1881;0,0155297
1802,1523;0,0154987
1803,1166;0,0155039
1804,0808;0,0155382
1805,0450;0,015589
1806,0093;0,0156414
1806,9735;0,0156769
1807,9377;0,0156777
1808,9020;0,0156347
1809,8662;0,0155583
1810,8304;0,0154781
1811,7947;0,0154264
1812,7589;0,0154181
1813,7231;0,0154445
1814,6874;0,015482
1815,6516;0,0155089
1816,6158;0,0155186
1817,5801;0,0155234
1818,5443;0,0155444
1819,5085;0,015594
1820,4728;0,0156643
1821,4370;0,0157329
1822,4012;0,0157777
1823,3655;0,0157927
1824,3297;0,0157913
1825,2939;0,015792
1826,2582;0,0157968
1827,2224;0,0157838
1828,1866;0,0157245
1829,1509;0,0156161
1830,1151;0,0154989
1831,0793;0,0154336
1832,0436;0,0154536
1833,0078;0,015543
1833,9720;0,0156532
1834,9363;0,0157331
1835,9005;0,0157568
1836,8647;0,0157402
1837,8290;0,0157318
1838,7932;0,0157763
1839,7574;0,0158815
1840,7217;0,0160116
1841,6859;0,0161042
1842,6501;0,0161026
1843,6144;0,0159971
1844,5786;0,0158426
1845,5428;0,0157176
1846,5071;0,0156606
1847,4713;0,0156575
1848,4355;0,0156748
1849,3998;0,015689
1850,3640;0,0156957
1851,3282;0,0157021
1852,2925;0,0157135
1853,2567;0,0157255
1854,2209;0,0157289
1855,1852;0,015722
1856,1494;0,0157164
1857,1136;0,015731
1858,0779;0,0157755
1859,0421;0,0158403
1860,0063;0,0159018
1860,9706;0,0159407
1861,9348;0,0159589
1862,8990;0,0159785
1863,8633;0,0160243
1864,8275;0,0161026
1865,7917;0,0161901
1866,7560;0,0162398
1867,7202;0,016209
1868,6844;0,0160964
1869,6487;0,0159513
1870,6129;0,0158358
1871,5771;0,0157832
1872,5414;0,0157901
1873,5056;0,0158302
1874,4698;0,0158729
1875,4341;0,0158974
1876,3983;0,0159019
1877,3625;0,0159023
1878,3268;0,0159204
1879,2910;0,0159694
1880,2552;0,0160454
1881,2195;0,0161298
1882,1837;0,0161996
1883,1479;0,0162396
1884,1122;0,0162483
1885,0764;0,016235
1886,0406;0,016211
1887,0049;0,0161836
1887,9691;0,0161554
1888,9333;0,0161286
1889,8976;0,016108
1890,8618;0,0160996
1891,8260;0,0161061
1892,7903;0,0161244
1893,7545;0,0161467
1894,7188;0,016166
1895,6830;0,0161799
1896,6472;0,0161923
1897,6115;0,0162089
1898,5757;0,0162319
1899,5399;0,0162579
1900,5042;0,0162803
1901,4684;0,0162943
1902,4326;0,0163004
1903,3969;0,0163034
1904,3611;0,0163084
1905,3253;0,0163162
1906,2896;0,0163224
1907,2538;0,0163205
1908,2180;0,0163067
1909,1823;0,0162841
1910,1465;0,0162619
1911,1107;0,0162514
1912,0750;0,0162605
1913,0392;0,016291
1914,0034;0,0163389
1914,9677;0,0163955
1915,9319;0,0164499
1916,8961;0,0164928
1917,8604;0,0165206
1918,8246;0,0165357
1919,7888;0,0165428
1920,7531;0,0165431
1921,7173;0,0165321
1922,6815;0,0165023
1923,6458;0,0164527
1924,6100;0,0163958
1925,5742;0,0163569
1926,5385;0,0163619
1927,5027;0,0164218
1928,4669;0,0165221
1929,4312;0,0166254
1930,3954;0,0166881
1931,3596;0,0166851
1932,3239;0,0166274
1933,2881;0,0165577
1934,2523;0,0165276
1935,2166;0,0165699
1936,1808;0,0166844
1937,1450;0,0168416
1938,1093;0,0170006
1939,0735;0,0171239
1940,0377;0,0171838
1941,0020;0,0171653
1941,9662;0,0170712
1942,9304;0,0169287
1943,8947;0,0167852
1944,8589;0,0166907
1945,8231;0,0166767
1946,7874;0,016746
1947,7516;0,0168756
1948,7158;0,0170259
1949,6801;0,0171534
1950,6443;0,0172212
1951,6085;0,0172074
1952,5728;0,017111
1953,5370;0,0169562
1954,5012;0,0167935
1955,4655;0,0166886
1956,4297;0,0166987
1957,3939;0,0168444
1958,3582;0,0170934
1959,3224;0,0173697
1960,2866;0,0175899
1961,2509;0,0177058
1962,2151;0,017726
1963,1793;0,0177001
1964,1436;0,0176775
1965,1078;0,0176706
1966,0720;0,0176465
1967,0363;0,0175543
1968,0005;0,0173737
1968,9647;0,0171473
1969,9290;0,0169688
1970,8932;0,0169353
1971,8574;0,0170941
1972,8217;0,0174135
1973,7859;0,017791
1974,7501;0,0180992
1975,7144;0,0182516
1976,6786;0,0182481
1977,6428;0,0181675
1978,6071;0,0181063
1979,5713;0,0181151
1980,5355;0,0181787
1981,4998;0,0182451
1982,4640;0,0182697
1983,4282;0,0182439
1984,3925;0,0181936
1985,3567;0,0181546
1986,3209;0,0181424
1987,2852;0,0181384
1988,2494;0,0181058
1989,2136;0,0180228
1990,1779;0,0179106
1991,1421;0,0178303
1992,1063;0,0178433
1993,0706;0,0179604
1994,0348;0,0181226
1994,9990;0,0182322
1995,9633;0,0182093
1996,9275;0,0180393
1997,8917;0,0177861
1998,8560;0,0175644
1999,8202;0,0174838
2000,7844;0,0175954
2001,7487;0,0178704
2002,7129;0,0182199
2003,6771;0,0185353
2004,6414;0,0187288
2005,6056;0,018763
2006,5698;0,0186614
2007,5341;0,0184986
2008,4983;0,0183678
2009,4625;0,0183394
2010,4268;0,0184326
2011,3910;0,0186119
2012,3552;0,0188102
2013,3195;0,0189599
2014,2837;0,0190201
2015,2479;0,0189865
2016,2122;0,0188855
2017,1764;0,0187585
2018,1406;0,0186479
2019,1049;0,0185884
2020,0691;0,0186023
2021,0333;0,0186923
2021,9976;0,0188364
2022,9618;0,0189897
2023,9260;0,0190987
2024,8903;0,0191246
2025,8545;0,0190612
2026,8187;0,0189383
2027,7830;0,018807
2028,7472;0,0187196
2029,7114;0,0187121
2030,6757;0,0187959
2031,6399;0,0189571
2032,6041;0,0191634
2033,5684;0,0193766
2034,5326;0,0195648
2035,4968;0,0197102
2036,4611;0,0198045
2037,4253;0,0198374
2038,3895;0,0197899
2039,3538;0,0196402
2040,3180;0,0193841
2041,2822;0,0190549
2042,2465;0,0187259
2043,2107;0,0184898
2044,1749;0,0184213
2045,1392;0,0185447
2046,1034;0,0188178
2047,0676;0,0191435
2048,0320;0,0194074
2048,9961;0,0195294
2049,9604;0,0194961
2050,9246;0,0193544
2051,8889;0,0191769
2052,8530;0,0190208
2053,8174;0,0189054
2054,7815;0,0188136
2055,7458;0,0187169
2056,7100;0,0186075
2057,6743;0,018512
2058,6384;0,0184748
2059,6028;0,0185219
2060,5669;0,0186342
2061,5313;0,0187526
2062,4954;0,0188149
2063,4597;0,0187979
2064,4238;0,0187336
2065,3882;0,0186831
2066,3523;0,0186894
2067,3167;0,0187443
2068,2808;0,0187971
2069,2451;0,0187938
2070,2092;0,0187174
2071,1736;0,0186003
2072,1377;0,0185025
2073,1021;0,0184719
2074,0662;0,0185153
2075,0305;0,0185975
2075,9946;0,018665
2076,9590;0,0186766
2077,9231;0,0186234
2078,8875;0,0185289
2079,8516;0,0184343
2080,8159;0,0183779
2081,7800;0,0183795
2082,7444;0,0184352
2083,7085;0,0185234
2084,6729;0,0186164
2085,6370;0,0186912
2086,6013;0,0187337
2087,5654;0,0187365
2088,5298;0,0186959
2089,4939;0,0186139
2090,4583;0,0185061
2091,4224;0,0184064
2092,3867;0,0183604
2093,3508;0,0184043
2094,3152;0,0185394
2095,2793;0,018722
2096,2437;0,0188813
2097,2078;0,018957
2098,1721;0,0189323
2099,1362;0,0188376
2100,1006;0,0187247
2101,0647;0,0186352
2102,0291;0,0185801
2102,9932;0,0185486
2103,9575;0,018527
2104,9216;0,0185139
2105,8860;0,0185195
2106,8501;0,0185537
2107,8145;0,0186165
2108,7786;0,0186997
2109,7429;0,0187947
2110,7070;0,0188975
2111,6714;0,0190039
2112,6355;0,0191001
2113,5999;0,0191602
2114,5640;0,0191571
2115,5283;0,0190811
2116,4924;0,0189525
2117,4568;0,0188169
2118,4209;0,0187252
2119,3853;0,0187085
2120,3494;0,0187651
2121,3137;0,0188644
2122,2778;0,0189661
2123,2422;0,0190402
2124,2063;0,019077
2125,1707;0,0190842
2126,1348;0,0190765
2127,0991;0,0190682
2128,0632;0,0190714
2129,0276;0,0190979
2129,9917;0,0191578
2130,9561;0,0192534
2131,9202;0,0193714
2132,8845;0,0194827
2133,8486;0,0195555
2134,8130;0,0195764
2135,7771;0,0195632
2136,7415;0,0195567
2137,7056;0,0195945
2138,6699;0,0196861
2139,6340;0,0198107
2140,5984;0,0199372
2141,5625;0,0200515
2142,5269;0,0201676
2143,4910;0,0203134
2144,4553;0,0205023
2145,4194;0,0207123
2146,3838;0,0208911
2147,3479;0,0209853
2148,3123;0,0209736
2149,2764;0,0208805
2150,2407;0,0207651
2151,2048;0,0206931
2152,1692;0,020711
2153,1333;0,0208332
2154,0977;0,0210422
2155,0618;0,0212957
2156,0261;0,0215364
2156,9902;0,0217055
2157,9546;0,0217658
2158,9187;0,0217259
2159,8831;0,0216396
2160,8472;0,0215696
2161,8115;0,0215449
2162,7756;0,0215441
2163,7400;0,0215148
2164,7041;0,0214107
2165,6685;0,0212275
2166,6326;0,0210149
2167,5969;0,0208552
2168,5610;0,0208172
2169,5254;0,0209147
2170,4895;0,0210956
2171,4539;0,0212663
2172,4180;0,0213395
2173,3823;0,0212773
2174,3464;0,0211075
2175,3108;0,020904
2176,2749;0,0207466
2177,2393;0,020687
2178,2034;0,0207371
2179,1677;0,0208767
2180,1318;0,0210659
2181,0962;0,0212532
2182,0603;0,0213862
2183,0247;0,0214291
2183,9888;0,021383
2184,9531;0,02129
2185,9172;0,021212
2186,8816;0,021191
2187,8457;0,021219
2188,8101;0,0212391
2189,7742;0,0211821
2190,7385;0,0210129
2191,7026;0,0207576
2192,6670;0,0204888
2193,6311;0,0202833
2194,5955;0,0201803
2195,5596;0,0201684
2196,5239;0,0202063
2197,4880;0,0202553
2198,4524;0,0202995
2199,4165;0,0203409
2200,3809;0,0203815
2201,3450;0,0204111
2202,3093;0,020414
2203,2734;0,0203839
2204,2378;0,0203322
2205,2019;0,020277
2206,1663;0,0202242
2207,1304;0,0201586
2208,0947;0,0200573
2209,0588;0,0199169
2210,0232;0,0197688
2210,9873;0,0196658
2211,9517;0,0196458
2212,9158;0,0197002
2213,8801;0,0197739
2214,8442;0,0198008
2215,8086;0,0197496
2216,7727;0,0196444
2217,7371;0,0195445
2218,7012;0,0194999
2219,6655;0,0195164
2220,6296;0,0195568
2221,5940;0,0195755
2222,5581;0,0195577
2223,5225;0,019532
2224,4866;0,019549
2225,4509;0,0196424
2226,4150;0,0198016
2227,3794;0,0199744
2228,3435;0,020096
2229,3079;0,0201238
2230,2720;0,020059
2231,2363;0,0199429
2232,2004;0,0198344
2233,1648;0,0197817
2234,1289;0,0198006
2235,0933;0,0198689
2236,0574;0,0199386
2237,0217;0,0199589
2237,9858;0,0199023
2238,9502;0,0197776
2239,9143;0,0196261
2240,8787;0,0195003
2241,8428;0,0194389
2242,8071;0,0194505
2243,7712;0,0195143
2244,7356;0,0195951
2245,6997;0,0196596
2246,6641;0,019688
2247,6282;0,0196744
2248,5925;0,0196232
2249,5566;0,0195458
2250,5210;0,0194586
2251,4851;0,0193804
2252,4495;0,0193264
2253,4136;0,0193003
2254,3779;0,0192912
2255,3420;0,0192794
2256,3064;0,0192494
2257,2705;0,0192006
2258,2349;0,0191492
2259,1990;0,0191184
2260,1633;0,0191247
2261,1274;0,0191683
2262,0918;0,0192342
2263,0559;0,0193016
2264,0203;0,0193542
2264,9844;0,0193846
2265,9487;0,0193927
2266,9128;0,0193802
2267,8772;0,0193476
2268,8413;0,0192966
2269,8057;0,019233
2270,7698;0,0191687
2271,7341;0,0191187
2272,6982;0,0190943
2273,6626;0,0190983
2274,6267;0,0191229
2275,5911;0,0191538
2276,5552;0,0191767
2277,5195;0,0191831
2278,4836;0,0191732
2279,4480;0,0191547
2280,4121;0,0191373
2281,3765;0,0191281
2282,3406;0,0191282
2283,3049;0,0191326
2284,2690;0,0191345
2285,2334;0,0191302
2286,1975;0,0191222
2287,1619;0,0191186
2288,1260;0,019128
2289,0903;0,0191534
2290,0544;0,0191896
2291,0188;0,0192255
2291,9829;0,0192512
2292,9473;0,019264
2293,9114;0,0192708
2294,8757;0,0192835
2295,8398;0,019312
2296,8042;0,0193593
2297,7683;0,0194208
2298,7327;0,0194893
2299,6968;0,0195599
2300,6611;0,0196327
2301,6252;0,0197112
2302,5896;0,0197987
2303,5537;0,0198956
2304,5181;0,0199976
2305,4822;0,020097
2306,4465;0,0201847
2307,4106;0,0202526
2308,3750;0,0202983
2309,3391;0,020328
2310,3035;0,0203567
2311,2676;0,0204019
2312,2319;0,0204734
2313,1960;0,0205657
2314,1604;0,0206593
2315,1245;0,0207305
2316,0889;0,0207645
2317,0530;0,0207625
2318,0173;0,0207407
2318,9814;0,0207197
2319,9458;0,0207121
2320,9099;0,0207126
2321,8743;0,0207
2322,8384;0,0206509
2323,8027;0,0205547
2324,7668;0,0204194
2325,7312;0,0202672
2326,6953;0,0201246
2327,6597;0,0200141
2328,6238;0,0199465
2329,5881;0,0199165
2330,5522;0,0199029
2331,5166;0,019878
2332,4807;0,0198218
2333,4451;0,0197305
2334,4092;0,0196146
2335,3735;0,0194912
2336,3376;0,0193772
2337,3020;0,0192865
2338,2661;0,0192268
2339,2305;0,0191941
2340,1946;0,0191693
2341,1589;0,0191252
2342,1230;0,0190482
2343,0874;0,0189607
2344,0515;0,0189163
2345,0159;0,018959
2345,9800;0,0190948
2346,9443;0,0193048
2347,9084;0,0195658
2348,8728;0,0198532
2349,8369;0,0201356
2350,8013;0,0203731
2351,7654;0,0205297
2352,7297;0,0205981
2353,6938;0,0206186
2354,6582;0,0206577
2355,6223;0,0207496
2356,5867;0,0208583
2357,5508;0,020896
2358,5151;0,020776
2359,4792;0,0204631
2360,4436;0,0199966
2361,4077;0,0194739
2362,3721;0,0190098
2363,3362;0,0186968
2364,3005;0,0185784
2365,2646;0,0186416
2366,2290;0,0188309
2367,1931;0,0190752
2368,1575;0,0193128
2369,1216;0,0195032
2370,0859;0,0196293
2371,0500;0,0196935
2372,0144;0,0197107
2372,9785;0,0197006
2373,9429;0,0196812
2374,9070;0,0196637
2375,8713;0,0196528
2376,8354;0,0196483
2377,7998;0,0196483
2378,7639;0,019651
2379,7283;0,0196553
2380,6924;0,0196613
2381,6567;0,01967
2382,6208;0,0196832
2383,5852;0,0197025
2384,5493;0,0197281
2385,5137;0,0197575
2386,4778;0,0197863
2387,4421;0,0198096
2388,4063;0,0198248
2389,3706;0,0198331
2390,3347;0,0198382
2391,2991;0,0198449
2392,2632;0,0198559
2393,2275;0,0198708
2394,1917;0,0198865
2395,1560;0,0198993
2396,1201;0,019906
2397,0845;0,0199057
2398,0486;0,0199001
2399,0129;0,0198936
2399,9771;0,0198932
2400,9414;0,0199058
2401,9055;0,0199358
2402,8699;0,0199829
2403,8340;0,0200415
2404,7983;0,0201025
2405,7625;0,0201559
2406,7268;0,0201938
2407,6909;0,0202119
2408,6553;0,0202108
2409,6194;0,0201959
2410,5837;0,0201777
2411,5479;0,0201696
2412,5122;0,0201833
2413,4763;0,0202234
2414,4407;0,0202838
2415,4048;0,0203494
2416,3691;0,0204026
2417,3333;0,0204317
2418,2976;0,0204361
2419,2617;0,0204253
2420,2261;0,0204128
2421,1902;0,0204093
2422,1545;0,020419
2423,1187;0,0204398
2424,0830;0,0204673
2425,0471;0,0204972
2426,0115;0,0205268
2426,9756;0,0205553
2427,9399;0,020583
2428,9041;0,0206114
2429,8684;0,0206424
2430,8325;0,0206768
2431,7969;0,0207132
2432,7610;0,0207469
2433,7253;0,0207715
2434,6895;0,020782
2435,6538;0,0207774
2436,6179;0,0207616
2437,5823;0,0207427
2438,5464;0,0207307
2439,5107;0,0207346
2440,4749;0,0207591
2441,4392;0,0208022
2442,4033;0,0208548
2443,3677;0,0209035
2444,3318;0,0209361
2445,2961;0,0209482
2446,2603;0,020945
2447,2246;0,0209385
2448,1887;0,0209401
2449,1531;0,0209544
2450,1172;0,0209779
2451,0815;0,021004
2452,0457;0,0210287
2453,0100;0,0210526
2453,9741;0,0210786
2454,9385;0,0211069
2455,9026;0,0211325
2456,8669;0,0211484
2457,8311;0,021151
2458,7954;0,0211433
2459,7595;0,0211334
2460,7239;0,0211292
2461,6880;0,0211335
2462,6523;0,0211432
2463,6165;0,0211533
2464,5808;0,0211619
2465,5449;0,0211713
2466,5093;0,0211869
2467,4734;0,0212119
2468,4377;0,021245
2469,4019;0,0212805
2470,3662;0,021311
2471,3303;0,0213311
2472,2947;0,0213392
2473,2588;0,0213378
2474,2231;0,0213323
2475,1873;0,0213292
2476,1516;0,0213335
2477,1157;0,0213476
2478,0801;0,0213699
2479,0442;0,0213957
2480,0085;0,0214191
2480,9727;0,021435
2481,9370;0,0214409
2482,9011;0,0214372
2483,8655;0,0214269
2484,8296;0,0214154
2485,7939;0,021409
2486,7581;0,0214144
2487,7224;0,0214353
2488,6865;0,0214707
2489,6509;0,0215136
2490,6150;0,0215528
2491,5793;0,0215779
2492,5435;0,0215841
2493,5078;0,0215758
2494,4719;0,0215649
2495,4363;0,0215649
2496,4004;0,0215842
2497,3647;0,0216216
2498,3289;0,021667
2499,2932;0,0217072
2500,2573;0,021733
2501,2217;0,0217446
2502,1858;0,0217495
2503,1501;0,0217578
2504,1143;0,0217748
2505,0786;0,021798
2506,0427;0,0218197
2507,0071;0,0218327
2507,9712;0,0218358
2508,9355;0,0218339
2509,8997;0,0218336
2510,8640;0,0218378
2511,8281;0,0218434
2512,7925;0,0218444
2513,7566;0,0218373
2514,7209;0,0218253
2515,6851;0,0218158
2516,6494;0,0218156
2517,6135;0,0218258
2518,5779;0,0218421
2519,5420;0,0218596
2520,5063;0,0218771
2521,4705;0,0218983
2522,4348;0,0219267
2523,3989;0,0219609
2524,3633;0,0219933
2525,3274;0,0220145
2526,2917;0,0220199
2527,2559;0,0220145
2528,2202;0,0220092
2529,1843;0,0220147
2530,1487;0,0220337
2531,1128;0,0220598
2532,0771;0,0220808
2533,0413;0,0220854
2534,0056;0,0220686
2534,9697;0,0220338
2535,9341;0,0219909
2536,8982;0,0219523
2537,8625;0,0219286
2538,8267;0,0219248
2539,7910;0,021939
2540,7551;0,0219646
2541,7195;0,0219937
2542,6836;0,0220217
2543,6479;0,0220476
2544,6121;0,0220727
2545,5764;0,0220967
2546,5405;0,0221165
2547,5049;0,0221281
2548,4690;0,0221304
2549,4333;0,022128
2550,3975;0,0221299
2551,3618;0,0221441
2552,3259;0,0221727
2553,2903;0,022209
2554,2544;0,0222405
2555,2188;0,0222542
2556,1829;0,0222433
2557,1472;0,0222112
2558,1113;0,0221708
2559,0757;0,0221394
2560,0398;0,0221308
2561,0042;0,0221486
2561,9683;0,0221839
2562,9326;0,0222192
2563,8967;0,0222378
2564,8611;0,0222322
2565,8252;0,0222071
2566,7896;0,022176
2567,7537;0,0221532
2568,7180;0,0221473
2569,6821;0,0221584
2570,6465;0,0221801
2571,6106;0,0222035
2572,5750;0,0222203
2573,5391;0,0222256
2574,5034;0,0222188
2575,4675;0,0222038
2576,4319;0,0221888
2577,3960;0,0221826
2578,3604;0,0221912
2579,3245;0,022214
2580,2888;0,0222444
2581,2529;0,0222735
2582,2173;0,0222947
2583,1814;0,0223074
2584,1458;0,0223155
2585,1099;0,0223248
2586,0742;0,0223383
2587,0383;0,0223554
2588,0027;0,0223719
2588,9668;0,0223838
2589,9312;0,0223893
2590,8953;0,0223901
2591,8596;0,0223907
2592,8237;0,0223957
2593,7881;0,022407
2594,7522;0,0224227
2595,7166;0,0224376
2596,6807;0,0224467
2597,6450;0,022448
2598,6091;0,0224448
2599,5735;0,0224433
2600,5376;0,0224499
2601,5020;0,0224671
2602,4661;0,0224933
2603,4304;0,022524
2604,3945;0,0225554
2605,3589;0,022586
2606,3230;0,0226158
2607,2874;0,0226447
2608,2515;0,0226708
2609,2158;0,0226908
2610,1799;0,0227022
2611,1443;0,0227048
2612,1084;0,0227005
2613,0728;0,0226925
2614,0369;0,0226842
2615,0012;0,0226795
2615,9653;0,0226833
2616,9297;0,0227017
2617,8938;0,0227388
2618,8582;0,0227931
2619,8223;0,0228554
2620,7866;0,0229109
2621,7507;0,0229453
2622,7151;0,0229521
2623,6792;0,0229363
2624,6436;0,0229122
2625,6077;0,0228964
2626,5720;0,0229001
2627,5361;0,0229252
2628,5005;0,0229651
2629,4646;0,0230089
2630,4290;0,0230471
2631,3931;0,0230747
2632,3574;0,023092
2633,3215;0,0231023
2634,2859;0,02311
2635,2500;0,0231179
2636,2144;0,0231275
2637,1785;0,0231396
2638,1428;0,0231551
2639,1069;0,0231752
2640,0713;0,0232006
2641,0354;0,0232302
2641,9998;0,0232602
2642,9639;0,0232864
2643,9282;0,0233062
2644,8923;0,0233209
2645,8567;0,0233352
2646,8208;0,0233548
2647,7852;0,0233827
2648,7493;0,0234168
2649,7136;0,0234507
2650,6777;0,0234772
2651,6421;0,0234916
2652,6062;0,0234944
2653,5706;0,0234909
2654,5347;0,0234889
2655,4990;0,0234954
2656,4631;0,0235143
2657,4275;0,0235452
2658,3916;0,0235839
2659,3560;0,0236245
2660,3201;0,0236613
2661,2844;0,0236901
2662,2485;0,0237098
2663,2129;0,0237219
2664,1770;0,02373
2665,1414;0,0237387
2666,1055;0,0237524
2667,0698;0,0237731
2668,0339;0,0238003
2668,9983;0,0238306
2669,9624;0,0238601
2670,9268;0,0238859
2671,8909;0,0239073
2672,8552;0,0239264
2673,8193;0,0239453
2674,7837;0,0239652
2675,7478;0,0239855
2676,7122;0,0240047
2677,6763;0,0240216
2678,6406;0,0240368
2679,6047;0,0240517
2680,5691;0,0240678
2681,5332;0,0240854
2682,4976;0,024104
2683,4617;0,0241226
2684,4260;0,0241411
2685,3901;0,02416
2686,3545;0,0241802
2687,3186;0,0242024
2688,2830;0,024227
2689,2471;0,024254
2690,2114;0,0242835
2691,1755;0,0243156
2692,1399;0,0243503
2693,1040;0,0243868
2694,0684;0,0244242
2695,0325;0,0244616
2695,9968;0,0244979
2696,9609;0,0245326
2697,9253;0,0245646
2698,8894;0,0245927
2699,8538;0,0246156
2700,8179;0,0246327
2701,7822;0,0246449
2702,7463;0,0246555
2703,7107;0,0246691
2704,6748;0,0246905
2705,6392;0,0247221
2706,6033;0,024763
2707,5676;0,0248082
2708,5317;0,0248514
2709,4961;0,0248875
2710,4602;0,0249153
2711,4246;0,0249382
2712,3887;0,024962
2713,3530;0,0249922
2714,3171;0,0250306
2715,2815;0,0250747
2716,2456;0,025119
2717,2100;0,0251579
2718,1741;0,0251881
2719,1384;0,0252094
2720,1025;0,0252236
2721,0669;0,0252332
2722,0310;0,0252405
2722,9954;0,0252481
2723,9595;0,0252595
2724,9238;0,025279
2725,8879;0,0253103
2726,8523;0,0253536
2727,8164;0,0254053
2728,7808;0,0254586
2729,7449;0,025506
2730,7092;0,0255422
2731,6733;0,0255655
2732,6377;0,0255774
2733,6018;0,0255816
2734,5662;0,0255823
2735,5303;0,025584
2736,4946;0,0255905
2737,4587;0,0256046
2738,4231;0,0256266
2739,3872;0,0256547
2740,3516;0,0256852
2741,3157;0,0257141
2742,2800;0,0257391
2743,2441;0,0257592
2744,2085;0,0257751
2745,1726;0,0257876
2746,1370;0,0257982
2747,1011;0,0258087
2748,0654;0,0258218
2749,0295;0,02584
2749,9939;0,025865
2750,9580;0,0258959
2751,9224;0,0259303
2752,8865;0,0259654
2753,8508;0,0259996
2754,8149;0,0260333
2755,7793;0,0260679
2756,7434;0,0261044
2757,7078;0,0261425
2758,6719;0,0261806
2759,6362;0,0262166
2760,6003;0,0262486
2761,5647;0,0262755
2762,5288;0,0262973
2763,4932;0,0263152
2764,4573;0,0263323
2765,4216;0,0263529
2766,3857;0,0263814
2767,3501;0,0264198
2768,3142;0,0264665
2769,2786;0,0265168
2770,2427;0,0265652
2771,2070;0,0266073
2772,1711;0,0266425
2773,1355;0,0266729
2774,0996;0,026702
2775,0640;0,0267335
2776,0281;0,0267697
2776,9924;0,0268118
2777,9565;0,0268591
2778,9209;0,0269094
2779,8850;0,0269588
2780,8494;0,0270032
2781,8135;0,0270401
2782,7778;0,0270701
2783,7419;0,0270971
2784,7063;0,0271265
2785,6704;0,0271627
2786,6348;0,0272075
2787,5989;0,0272601
2788,5632;0,0273189
2789,5273;0,0273828
2790,4917;0,0274513
2791,4558;0,0275243
2792,4202;0,0276001
2793,3843;0,0276756
2794,3486;0,0277469
2795,3127;0,0278106
2796,2771;0,027866
2797,2412;0,0279152
2798,2056;0,0279631
2799,1697;0,028016
2800,1340;0,0280788
2801,0981;0,0281539
2802,0625;0,0282397
2803,0266;0,0283318
2803,9910;0,0284245
2804,9551;0,0285131
2805,9194;0,0285963
2806,8835;0,0286757
2807,8479;0,0287553
2808,8120;0,0288392
2809,7764;0,0289296
2810,7405;0,0290265
2811,7048;0,0291277
2812,6689;0,0292304
2813,6333;0,0293329
2814,5974;0,0294351
2815,5618;0,0295386
2816,5259;0,0296451
2817,4902;0,0297561
2818,4543;0,0298715
2819,4187;0,0299907
2820,3828;0,0301131
2821,3472;0,0302391
2822,3113;0,0303702
2823,2756;0,030509
2824,2397;0,0306573
2825,2041;0,0308159
2826,1682;0,0309835
2827,1326;0,0311573
2828,0967;0,0313345
2829,0610;0,0315134
2830,0251;0,0316948
2830,9895;0,031882
2831,9536;0,0320791
2832,9180;0,0322893
2833,8821;0,0325135
2834,8464;0,0327509
2835,8105;0,0330012
2836,7749;0,0332661
2837,7390;0,03355
2838,7034;0,0338593
2839,6675;0,0342009
2840,6318;0,0345814
2841,5959;0,0350064
2842,5603;0,03548
2843,5244;0,036001
2844,4888;0,0365589
2845,4529;0,0371303
2846,4172;0,0376797
2847,3813;0,0381659
2848,3457;0,0385518
2849,3098;0,0388144
2850,2742;0,0389495
2851,2383;0,0389706
2852,2026;0,0389032
2853,1667;0,0387765
2854,1311;0,0386174
2855,0952;0,0384467
2856,0596;0,0382791
2857,0237;0,0381243
2857,9880;0,0379896
2858,9521;0,0378814
2859,9165;0,0378053
2860,8806;0,0377648
2861,8450;0,0377597
2862,8091;0,0377858
2863,7734;0,0378364
2864,7375;0,0379055
2865,7019;0,0379891
2866,6660;0,0380851
2867,6304;0,0381904
2868,5945;0,0382985
2869,5588;0,0383995
2870,5229;0,0384834
2871,4873;0,0385441
2872,4514;0,0385827
2873,4158;0,0386071
2874,3799;0,038628
2875,3442;0,0386544
2876,3083;0,0386907
2877,2727;0,0387375
2878,2368;0,0387937
2879,2012;0,0388587
2880,1653;0,0389325
2881,1296;0,039015
2882,0938;0,0391048
2883,0581;0,0391991
2884,0222;0,0392952
2884,9866;0,0393921
2885,9507;0,0394907
2886,9150;0,0395936
2887,8792;0,0397028
2888,8435;0,039819
2889,8076;0,0399407
2890,7720;0,040065
2891,7361;0,0401882
2892,7004;0,0403066
2893,6646;0,0404179
2894,6289;0,0405221
2895,5930;0,0406224
2896,5574;0,0407246
2897,5215;0,0408341
2898,4858;0,0409535
2899,4500;0,0410803
2900,4143;0,0412079
2901,3784;0,0413294
2902,3428;0,0414413
2903,3069;0,041547
2904,2712;0,0416558
2905,2354;0,0417801
2906,1997;0,0419321
2907,1638;0,0421212
2908,1282;0,0423537
2909,0923;0,0426333
2910,0566;0,0429607
2911,0208;0,0433319
2911,9851;0,0437352
2912,9492;0,0441496
2913,9136;0,0445458
2914,8777;0,0448903
2915,8420;0,045153
2916,8062;0,0453139
2917,7705;0,0453684
2918,7346;0,045327
2919,6990;0,0452106
2920,6631;0,0450423
2921,6274;0,0448402
2922,5916;0,0446132
2923,5559;0,0443614
2924,5200;0,0440808
2925,4844;0,0437684
2926,4485;0,0434263
2927,4128;0,0430633
2928,3770;0,0426923
2929,3413;0,0423268
2930,3054;0,0419767
2931,2698;0,0416456
2932,2339;0,0413302
2933,1982;0,0410237
2934,1624;0,0407193
2935,1267;0,040414
2936,0908;0,0401104
2937,0552;0,0398137
2938,0193;0,0395285
2938,9836;0,0392549
2939,9478;0,0389883
2940,9121;0,0387218
2941,8762;0,0384503
2942,8406;0,0381732
2943,8047;0,0378951
2944,7690;0,0376243
2945,7332;0,03737
2946,6975;0,0371398
2947,6616;0,0369388
2948,6260;0,0367676
2949,5901;0,0366223
2950,5544;0,0364939
2951,5186;0,0363708
2952,4829;0,0362415
2953,4470;0,0360988
2954,4114;0,0359415
2955,3755;0,035774
2956,3398;0,0356028
2957,3040;0,0354321
2958,2683;0,0352624
2959,2324;0,0350905
2960,1968;0,0349137
2961,1609;0,0347316
2962,1252;0,0345473
2963,0894;0,0343651
2964,0537;0,0341875
2965,0178;0,0340134
2965,9822;0,0338397
2966,9463;0,0336635
2967,9106;0,0334844
2968,8748;0,0333045
2969,8391;0,0331263
2970,8032;0,0329507
2971,7676;0,0327769
2972,7317;0,0326045
2973,6960;0,0324351
2974,6602;0,0322729
2975,6245;0,0321228
2976,5886;0,0319875
2977,5530;0,0318666
2978,5171;0,0317572
2979,4814;0,0316571
2980,4456;0,0315655
2981,4099;0,031483
2982,3740;0,0314092
2983,3384;0,0313419
2984,3025;0,0312779
2985,2668;0,0312153
2986,2310;0,0311553
2987,1953;0,0311013
2988,1594;0,0310561
2989,1238;0,03102
2990,0879;0,0309908
2991,0522;0,0309661
2992,0164;0,0309447
2992,9807;0,0309274
2993,9448;0,0309155
2994,9092;0,03091
2995,8733;0,0309113
2996,8376;0,0309204
2997,8018;0,0309395
2998,7661;0,0309703
2999,7302;0,0310121
3000,6946;0,0310604
3001,6587;0,031109
3002,6230;0,0311535
3003,5872;0,0311941
3004,5515;0,0312346
3005,5156;0,0312783
3006,4800;0,0313236
3007,4441;0,0313632
3008,4084;0,031389
3009,3726;0,0313974
3010,3369;0,0313939
3011,3010;0,0313908
3012,2654;0,0314007
3013,2295;0,0314297
3014,1938;0,0314753
3015,1580;0,0315299
3016,1223;0,0315869
3017,0864;0,0316447
3018,0508;0,0317055
3019,0149;0,0317711
3019,9792;0,0318393
3020,9434;0,0319049
3021,9077;0,031964
3022,8718;0,0320185
3023,8362;0,0320762
3024,8003;0,0321454
3025,7646;0,0322286
3026,7288;0,0323192
3027,6931;0,0324045
3028,6572;0,0324726
3029,6216;0,03252
3030,5857;0,0325534
3031,5500;0,0325862
3032,5142;0,0326325
3033,4785;0,0327008
3034,4426;0,0327923
3035,4070;0,032902
3036,3711;0,0330207
3037,3354;0,0331378
3038,2996;0,0332436
3039,2639;0,0333322
3040,2280;0,0334041
3041,1924;0,0334672
3042,1565;0,0335339
3043,1208;0,0336147
3044,0850;0,0337129
3045,0493;0,0338232
3046,0134;0,0339351
3046,9778;0,0340399
3047,9419;0,0341359
3048,9063;0,034229
3049,8704;0,0343267
3050,8347;0,034433
3051,7988;0,0345445
3052,7632;0,0346528
3053,7273;0,0347509
3054,6917;0,0348379
3055,6558;0,0349204
3056,6201;0,0350078
3057,5842;0,0351073
3058,5486;0,0352191
3059,5127;0,0353373
3060,4771;0,0354531
3061,4412;0,0355595
3062,4055;0,035653
3063,3696;0,0357345
3064,3340;0,0358078
3065,2981;0,0358782
3066,2625;0,0359511
3067,2266;0,0360308
3068,1909;0,036119
3069,1550;0,0362155
3070,1194;0,0363181
3071,0835;0,036425
3072,0479;0,0365349
3073,0120;0,0366465
3073,9763;0,0367576
3074,9404;0,0368637
3075,9048;0,0369596
3076,8689;0,0370423
3077,8333;0,0371132
3078,7974;0,0371787
3079,7617;0,0372476
3080,7258;0,0373271
3081,6902;0,03742
3082,6543;0,0375243
3083,6187;0,0376354
3084,5828;0,0377478
3085,5471;0,0378578
3086,5112;0,0379635
3087,4756;0,0380649
3088,4397;0,0381634
3089,4041;0,0382605
3090,3682;0,0383571
3091,3325;0,0384532
3092,2966;0,0385487
3093,2610;0,0386445
3094,2251;0,0387428
3095,1895;0,0388459
3096,1536;0,0389536
3097,1179;0,0390621
3098,0820;0,0391653
3099,0464;0,0392591
3100,0105;0,0393454
3100,9749;0,0394327
3101,9390;0,0395315
3102,9033;0,0396474
3103,8674;0,0397774
3104,8318;0,0399111
3105,7959;0,0400372
3106,7603;0,0401502
3107,7244;0,0402527
3108,6887;0,0403533
3109,6528;0,04046
3110,6172;0,040576
3111,5813;0,0406986
3112,5457;0,0408225
3113,5098;0,0409439
3114,4741;0,0410616
3115,4382;0,0411763
3116,4026;0,0412883
3117,3667;0,0413974
3118,3311;0,0415036
3119,2952;0,0416091
3120,2595;0,0417186
3121,2236;0,0418372
3122,1880;0,0419678
3123,1521;0,0421094
3124,1165;0,0422576
3125,0806;0,0424069
3126,0449;0,0425525
3127,0090;0,0426911
3127,9734;0,0428208
3128,9375;0,0429411
3129,9019;0,0430534
3130,8660;0,0431616
3131,8303;0,0432717
3132,7944;0,0433898
3133,7588;0,0435192
3134,7229;0,0436587
3135,6873;0,0438035
3136,6514;0,0439475
3137,6157;0,0440868
3138,5798;0,0442204
3139,5442;0,0443503
3140,5083;0,0444799
3141,4727;0,0446124
3142,4368;0,0447506
3143,4011;0,0448959
3144,3652;0,0450487
3145,3296;0,0452076
3146,2937;0,0453694
3147,2581;0,0455293
3148,2222;0,0456822
3149,1865;0,0458247
3150,1506;0,0459568
3151,1150;0,0460819
3152,0791;0,0462061
3153,0435;0,0463357
3154,0076;0,0464745
3154,9719;0,0466224
3155,9360;0,0467753
3156,9004;0,0469287
3157,8645;0,0470798
3158,8289;0,0472296
3159,7930;0,0473815
3160,7573;0,0475386
3161,7214;0,0477015
3162,6858;0,0478679
3163,6499;0,0480344
3164,6143;0,0481987
3165,5784;0,0483599
3166,5427;0,0485173
3167,5068;0,04867
3168,4712;0,0488174
3169,4353;0,0489804
3170,3997;0,0491239
3171,3638;0,0492725
3172,3281;0,0494287
3173,2922;0,0495893
3174,2566;0,0497473
3175,2207;0,0498967
3176,1851;0,0500377
3177,1492;0,0501774
3178,1135;0,0503247
3179,0776;0,0504827
3180,0420;0,0506451
3181,0061;0,0507999
3181,9705;0,050938
3182,9346;0,0510599
3183,8989;0,0511762
3184,8630;0,0513003
3185,8274;0,0514403
3186,7915;0,0515939
3187,7559;0,0517514
3188,7200;0,0519031
3189,6843;0,0520451
3190,6484;0,0521803
3191,6128;0,0523148
3192,5769;0,052453
3193,5413;0,0525952
3194,5054;0,0527392
3195,4697;0,0528827
3196,4338;0,0530251
3197,3982;0,053167
3198,3623;0,0533096
3199,3267;0,0534537
3200,2908;0,0536003
3201,2551;0,053751
3202,2192;0,0539073
3203,1836;0,0540689
3204,1477;0,0542331
3205,1121;0,0543944
3206,0762;0,0545476
3207,0405;0,0546901
3208,0046;0,0548232
3208,9690;0,0549506
3209,9331;0,055076
3210,8975;0,0552021
3211,8616;0,0553299
3212,8259;0,0554608
3213,7900;0,0555974
3214,7544;0,055742
3215,7185;0,0558942
3216,6829;0,0560495
3217,6470;0,0562006
3218,6113;0,0563406
3219,5754;0,0564678
3220,5398;0,0565868
3221,5039;0,0567064
3222,4683;0,0568351
3223,4324;0,0569762
3224,3967;0,0571272
3225,3608;0,0572817
3226,3252;0,0574324
3227,2893;0,0575743
3228,2537;0,057706
3229,2178;0,0578293
3230,1821;0,0579487
3231,1462;0,0580693
3232,1106;0,0581961
3233,0747;0,058332
3234,0391;0,0584771
3235,0032;0,0586288
3235,9675;0,0587833
3236,9316;0,0589377
3237,8960;0,0590901
3238,8601;0,0592395
3239,8245;0,059385
3240,7886;0,0595247
3241,7529;0,0596575
3242,7170;0,0597844
3243,6814;0,0599097
3244,6455;0,0600394
3245,6099;0,060179
3246,5740;0,0603299
3247,5383;0,0604885
3248,5024;0,0606489
3249,4668;0,0608056
3250,4309;0,0609561
3251,3953;0,0611013
3252,3594;0,0612435
3253,3237;0,0613841
3254,2878;0,061523
3255,2522;0,0616594
3256,2163;0,0617943
3257,1807;0,0619313
3258,1448;0,0620751
3259,1091;0,0622292
3260,0732;0,0623941
3261,0376;0,0625661
3262,0017;0,0627399
3262,9661;0,0629103
3263,9302;0,0630742
3264,8945;0,06323
3265,8586;0,0633778
3266,8230;0,0635182
3267,7871;0,0636516
3268,7515;0,0637783
3269,7156;0,0638982
3270,6799;0,0640108
3271,6440;0,064116
3272,6084;0,0642145
3273,5725;0,064307
3274,5369;0,0643927
3275,5010;0,0644686
3276,4653;0,0645306
3277,4294;0,0645771
3278,3938;0,0646126
3279,3579;0,0646484
3280,3223;0,064698
3281,2864;0,0647699
3282,2507;0,0648617
3283,2148;0,0649602
3284,1792;0,0650481
3285,1433;0,0651123
3286,1077;0,0651503
3287,0718;0,065169
3288,0361;0,0651794
3289,0002;0,0651904
3289,9646;0,0652049
3290,9287;0,0652209
3291,8931;0,0652344
3292,8572;0,065242
3293,8215;0,0652431
3294,7856;0,0652394
3295,7500;0,0652346
3296,7141;0,0652328
3297,6785;0,0652364
3298,6426;0,0652459
3299,6069;0,0652592
3300,5710;0,0652736
3301,5354;0,065287
3302,4995;0,0652982
3303,4639;0,0653067
3304,4280;0,0653115
3305,3923;0,0653106
3306,3564;0,065302
3307,3208;0,0652858
3308,2849;0,0652645
3309,2493;0,0652427
3310,2134;0,0652257
3311,1777;0,0652181
3312,1418;0,0652229
3313,1062;0,0652412
3314,0703;0,0652728
3315,0347;0,065316
3315,9988;0,0653691
3316,9631;0,0654315
3317,9272;0,065503
3318,8916;0,0655833
3319,8557;0,0656687
3320,8201;0,0657521
3321,7842;0,0658241
3322,7485;0,0658785
3323,7126;0,0659158
3324,6770;0,065944
3325,6411;0,0659748
3326,6055;0,0660173
3327,5696;0,0660739
3328,5339;0,0661398
3329,4980;0,066207
3330,4624;0,0662682
3331,4265;0,0663185
3332,3909;0,0663554
3333,3550;0,0663775
3334,3193;0,0663843
3335,2834;0,0663768
3336,2478;0,0663579
3337,2119;0,0663304
3338,1763;0,0662955
3339,1404;0,066251
3340,1047;0,0661933
3341,0688;0,0661195
3342,0332;0,0660304
3342,9973;0,0659303
3343,9617;0,0658244
3344,9258;0,0657159
3345,8901;0,0656051
3346,8542;0,0654903
3347,8186;0,0653699
3348,7827;0,0652433
3349,7471;0,0651104
3350,7112;0,0649702
3351,6755;0,0648216
3352,6396;0,0646647
3353,6040;0,064504
3354,5681;0,0643476
3355,5325;0,0642042
3356,4966;0,0640778
3357,4609;0,0639643
3358,4250;0,063853
3359,3894;0,0637324
3360,3535;0,0635957
3361,3179;0,0634445
3362,2820;0,0632875
3363,2463;0,0631354
3364,2104;0,0629951
3365,1748;0,0628669
3366,1389;0,0627446
3367,1033;0,062619
3368,0674;0,0624822
3369,0317;0,0623315
3369,9958;0,0621703
3370,9602;0,0620068
3371,9243;0,06185
3372,8887;0,0617052
3373,8528;0,0615718
3374,8171;0,0614445
3375,7813;0,0613172
3376,7456;0,0611879
3377,7097;0,0610599
3378,6741;0,0609383
3379,6382;0,0608242
3380,6025;0,060711
3381,5667;0,0605867
3382,5310;0,0604413
3383,4951;0,0602755
3384,4595;0,0601035
3385,4236;0,0599463
3386,3879;0,0598196
3387,3521;0,0597235
3388,3164;0,0596423
3389,2805;0,0595529
3390,2449;0,0594384
3391,2090;0,0592968
3392,1733;0,05914
3393,1375;0,058984
3394,1018;0,0588388
3395,0659;0,0587029
3396,0303;0,0585678
3396,9944;0,0584254
3397,9587;0,0582741
3398,9229;0,0581177
3399,8872;0,0579619
3400,8513;0,0578099
3401,8157;0,0576615
3402,7798;0,0575154
3403,7441;0,0573714
3404,7083;0,0572307
3405,6726;0,0570937
3406,6367;0,0569579
3407,6011;0,0568167
3408,5652;0,0566614
3409,5295;0,056485
3410,4937;0,0562866
3411,4580;0,0560739
3412,4221;0,0558627
3413,3865;0,0556693
3414,3506;0,0555029
3415,3149;0,0553583
3416,2791;0,0552172
3417,2434;0,0550571
3418,2075;0,0548643
3419,1719;0,0546428
3420,1360;0,0544122
3421,1003;0,0541972
3422,0645;0,0540118
3423,0288;0,053853
3423,9929;0,053705
3424,9573;0,0535505
3425,9214;0,0533802
3426,8857;0,0531962
3427,8499;0,0530078
3428,8142;0,0528247
3429,7783;0,0526501
3430,7427;0,0524791
3431,7068;0,0523014
3432,6711;0,0521078
3433,6353;0,0518956
3434,5996;0,0516706
3435,5637;0,0514441
3436,5281;0,0512268
3437,4922;0,0510238
3438,4565;0,0508348
3439,4207;0,0506566
3440,3850;0,0504866
3441,3491;0,0503208
3442,3135;0,0501506
3443,2776;0,0499602
3444,2419;0,0497323
3445,2061;0,0494599
3446,1704;0,0491577
3447,1345;0,0488609
3448,0989;0,0486076
3449,0630;0,0484167
3450,0273;0,0482781
3450,9915;0,0481601
3451,9558;0,0480286
3452,9199;0,0478641
3453,8843;0,0476678
3454,8484;0,0474561
3455,8127;0,0472469
3456,7769;0,0470479
3457,7412;0,0468541
3458,7053;0,0466539
3459,6697;0,0464387
3460,6338;0,046209
3461,5981;0,0459741
3462,5623;0,0457461
3463,5266;0,0455325
3464,4907;0,0453321
3465,4551;0,0451368
3466,4192;0,0449372
3467,3835;0,0447294
3468,3477;0,0445162
3469,3120;0,0443037
3470,2761;0,0440955
3471,2405;0,0438896
3472,2046;0,0436817
3473,1689;0,0434716
3474,1331;0,0432661
3475,0974;0,0430752
3476,0615;0,0429023
3477,0259;0,0427375
3477,9900;0,0425611
3478,9543;0,0423562
3479,9185;0,0421215
3480,8828;0,0418756
3481,8469;0,0416464
3482,8113;0,0414516
3483,7754;0,0412864
3484,7397;0,0411281
3485,7039;0,040952
3486,6682;0,0407473
3487,6323;0,0405231
3488,5967;0,0403013
3489,5608;0,040101
3490,5251;0,0399265
3491,4893;0,0397659
3492,4536;0,0396005
3493,4177;0,039418
3494,3821;0,0392223
3495,3462;0,0390323
3496,3105;0,0388694
3497,2747;0,0387393
3498,2390;0,0386225
3499,2031;0,0384805
3500,1675;0,0382769
3501,1316;0,0380021
3502,0959;0,0376895
3503,0601;0,0374014
3504,0244;0,0371902
3504,9885;0,037062
3505,9529;0,0369757
3506,9170;0,03687
3507,8813;0,0366993
3508,8455;0,036457
3509,8098;0,0361765
3510,7739;0,0359066
3511,7383;0,0356794
3512,7024;0,0354968
3513,6667;0,0353409
3514,6309;0,035195
3515,5952;0,0350557
3516,5593;0,0349304
3517,5237;0,0348252
3518,4878;0,0347336
3519,4521;0,0346365
3520,4163;0,0345127
3521,3806;0,0343507
3522,3447;0,0341534
3523,3091;0,0339318
3524,2732;0,0336934
3525,2375;0,0334381
3526,2017;0,0331645
3527,1660;0,0328827
3528,1301;0,0326191
3529,0945;0,0324053
3530,0586;0,0322577
3531,0229;0,0321657
3531,9871;0,032095
3532,9514;0,0320038
3533,9155;0,0318612
3534,8799;0,0316603
3535,8440;0,0314227
3536,8083;0,03119
3537,7725;0,031005
3538,7368;0,0308921
3539,7009;0,0308471
3540,6653;0,0308366
3541,6294;0,0308055
3542,5938;0,0306943
3543,5579;0,0304665
3544,5222;0,0301375
3545,4863;0,029778
3546,4507;0,0294728
3547,4148;0,0292646
3548,3792;0,0291319
3549,3433;0,029013
3550,3076;0,028847
3551,2717;0,0286109
3552,2361;0,0283352
3553,2002;0,028084
3554,1646;0,0279106
3555,1287;0,0278226
3556,0930;0,0277827
3557,0571;0,0277386
3558,0215;0,0276579
3558,9856;0,0275502
3559,9500;0,0274617
3560,9141;0,0274401
3561,8784;0,0274916
3562,8425;0,0275568
3563,8069;0,0275188
3564,7710;0,0272499
3565,7354;0,0267057
3566,6995;0,0260114
3567,6638;0,0254049
3568,6279;0,0250492
3569,5923;0,0249393
3570,5564;0,0249695
3571,5208;0,0250247
3572,4849;0,0250264
3573,4492;0,0249465
3574,4133;0,0248036
3575,3777;0,024638
3576,3418;0,0244784
3577,3062;0,0243277
3578,2703;0,0241782
3579,2346;0,0240386
3580,1987;0,0239442
3581,1631;0,0239342
3582,1272;0,0240141
3583,0916;0,0241296
3584,0557;0,0241689
3585,0200;0,024003
3585,9841;0,0235738
3586,9485;0,0229849
3587,9126;0,0224639
3588,8770;0,0221794
3589,8411;0,0221301
3590,8054;0,0221993
3591,7695;0,0222523
3592,7339;0,022197
3593,6980;0,0220164
3594,6624;0,0217668
3595,6265;0,0215272
3596,5908;0,0213323
3597,5549;0,0211556
3598,5193;0,020955
3599,4834;0,0207293
3600,4478;0,0205364
3601,4119;0,0204518
3602,3762;0,020507
3603,3403;0,0206618
3604,3047;0,020825
3605,2688;0,0208973
3606,2332;0,0208171
3607,1973;0,0205945
3608,1616;0,0203053
3609,1257;0,020034
3610,0901;0,01982
3611,0542;0,0196579
3612,0186;0,019535
3612,9827;0,0194555
3613,9470;0,0194283
3614,9111;0,0194352
3615,8755;0,0194122
3616,8396;0,0192674
3617,8040;0,0189387
3618,7681;0,018468
3619,7324;0,0180145
3620,6965;0,0177585
3621,6609;0,0177861
3622,6250;0,0180703
3623,5894;0,0185156
3624,5535;0,0189837
3625,5178;0,0192905
3626,4819;0,0192247
3627,4463;0,0186665
3628,4104;0,0177768
3629,3748;0,016956
3630,3389;0,0164849
3631,3032;0,0163488
3632,2673;0,0163917
3633,2317;0,0164735
3634,1958;0,0165173
3635,1602;0,0165061
3636,1243;0,0164603
3637,0886;0,0164074
3638,0527;0,0163633
3639,0171;0,0163342
3639,9812;0,016334
3640,9456;0,0163955
3641,9097;0,0165594
3642,8740;0,0168477
3643,8381;0,0172349
3644,8025;0,0176241
3645,7666;0,0178289
3646,7310;0,0175975
3647,6951;0,0167827
3648,6594;0,0156376
3649,6235;0,0147397
3650,5879;0,0144044
3651,5520;0,0145038
3652,5164;0,0147725
3653,4805;0,0149987
3654,4448;0,0150536
3655,4089;0,0149073
3656,3733;0,0146433
3657,3374;0,0144049
3658,3018;0,0142872
3659,2659;0,0142862
3660,2302;0,0143427
3661,1943;0,0144125
3662,1587;0,0145035
3663,1228;0,0146616
3664,0872;0,0149198
3665,0513;0,0152503
3666,0156;0,0155526
3666,9797;0,0156885
3667,9441;0,0155681
3668,9082;0,0152605
3669,8726;0,0149885
3670,8367;0,0149311
3671,8010;0,0150541
3672,7651;0,0151494
3673,7295;0,0149798
3674,6936;0,0144506
3675,6580;0,0137398
3676,6221;0,013178
3677,5864;0,0129419
3678,5505;0,0129747
3679,5149;0,013142
3680,4790;0,013355
3681,4434;0,0135945
3682,4075;0,0138866
3683,3718;0,0142561
3684,3359;0,0146834
3685,3003;0,0150795
3686,2644;0,0152887
3687,2288;0,0151429
3688,1929;0,014594
3689,1572;0,0138401
3690,1213;0,0132187
3691,0857;0,0129214
3692,0498;0,0129135
3693,0142;0,0130714
3693,9783;0,0132955
3694,9426;0,0135346
3695,9067;0,0137668
3696,8711;0,0139731
3697,8352;0,0141184
3698,7996;0,0141536
3699,7637;0,0140435
3700,7280;0,0138117
3701,6921;0,0135587
3702,6565;0,0134161
3703,6206;0,0134667
3704,5850;0,0137062
3705,5491;0,0140626
3706,5134;0,0144261
3707,4775;0,0146627
3708,4419;0,0146353
3709,4060;0,0142712
3710,3704;0,0136689
3711,3345;0,0130975
3712,2988;0,0127942
3713,2629;0,0127994
3714,2273;0,0130146
3715,1914;0,0133203
3716,1558;0,0136242
3717,1199;0,0138655
3718,0842;0,0140148
3719,0483;0,0140763
3720,0127;0,0140789
3720,9768;0,01405
3721,9412;0,0139928
3722,9053;0,0138924
3723,8696;0,0137515
3724,8337;0,0136183
3725,7981;0,013573
3726,7622;0,0136781
3727,7266;0,0139428
3728,6907;0,0143247
3729,6550;0,0147496
3730,6191;0,0151234
3731,5835;0,0153354
3732,5476;0,0152718
3733,5120;0,0148727
3734,4761;0,0142279
3735,4404;0,0135919
3736,4045;0,0132229
3737,3689;0,0132229
3738,3330;0,0135475
3739,2974;0,0140837
3740,2615;0,0146856
3741,2258;0,0151737
3742,1899;0,0153635
3743,1543;0,0151784
3744,1184;0,0147869
3745,0828;0,0145148
3746,0469;0,014538
3747,0112;0,0147554
3747,9753;0,0149096
3748,9397;0,0147431
3749,9038;0,0141777
3750,8682;0,0134627
3751,8323;0,0129983
3752,7966;0,0129514
3753,7607;0,013202
3754,7251;0,0135428
3755,6892;0,0138002
3756,6536;0,013868
3757,6177;0,0137382
3758,5820;0,0135162
3759,5461;0,0133561
3760,5105;0,0133519
3761,4746;0,0134939
3762,4390;0,0137102
3763,4031;0,0139225
3764,3674;0,0140749
3765,3315;0,0141406
3766,2959;0,0141125
3767,2600;0,0139914
3768,2244;0,0137874
3769,1885;0,0135377
3770,1528;0,0133166
3771,1169;0,013211
3772,0813;0,013272
3773,0454;0,0134869
3774,0098;0,0137871
3774,9739;0,014073
3775,9382;0,0142432
3776,9023;0,0142327
3777,8667;0,0140553
3778,8308;0,0138096
3779,7952;0,0136146
3780,7593;0,013529
3781,7236;0,0135327
3782,6877;0,0135683
3783,6521;0,0135869
3784,6162;0,0135705
3785,5806;0,013531
3786,5447;0,0134965
3787,5090;0,0134969
3788,4731;0,0135558
3789,4375;0,0136839
3790,4016;0,013872
3791,3660;0,0140881
3792,3301;0,0142854
3793,2944;0,0144257
3794,2585;0,0145044
3795,2229;0,0145569
3796,1870;0,0146257
3797,1514;0,0147091
3798,1155;0,0147378
3799,0798;0,0146147
3800,0439;0,0143084
3801,0083;0,0139252
3801,9724;0,0136474
3802,9368;0,0135687
3803,9009;0,0136235
3804,8652;0,0136634
3805,8293;0,01358
3806,7937;0,0133947
3807,7578;0,0132552
3808,7222;0,0133146
3809,6863;0,0136105
3810,6506;0,0140612
3811,6147;0,0145274
3812,5791;0,0148671
3813,5432;0,0149875
3814,5076;0,0149056
3815,4717;0,0147525
3816,4360;0,0146611
3817,4001;0,0146366
3818,3645;0,0145618
3819,3286;0,01432
3820,2930;0,0139244
3821,2571;0,0135351
3822,2214;0,01332
3823,1855;0,01332
3824,1499;0,0134643
3825,1140;0,0136595
3826,0784;0,0138435
3827,0425;0,0139951
3828,0068;0,0141209
3828,9709;0,014235
3829,9353;0,0143473
3830,8994;0,014464
3831,8638;0,0145929
3832,8279;0,014738
3833,7922;0,014882
3834,7563;0,0149724
3835,7207;0,0149335
3836,6848;0,0147136
3837,6492;0,0143437
3838,6133;0,0139419
3839,5776;0,0136328
3840,5417;0,0134635
3841,5061;0,0134035
3842,4702;0,0134037
3843,4346;0,0134464
3844,3987;0,0135572
3845,3630;0,0137845
3846,3271;0,0141666
3847,2915;0,014707
3848,2556;0,0153589
3849,2200;0,0160053
3850,1841;0,0164298
3851,1484;0,0163286
3852,1125;0,0155058
3853,0769;0,0142452
3854,0410;0,0132263
3855,0054;0,0128239
3855,9695;0,0129327
3856,9338;0,0133231
3857,8979;0,0138227
3858,8623;0,0143074
3859,8264;0,0146711
3860,7908;0,0148314
3861,7549;0,0147726
3862,7192;0,014584
3863,6833;0,0144228
3864,6477;0,0144048
3865,6118;0,0145302
3866,5762;0,014705
3867,5403;0,0148073
3868,5046;0,0147448
3869,4688;0,0144992
3870,4331;0,0141429
3871,3972;0,0138051
3872,3616;0,0136031
3873,3257;0,013592
3874,2900;0,0137594
3875,2542;0,0140455
3876,2185;0,0143644
3877,1826;0,0146262
3878,1470;0,0147642
3879,1111;0,0147668
3880,0754;0,0146851
3881,0396;0,014592
3882,0039;0,0145206
3882,9680;0,0144496
3883,9324;0,0143524
3884,8965;0,0142516
3885,8608;0,0142126
3886,8250;0,0142775
3887,7893;0,0144106
3888,7534;0,0145079
3889,7178;0,0144607
3890,6819;0,0142439
3891,6462;0,0139693
3892,6104;0,0138218
3893,5747;0,0139161
3894,5388;0,0142301
3895,5032;0,0146548
3896,4673;0,0150627
3897,4316;0,0153504
3898,3958;0,0154636
3899,3601;0,0154025
3900,3242;0,0151981
3901,2886;0,0148773
3902,2527;0,0144683
3903,2170;0,0140345
3904,1812;0,0136756
3905,1455;0,0134733
3906,1096;0,0134435
3907,0740;0,0135441
3908,0381;0,0137134
3909,0024;0,013903
3909,9666;0,0140909
3910,9309;0,0142772
3911,8950;0,0144663
3912,8594;0,0146457
3913,8235;0,0147774
3914,7878;0,0148119
3915,7520;0,0147229
3916,7163;0,0145415
3917,6804;0,0143529
3918,6448;0,014243
3919,6089;0,0142402
3920,5732;0,0143057
3921,5374;0,0143684
3922,5017;0,0143732
3923,4658;0,0143167
3924,4302;0,0142503
3925,3943;0,0142409
3926,3586;0,0143172
3927,3228;0,0144487
3928,2871;0,0145646
3929,2512;0,0145933
3930,2156;0,0145029
3931,1797;0,0143252
3932,1440;0,0141388
3933,1082;0,0140193
3934,0725;0,013999
3935,0366;0,0140675
3936,0010;0,0141944
3936,9651;0,0143465
3937,9294;0,0144913
3938,8936;0,0145974
3939,8579;0,014639
3940,8220;0,0146107
3941,7864;0,0145375
3942,7505;0,0144667
3943,7148;0,0144384
3944,6790;0,0144584
3945,6433;0,0144955
3946,6074;0,0145036
3947,5718;0,0144521
3948,5359;0,014348
3949,5002;0,0142324
3950,4644;0,014153
3951,4287;0,0141332
3952,3928;0,0141658
3953,3572;0,014227
3954,3213;0,0142952
3955,2856;0,01436
3956,2498;0,0144187
3957,2141;0,0144679
3958,1782;0,0144988
3959,1426;0,014501
3960,1067;0,0144717
3961,0710;0,0144211
3962,0352;0,0143694
3962,9995;0,0143357
3963,9636;0,0143292
3964,9280;0,0143466
3965,8921;0,0143773
3966,8564;0,0144101
3967,8206;0,0144364
3968,7849;0,0144511
3969,7490;0,0144515
3970,7134;0,0144382
3971,6775;0,0144155
3972,6418;0,0143923
3973,6060;0,0143786
3974,5703;0,0143804
3975,5344;0,0143956
3976,4988;0,0144149
3977,4629;0,0144268
3978,4272;0,0144251
3979,3914;0,0144118
3980,3557;0,014396
3981,3198;0,014388
3982,2842;0,0143931
3983,2483;0,014409
3984,2126;0,0144272
3985,1768;0,0144386
3986,1411;0,0144382
3987,1052;0,0144281
3988,0696;0,0144158
3989,0337;0,0144107
3989,9980;0,0144187
3990,9622;0,0144387
3991,9265;0,0144631
3992,8906;0,014482
3993,8550;0,0144893
3994,8191;0,0144863
3995,7834;0,0144796
3996,7476;0,0144752
3997,7119;0,0144743
3998,6760;0,0144722
3999,6404;0,0144644
4000,6045;0,0143604

##### Extended Information
[Comments]
Sample name
Comment
Username
Division
Organization;UNIVERSIDAD INDUSTRIAL DE SANTANDER

[Detailed Information]
Creation date;28/02/2025 6:31 p.m.

Data array type;Linear data array
Horizontal axis;Wavenumber [cm-1]
Vertical axis;Abs
Start;399,193 cm-1
End;4000,6 cm-1
Data interval;0,964233 cm-1
Data points;3736    

[Measurement Information]
Model name;FT/IR-4X1typeA
Serial No.;A035162111

Accessory;ATR PRO 4X
Accessory S/N;A021162126
Incident angle;45 deg

Measurement date;28/02/2025 6:31 p.m.

Light source;Standard
Detector;TGS
Accumulation;40
Resolution;4 cm-1
Zero filling;On
Apodization;Cosine
Gain;Auto (8)
Aperture;Auto (7 mm)
Scan speed;Auto (2 mm/sec)
Filter;Auto (12800 Hz)

