TITLE;
DATA TYPE;INFRARED SPECTRUM
ORIGIN;JASCO
OWNER;
DATE;25/03/18
TIME;18:36:09
SPECTROMETER/DATA SYSTEM;
LOCALE;9226
RESOLUTION;
DELTAX;0,964233
XUNITS;1/CM
YUNITS;ABSORBANCE
FIRSTX;  399,1927
LASTX; 4000,6047
NPOINTS;    3736
FIRSTY;     0,22148
MAXY;     0,24695
MINY;    -0,00394
XYDATA
399,1927;0,221483
400,1569;0,217166
401,1211;0,211635
402,0854;0,206159
403,0496;0,201537
404,0138;0,198237
404,9781;0,196469
405,9423;0,196151
406,9065;0,196905
407,8708;0,198211
408,8350;0,19963
409,7992;0,200909
410,7635;0,201925
411,7277;0,202593
412,6919;0,202873
413,6562;0,202869
414,6204;0,202905
415,5846;0,203539
416,5489;0,205456
417,5131;0,209071
418,4773;0,213674
419,4416;0,217186
420,4058;0,217992
421,3700;0,216478
422,3343;0,214016
423,2985;0,211672
424,2627;0,209923
425,2270;0,208802
426,1912;0,208088
427,1554;0,207505
428,1197;0,206889
429,0839;0,20625
430,0481;0,20573
431,0124;0,205506
431,9766;0,205698
432,9408;0,206297
433,9051;0,207136
434,8693;0,207918
435,8335;0,208338
436,7978;0,208229
437,7620;0,207664
438,7262;0,206905
439,6905;0,206252
440,6547;0,205896
441,6189;0,205836
442,5832;0,2059
443,5474;0,205857
444,5116;0,205574
445,4759;0,205101
446,4401;0,204604
447,4043;0,204243
448,3686;0,204077
449,3328;0,20404
450,2970;0,203974
451,2613;0,203713
452,2255;0,203165
453,1897;0,202367
454,1540;0,201457
455,1182;0,200607
456,0824;0,199941
457,0467;0,199485
458,0109;0,199157
458,9751;0,198849
459,9394;0,198517
460,9036;0,198201
461,8678;0,197958
462,8321;0,19781
463,7963;0,197723
464,7605;0,19765
465,7248;0,197572
466,6890;0,197528
467,6532;0,197578
468,6175;0,197733
469,5817;0,197905
470,5459;0,197916
471,5102;0,197576
472,4744;0,196821
473,4386;0,195786
474,4029;0,194719
475,3671;0,193819
476,3313;0,193157
477,2956;0,192703
478,2598;0,192406
479,2240;0,192251
480,1883;0,192255
481,1525;0,192431
482,1167;0,192739
483,0810;0,193076
484,0452;0,193317
485,0094;0,193401
485,9737;0,193372
486,9379;0,193356
487,9021;0,19347
488,8664;0,193756
489,8306;0,194164
490,7948;0,19458
491,7591;0,194887
492,7233;0,195027
493,6875;0,195024
494,6518;0,194957
495,6160;0,194918
496,5802;0,194974
497,5445;0,19516
498,5087;0,195473
499,4729;0,195871
500,4372;0,196269
501,4014;0,196574
502,3656;0,196735
503,3299;0,196789
504,2941;0,196851
505,2583;0,197044
506,2226;0,19742
507,1868;0,197932
508,1510;0,198453
509,1153;0,198857
510,0795;0,1991
511,0437;0,199245
512,0080;0,199434
512,9722;0,199808
513,9365;0,200446
514,9007;0,20132
515,8649;0,202281
516,8292;0,203091
517,7934;0,203518
518,7576;0,203468
519,7219;0,203048
520,6861;0,2025
521,6503;0,202072
522,6146;0,201919
523,5788;0,20207
524,5430;0,202434
525,5073;0,202838
526,4715;0,2031
527,4357;0,203122
528,4000;0,202933
529,3642;0,20264
530,3284;0,202352
531,2927;0,202129
532,2569;0,201961
533,2211;0,201783
534,1854;0,20152
535,1496;0,201128
536,1138;0,200622
537,0781;0,20007
538,0423;0,19956
539,0065;0,199165
539,9708;0,198929
540,9350;0,198867
541,8992;0,198983
542,8635;0,199273
543,8277;0,199706
544,7919;0,200212
545,7562;0,200683
546,7204;0,201006
547,6846;0,201117
548,6489;0,201036
549,6131;0,200847
550,5773;0,200662
551,5416;0,200569
552,5058;0,200618
553,4700;0,200824
554,4343;0,201175
555,3985;0,201627
556,3627;0,202084
557,3270;0,202395
558,2912;0,202387
559,2554;0,201931
560,2197;0,201
561,1839;0,199702
562,1481;0,198241
563,1124;0,196842
564,0766;0,19566
565,0408;0,194744
566,0051;0,194046
566,9693;0,193478
567,9335;0,192972
568,8978;0,192513
569,8620;0,19213
570,8262;0,19186
571,7905;0,19171
572,7547;0,191652
573,7189;0,191636
574,6832;0,191605
575,6474;0,191523
576,6116;0,191377
577,5759;0,191182
578,5401;0,190973
579,5043;0,19079
580,4686;0,190661
581,4328;0,19058
582,3970;0,190506
583,3613;0,190373
584,3255;0,190133
585,2897;0,189796
586,2540;0,189445
587,2182;0,189198
588,1824;0,189148
589,1467;0,189308
590,1109;0,189588
591,0751;0,189832
592,0394;0,189893
593,0036;0,189707
593,9678;0,189313
594,9321;0,188813
595,8963;0,188296
596,8605;0,187794
597,8248;0,187293
598,7890;0,18676
599,7532;0,186186
600,7175;0,185603
601,6817;0,185059
602,6459;0,184592
603,6102;0,184202
604,5744;0,183857
605,5386;0,183511
606,5029;0,18312
607,4671;0,182654
608,4313;0,182092
609,3956;0,181432
610,3598;0,180713
611,3240;0,180028
612,2883;0,179518
613,2525;0,179311
614,2167;0,179437
615,1810;0,179756
616,1452;0,179959
617,1094;0,179688
618,0737;0,178722
619,0379;0,177122
620,0021;0,175195
620,9664;0,173326
621,9306;0,171798
622,8948;0,170702
623,8591;0,16995
624,8233;0,169287
625,7875;0,168685
626,7518;0,16806
627,7160;0,167422
628,6802;0,166819
629,6445;0,166298
630,6087;0,165856
631,5729;0,165454
632,5372;0,165035
633,5014;0,164555
634,4656;0,164013
635,4299;0,163455
636,3941;0,162952
637,3583;0,162565
638,3226;0,162308
639,2868;0,162149
640,2510;0,162027
641,2153;0,161893
642,1795;0,161734
643,1437;0,161575
644,1080;0,161445
645,0722;0,161345
646,0364;0,161231
647,0007;0,161033
647,9649;0,160697
648,9291;0,160218
649,8934;0,159653
650,8576;0,159097
651,8218;0,158646
652,7861;0,158374
653,7503;0,158314
654,7145;0,158444
655,6788;0,158688
656,6430;0,158941
657,6072;0,15912
658,5715;0,159205
659,5357;0,159215
660,4999;0,159126
661,4642;0,158804
662,4284;0,157995
663,3926;0,15644
664,3569;0,154077
665,3211;0,151345
666,2853;0,149348
667,2496;0,149348
668,2138;0,151223
669,1780;0,153107
670,1423;0,153842
671,1065;0,153619
672,0707;0,152665
673,0350;0,151056
673,9992;0,149025
674,9634;0,146947
675,9277;0,145123
676,8919;0,143621
677,8561;0,142322
678,8204;0,141085
679,7846;0,139862
680,7488;0,138685
681,7131;0,137607
682,6773;0,136635
683,6415;0,135748
684,6058;0,134922
685,5700;0,134153
686,5342;0,133447
687,4985;0,132797
688,4627;0,132195
689,4269;0,131607
690,3912;0,131012
691,3554;0,130417
692,3196;0,129836
693,2839;0,12928
694,2481;0,128749
695,2123;0,128233
696,1766;0,127717
697,1408;0,127185
698,1050;0,126628
699,0693;0,12605
700,0335;0,125466
700,9977;0,124897
701,9620;0,124348
702,9262;0,123811
703,8904;0,123233
704,8547;0,122606
705,8189;0,121939
706,7831;0,121263
707,7474;0,120616
708,7116;0,12001
709,6758;0,119422
710,6401;0,118799
711,6043;0,118088
712,5685;0,117274
713,5328;0,116409
714,4970;0,115597
715,4612;0,11342
716,4255;0,113338
717,3897;0,113564
718,3539;0,113838
719,3182;0,113793
720,2824;0,113132
721,2466;0,111799
722,2109;0,110007
723,1751;0,108114
724,1393;0,106433
725,1036;0,105117
726,0678;0,10415
727,0320;0,103412
727,9963;0,102767
728,9605;0,102125
729,9247;0,101459
730,8890;0,100782
731,8532;0,100117
732,8174;0,0994827
733,7817;0,0988857
734,7459;0,0983304
735,7101;0,0978205
736,6744;0,0973579
737,6386;0,0969393
738,6028;0,0965537
739,5671;0,0961813
740,5313;0,0957971
741,4955;0,0953768
742,4598;0,0949029
743,4240;0,0943696
744,3882;0,0937833
745,3525;0,093161
746,3167;0,0925257
747,2809;0,0919025
748,2452;0,091312
749,2094;0,090763
750,1736;0,0902469
751,1379;0,0897386
752,1021;0,0892067
753,0663;0,0886304
754,0306;0,0880126
754,9948;0,0873826
755,9590;0,0867825
756,9233;0,0862479
757,8875;0,0857923
758,8517;0,0854039
759,8160;0,0850553
760,7802;0,084717
761,7444;0,0843667
762,7087;0,083992
763,6729;0,0835877
764,6371;0,0831549
765,6014;0,0827034
766,5656;0,082254
767,5298;0,0818369
768,4941;0,0814807
769,4583;0,0811991
770,4225;0,0809803
771,3868;0,0807894
772,3510;0,0805822
773,3152;0,0803249
774,2795;0,0800078
775,2437;0,0796466
776,2079;0,0792708
777,1722;0,0789066
778,1364;0,0785642
779,1006;0,0782356
780,0649;0,077901
781,0291;0,0775395
781,9933;0,077138
782,9576;0,0766958
783,9218;0,0762241
784,8860;0,0757438
785,8503;0,0752803
786,8145;0,0748567
787,7787;0,0744876
788,7430;0,074175
789,7072;0,0739089
790,6714;0,0736727
791,6357;0,0734505
792,5999;0,0732324
793,5641;0,0730143
794,5284;0,0727948
795,4926;0,0725718
796,4568;0,0723422
797,4211;0,0721046
798,3853;0,0718621
799,3495;0,0716225
800,3138;0,0713943
801,2780;0,0711821
802,2422;0,0709848
803,2065;0,0707964
804,1707;0,07061
805,1349;0,07042
806,0992;0,070223
807,0634;0,0700177
808,0276;0,0698056
808,9919;0,0695926
809,9561;0,0693892
810,9203;0,0692079
811,8846;0,0690562
812,8488;0,0689315
813,8130;0,0688192
814,7773;0,0686982
815,7415;0,0685495
816,7057;0,0683654
817,6700;0,0681519
818,6342;0,067926
819,5984;0,0677093
820,5627;0,0675202
821,5269;0,0673678
822,4911;0,0672485
823,4554;0,0671475
824,4196;0,0670433
825,3839;0,0669163
826,3481;0,0667563
827,3123;0,0665669
828,2766;0,0663625
829,2408;0,0661608
830,2050;0,0659748
831,1693;0,0658074
832,1335;0,0656518
833,0977;0,0654941
834,0620;0,065317
835,0262;0,0651035
835,9904;0,064841
836,9547;0,064526
837,9189;0,0641686
838,8831;0,0637922
839,8474;0,0634281
840,8116;0,0631051
841,7758;0,0628396
842,7401;0,0626311
843,7043;0,0624653
844,6685;0,0623231
845,6328;0,0621899
846,5970;0,0620604
847,5612;0,061939
848,5255;0,0618345
849,4897;0,0617544
850,4539;0,0617015
851,4182;0,0616727
852,3824;0,0616611
853,3466;0,0616577
854,3109;0,0616525
855,2751;0,0616339
856,2393;0,0615889
857,2036;0,0615064
858,1678;0,0613823
859,1320;0,0612249
860,0963;0,061055
861,0605;0,0608997
862,0247;0,0607825
862,9890;0,0607145
863,9532;0,0606923
864,9174;0,0607026
865,8817;0,0607312
866,8459;0,060769
867,8101;0,0608148
868,7744;0,0608727
869,7386;0,0609483
870,7028;0,0610442
871,6671;0,0611565
872,6313;0,0612734
873,5955;0,0613767
874,5598;0,0614484
875,5240;0,0614792
876,4882;0,0614752
877,4525;0,0614577
878,4167;0,061455
879,3809;0,0614905
880,3452;0,0615755
881,3094;0,0617115
882,2736;0,0618993
883,2379;0,0621469
884,2021;0,0624695
885,1663;0,0628817
886,1306;0,0633868
887,0948;0,0639736
888,0590;0,0646219
889,0233;0,0653126
889,9875;0,0660344
890,9517;0,0667815
891,9160;0,0675447
892,8802;0,068303
893,8444;0,0690214
894,8087;0,0696561
895,7729;0,070164
896,7371;0,0705105
897,7014;0,0706739
898,6656;0,0706466
899,6298;0,0704357
900,5941;0,0700621
901,5583;0,069559
902,5225;0,0689669
903,4868;0,0683286
904,4510;0,0676838
905,4152;0,0670667
906,3795;0,0665046
907,3437;0,0660173
908,3079;0,0656162
909,2722;0,0653049
910,2364;0,0650807
911,2007;0,0649382
912,1649;0,0648717
913,1292;0,064875
914,0934;0,0649393
915,0576;0,0650518
916,0219;0,0651967
916,9861;0,0653594
917,9503;0,0655308
918,9146;0,0657079
919,8788;0,0658917
920,8430;0,0660834
921,8073;0,0662824
922,7715;0,0664857
923,7357;0,0666894
924,7000;0,0668889
925,6642;0,067079
926,6284;0,0672547
927,5927;0,0674141
928,5569;0,0675607
929,5211;0,0677037
930,4854;0,0678535
931,4496;0,0680157
932,4138;0,0681875
933,3781;0,0683601
934,3423;0,0685264
935,3065;0,0686897
936,2708;0,0688667
937,2350;0,0690834
938,1992;0,069365
939,1635;0,0697258
940,1277;0,0701643
941,0919;0,0706657
942,0562;0,0712105
943,0204;0,0717847
943,9846;0,0723863
944,9489;0,0730252
945,9131;0,0737173
946,8773;0,0744754
947,8416;0,0753031
948,8058;0,0761951
949,7700;0,0771427
950,7343;0,0781414
951,6985;0,0791947
952,6627;0,0803125
953,6270;0,0815055
954,5912;0,0827808
955,5554;0,084142
956,5197;0,0855907
957,4839;0,0871271
958,4481;0,0887474
959,4124;0,0904384
960,3766;0,0921757
961,3408;0,0939294
962,3051;0,0956756
963,2693;0,0974062
964,2335;0,0991328
965,1978;0,100879
966,1620;0,102669
967,1262;0,104518
968,0905;0,106433
969,0547;0,10842
970,0189;0,110498
970,9832;0,112696
971,9474;0,115057
972,9116;0,117621
973,8759;0,120413
974,8401;0,123445
975,8043;0,126714
976,7686;0,130214
977,7328;0,133934
978,6970;0,137859
979,6613;0,141952
980,6255;0,146139
981,5897;0,15031
982,5540;0,154328
983,5182;0,158061
984,4824;0,16141
985,4467;0,164333
986,4109;0,166847
987,3751;0,169009
988,3394;0,170891
989,3036;0,172554
990,2678;0,174043
991,2321;0,175384
992,1963;0,1766
993,1605;0,17772
994,1248;0,178783
995,0890;0,179831
996,0532;0,180898
997,0175;0,182001
997,9817;0,183131
998,9459;0,184264
999,9102;0,185376
1000,8744;0,186463
1001,8386;0,187545
1002,8029;0,188672
1003,7671;0,189899
1004,7313;0,191281
1005,6956;0,192856
1006,6598;0,194652
1007,6240;0,196697
1008,5883;0,199015
1009,5525;0,201625
1010,5167;0,20452
1011,4810;0,207651
1012,4452;0,210923
1013,4094;0,214205
1014,3737;0,217357
1015,3379;0,220263
1016,3021;0,222856
1017,2664;0,225124
1018,2306;0,227107
1019,1948;0,228872
1020,1591;0,230497
1021,1233;0,23205
1022,0875;0,233582
1023,0518;0,235131
1024,0160;0,23672
1024,9802;0,238354
1025,9445;0,24002
1026,9087;0,241677
1027,8729;0,243262
1028,8372;0,244689
1029,8014;0,245856
1030,7656;0,246649
1031,7299;0,246951
1032,6941;0,246659
1033,6583;0,245712
1034,6226;0,244123
1035,5868;0,241991
1036,5510;0,239498
1037,5153;0,236868
1038,4795;0,234324
1039,4437;0,232048
1040,4080;0,230159
1041,3722;0,228714
1042,3364;0,227712
1043,3007;0,227102
1044,2649;0,226791
1045,2291;0,22666
1046,1934;0,226577
1047,1576;0,226429
1048,1218;0,226137
1049,0861;0,22566
1050,0503;0,224979
1051,0145;0,224081
1051,9788;0,222952
1052,9430;0,221581
1053,9072;0,219966
1054,8715;0,218114
1055,8357;0,216023
1056,7999;0,213659
1057,7642;0,210954
1058,7284;0,207825
1059,6926;0,204223
1060,6569;0,200171
1061,6211;0,195784
1062,5853;0,191243
1063,5496;0,186749
1064,5138;0,182473
1065,4780;0,178524
1066,4423;0,174946
1067,4065;0,171728
1068,3707;0,168831
1069,3350;0,166203
1070,2992;0,163788
1071,2634;0,161532
1072,2277;0,15938
1073,1919;0,157276
1074,1561;0,155169
1075,1204;0,153017
1076,0846;0,1508
1077,0488;0,148529
1078,0131;0,146243
1078,9773;0,144002
1079,9415;0,141871
1080,9058;0,139904
1081,8700;0,138136
1082,8342;0,136581
1083,7985;0,135235
1084,7627;0,134081
1085,7269;0,133091
1086,6912;0,132235
1087,6554;0,131488
1088,6196;0,130841
1089,5839;0,1303
1090,5481;0,129882
1091,5123;0,129601
1092,4766;0,129466
1093,4408;0,129472
1094,4050;0,129608
1095,3693;0,129865
1096,3335;0,130235
1097,2977;0,130712
1098,2620;0,131282
1099,2262;0,13192
1100,1904;0,132591
1101,1547;0,133247
1102,1189;0,133843
1103,0831;0,134337
1104,0474;0,134696
1105,0116;0,134906
1105,9758;0,134965
1106,9401;0,134882
1107,9043;0,13466
1108,8685;0,134292
1109,8328;0,133746
1110,7970;0,132977
1111,7612;0,131947
1112,7255;0,130646
1113,6897;0,129117
1114,6539;0,127447
1115,6182;0,125752
1116,5824;0,12414
1117,5466;0,122684
1118,5109;0,121404
1119,4751;0,120265
1120,4393;0,119189
1121,4036;0,118075
1122,3678;0,116822
1123,3320;0,115348
1124,2963;0,113607
1125,2605;0,111603
1126,2247;0,109381
1127,1890;0,107007
1128,1532;0,104555
1129,1174;0,102079
1130,0817;0,0996139
1131,0459;0,0971784
1132,0101;0,0947906
1132,9744;0,0924783
1133,9386;0,0902819
1134,9028;0,0882495
1135,8671;0,0864272
1136,8313;0,0848516
1137,7955;0,0835449
1138,7598;0,0825137
1139,7240;0,0817497
1140,6882;0,0812316
1141,6525;0,0809285
1142,6167;0,0808049
1143,5809;0,0808271
1144,5452;0,080967
1145,5094;0,0812043
1146,4736;0,0815261
1147,4379;0,081926
1148,4021;0,0824023
1149,3663;0,0829567
1150,3306;0,0835895
1151,2948;0,0842942
1152,2590;0,0850525
1153,2233;0,0858316
1154,1875;0,0865877
1155,1517;0,0872703
1156,1160;0,0878262
1157,0802;0,0881983
1158,0444;0,0883217
1159,0087;0,0881208
1159,9729;0,0875145
1160,9371;0,0864302
1161,9014;0,0848242
1162,8656;0,0826984
1163,8298;0,0801077
1164,7941;0,0771545
1165,7583;0,0739739
1166,7225;0,070714
1167,6868;0,0675169
1168,6510;0,0645014
1169,6152;0,0617496
1170,5795;0,0592996
1171,5437;0,057148
1172,5079;0,0552628
1173,4722;0,0536013
1174,4364;0,0521271
1175,4006;0,0508189
1176,3649;0,049669
1177,3291;0,0486755
1178,2933;0,0478349
1179,2576;0,0471387
1180,2218;0,0465741
1181,1860;0,0461271
1182,1503;0,0457843
1183,1145;0,0455327
1184,0787;0,0453593
1185,0430;0,0452516
1186,0072;0,0451999
1186,9714;0,0451995
1187,9357;0,0452526
1188,8999;0,0453667
1189,8641;0,0455531
1190,8284;0,0458231
1191,7926;0,0461856
1192,7568;0,046645
1193,7211;0,0471994
1194,6853;0,0478391
1195,6495;0,0485469
1196,6138;0,0492997
1197,5780;0,0500736
1198,5422;0,05085
1199,5065;0,0512497
1200,4707;0,0520568
1201,4349;0,0528639
1202,3992;0,0536697
1203,3634;0,0544653
1204,3276;0,0552361
1205,2919;0,0559685
1206,2561;0,0566589
1207,2203;0,0573175
1208,1846;0,0579659
1209,1488;0,0586292
1210,1130;0,0593288
1211,0773;0,0600783
1212,0415;0,0608847
1213,0057;0,0617502
1213,9700;0,0626732
1214,9342;0,063647
1215,8984;0,064659
1216,8627;0,0656885
1217,8269;0,0667108
1218,7911;0,0677068
1219,7554;0,0686647
1220,7196;0,0695799
1221,6838;0,0704504
1222,6481;0,0712731
1223,6123;0,0720413
1224,5765;0,0727471
1225,5408;0,0733857
1226,5050;0,0739583
1227,4692;0,0744733
1228,4335;0,0749428
1229,3977;0,0753765
1230,3619;0,0757776
1231,3262;0,0761408
1232,2904;0,0764555
1233,2546;0,0767112
1234,2189;0,0769048
1235,1831;0,0770429
1236,1473;0,0771424
1237,1116;0,0772246
1238,0758;0,0773088
1239,0400;0,0774054
1240,0043;0,0775118
1240,9685;0,0776122
1241,9327;0,0776816
1242,8970;0,0776939
1243,8612;0,0776305
1244,8254;0,0774859
1245,7897;0,0772697
1246,7539;0,0770014
1247,7181;0,0767033
1248,6824;0,0763923
1249,6466;0,0760757
1250,6108;0,0757517
1251,5751;0,075415
1252,5393;0,0750639
1253,5035;0,0747056
1254,4678;0,0743553
1255,4320;0,0740285
1256,3962;0,0737303
1257,3605;0,0734482
1258,3247;0,0731535
1259,2889;0,0728127
1260,2532;0,072402
1261,2174;0,0719185
1262,1816;0,0713788
1263,1459;0,070809
1264,1101;0,0702309
1265,0743;0,0696546
1266,0386;0,0690768
1267,0028;0,0684832
1267,9670;0,0678528
1268,9313;0,0671631
1269,8955;0,0663963
1270,8597;0,0655471
1271,8240;0,0646284
1272,7882;0,063671
1273,7524;0,0627148
1274,7167;0,0617979
1275,6809;0,060946
1276,6451;0,0601669
1277,6094;0,0594507
1278,5736;0,0587737
1279,5378;0,0581084
1280,5021;0,0574347
1281,4663;0,0567499
1282,4305;0,0560708
1283,3948;0,055426
1284,3590;0,0548417
1285,3232;0,0543281
1286,2875;0,053874
1287,2517;0,0534529
1288,2159;0,0530388
1289,1802;0,0526225
1290,1444;0,0522184
1291,1086;0,0518581
1292,0729;0,0515767
1293,0371;0,051399
1294,0013;0,0513332
1294,9656;0,0513728
1295,9298;0,0515026
1296,8940;0,0517064
1297,8583;0,051972
1298,8225;0,0522933
1299,7867;0,0526697
1300,7510;0,0531035
1301,7152;0,0536039
1302,6794;0,0541778
1303,6437;0,0548271
1304,6079;0,0555492
1305,5721;0,0563354
1306,5364;0,0571745
1307,5006;0,058059
1308,4648;0,058987
1309,4291;0,0599548
1310,3933;0,0609476
1311,3575;0,0619314
1312,3218;0,062858
1313,2860;0,0636804
1314,2502;0,0643673
1315,2145;0,0649016
1316,1787;0,0652654
1317,1429;0,0654273
1318,1072;0,0653523
1319,0714;0,0650321
1320,0356;0,0645132
1320,9999;0,0638912
1321,9641;0,0632724
1322,9283;0,0627333
1323,8926;0,0623053
1324,8568;0,0619829
1325,8210;0,0617428
1326,7853;0,0615594
1327,7495;0,0614113
1328,7137;0,0612801
1329,6780;0,0611468
1330,6422;0,0609967
1331,6064;0,0608318
1332,5707;0,0606775
1333,5349;0,0605831
1334,4991;0,0605986
1335,4634;0,0607406
1336,4276;0,0609519
1337,3918;0,0610702
1338,3561;0,0608603
1339,3203;0,0601543
1340,2845;0,0590094
1341,2488;0,0576891
1342,2130;0,056476
1343,1772;0,0555283
1344,1415;0,0548752
1345,1057;0,0544747
1346,0699;0,0542619
1347,0342;0,0541747
1347,9984;0,0541714
1348,9626;0,0542389
1349,9269;0,0543857
1350,8911;0,0546238
1351,8553;0,0549511
1352,8196;0,055345
1353,7838;0,0557702
1354,7480;0,0561979
1355,7123;0,0566268
1356,6765;0,0570892
1357,6407;0,0576366
1358,6050;0,0583157
1359,5692;0,0591383
1360,5334;0,0600363
1361,4977;0,0608409
1362,4619;0,0613708
1363,4261;0,061596
1364,3904;0,0616651
1365,3546;0,0617555
1366,3188;0,0619508
1367,2831;0,0622372
1368,2473;0,0625537
1369,2115;0,0628392
1370,1758;0,0630592
1371,1400;0,0632059
1372,1042;0,0632713
1373,0685;0,0632184
1374,0327;0,0629909
1374,9969;0,0625692
1375,9612;0,0619999
1376,9254;0,0613383
1377,8896;0,0605839
1378,8539;0,0596966
1379,8181;0,058667
1380,7823;0,0575607
1381,7466;0,0564954
1382,7108;0,0555687
1383,6750;0,0548056
1384,6393;0,0541563
1385,6035;0,0535221
1386,5677;0,0528055
1387,5320;0,0520025
1388,4962;0,0512386
1389,4604;0,0506531
1390,4247;0,0502846
1391,3889;0,050107
1392,3531;0,0501158
1393,3174;0,0503331
1394,2816;0,050728
1395,2458;0,0511539
1396,2101;0,0514081
1397,1743;0,0513765
1398,1385;0,0511172
1399,1028;0,0508104
1400,0670;0,0506361
1401,0313;0,0506804
1401,9955;0,0509232
1402,9597;0,0512845
1403,9240;0,0516807
1404,8882;0,052067
1405,8524;0,0524584
1406,8167;0,0529082
1407,7809;0,0534514
1408,7451;0,0540746
1409,7094;0,0547427
1410,6736;0,0554382
1411,6378;0,0561716
1412,6021;0,056956
1413,5663;0,0577744
1414,5305;0,0585788
1415,4948;0,0593233
1416,4590;0,0599728
1417,4232;0,0604581
1418,3875;0,0606948
1419,3517;0,0607503
1420,3159;0,0608565
1421,2802;0,0611231
1422,2444;0,0614115
1423,2086;0,0615014
1424,1729;0,0612731
1425,1371;0,0607561
1426,1013;0,060062
1427,0656;0,0592883
1428,0298;0,0584728
1428,9940;0,0576161
1429,9583;0,056732
1430,9225;0,0558581
1431,8867;0,0550008
1432,8510;0,0540948
1433,8152;0,0530429
1434,7794;0,051791
1435,7437;0,0503872
1436,7079;0,0490455
1437,6721;0,0481076
1438,6364;0,0477687
1439,6006;0,0478988
1440,5648;0,0482178
1441,5291;0,0485371
1442,4933;0,0488308
1443,4575;0,0491713
1444,4218;0,0496283
1445,3860;0,0502069
1446,3502;0,0508523
1447,3145;0,0515028
1448,2787;0,0521462
1449,2429;0,0528228
1450,2072;0,0535485
1451,1714;0,0542422
1452,1356;0,0547579
1453,0999;0,055008
1454,0641;0,0550757
1455,0283;0,0551749
1455,9926;0,0552984
1456,9568;0,0549524
1457,9210;0,0540567
1458,8853;0,0534284
1459,8495;0,0534285
1460,8137;0,0536684
1461,7780;0,0537027
1462,7422;0,053343
1463,7064;0,0526076
1464,6707;0,0516227
1465,6349;0,0505885
1466,5991;0,0496764
1467,5634;0,0488646
1468,5276;0,0479769
1469,4918;0,0468778
1470,4561;0,0455668
1471,4203;0,0440737
1472,3845;0,0422994
1473,3488;0,0401788
1474,3130;0,0380269
1475,2772;0,0362836
1476,2415;0,0350648
1477,2057;0,0342255
1478,1699;0,0335942
1479,1342;0,0330635
1480,0984;0,0325837
1481,0626;0,0321481
1482,0269;0,0317877
1482,9911;0,0315567
1483,9553;0,0315069
1484,9196;0,0316801
1485,8838;0,0321194
1486,8480;0,0328314
1487,8123;0,0336401
1488,7765;0,0341287
1489,7407;0,0340449
1490,7050;0,0336918
1491,6692;0,0335106
1492,6334;0,033623
1493,5977;0,0339542
1494,5619;0,0344835
1495,5261;0,0352928
1496,4904;0,0364244
1497,4546;0,0377561
1498,4188;0,0391233
1499,3831;0,040454
1500,3473;0,0416359
1501,3115;0,0424446
1502,2758;0,0426972
1503,2400;0,042463
1504,2042;0,0422289
1505,1685;0,0428565
1506,1327;0,0447868
1507,0969;0,0467222
1508,0612;0,0470816
1509,0254;0,0464575
1509,9896;0,0458136
1510,9539;0,0452894
1511,9181;0,0447636
1512,8823;0,0442109
1513,8466;0,0436852
1514,8108;0,0431981
1515,7750;0,0426562
1516,7393;0,0419274
1517,7035;0,0409652
1518,6677;0,0398573
1519,6320;0,038769
1520,5962;0,0378562
1521,5604;0,0372145
1522,5247;0,0368607
1523,4889;0,0367164
1524,4531;0,0366366
1525,4174;0,0365064
1526,3816;0,0363188
1527,3458;0,0361497
1528,3101;0,0360627
1529,2743;0,0360631
1530,2385;0,0361534
1531,2028;0,0363905
1532,1670;0,0368355
1533,1312;0,0374309
1534,0955;0,0379824
1535,0597;0,0382757
1536,0239;0,0381804
1536,9882;0,0377523
1537,9524;0,0373734
1538,9166;0,0377261
1539,8809;0,0391424
1540,8451;0,0406272
1541,8093;0,0409748
1542,7736;0,0405336
1543,7378;0,0399995
1544,7020;0,0395647
1545,6663;0,0392501
1546,6305;0,0390889
1547,5947;0,0390836
1548,5590;0,0391694
1549,5232;0,0392509
1550,4874;0,0392649
1551,4517;0,0392077
1552,4159;0,0390931
1553,3801;0,0388791
1554,3444;0,0384597
1555,3086;0,0377592
1556,2728;0,0368249
1557,2371;0,0357018
1558,2013;0,0342182
1559,1655;0,0327725
1560,1298;0,0326476
1561,0940;0,0340253
1562,0582;0,0359709
1563,0225;0,0376742
1563,9867;0,0388037
1564,9509;0,0393746
1565,9152;0,0395825
1566,8794;0,0396769
1567,8436;0,0398543
1568,8079;0,0401933
1569,7721;0,0406794
1570,7363;0,0412521
1571,7006;0,0418061
1572,6648;0,0422409
1573,6290;0,0425716
1574,5933;0,0429455
1575,5575;0,043485
1576,5217;0,0441492
1577,4860;0,0448809
1578,4502;0,0457016
1579,4144;0,0465616
1580,3787;0,0473457
1581,3429;0,0480056
1582,3071;0,0485923
1583,2714;0,0491957
1584,2356;0,0498759
1585,1998;0,0506441
1586,1641;0,0514771
1587,1283;0,052339
1588,0925;0,0531886
1589,0568;0,0539815
1590,0210;0,0546749
1590,9852;0,0552352
1591,9495;0,0556365
1592,9137;0,0558532
1593,8779;0,055861
1594,8422;0,0556565
1595,8064;0,0552806
1596,7706;0,0548146
1597,7349;0,0543469
1598,6991;0,0539345
1599,6633;0,0535867
1600,6276;0,0532765
1601,5918;0,0529706
1602,5560;0,0526634
1603,5203;0,0523849
1604,4845;0,0521736
1605,4487;0,0520373
1606,4130;0,0519418
1607,3772;0,0518353
1608,3414;0,0516916
1609,3057;0,0515374
1610,2699;0,0514209
1611,2341;0,051339
1612,1984;0,0512189
1613,1626;0,0509962
1614,1268;0,050703
1615,0911;0,0504653
1616,0553;0,050415
1617,0195;0,0506484
1617,9838;0,0512094
1618,9480;0,0519922
1619,9122;0,0527704
1620,8765;0,0533709
1621,8407;0,0537605
1622,8049;0,0539959
1623,7692;0,054151
1624,7334;0,0542919
1625,6976;0,0544656
1626,6619;0,0546896
1627,6261;0,0549657
1628,5903;0,0552825
1629,5546;0,0555842
1630,5188;0,0557591
1631,4830;0,0557038
1632,4473;0,0554428
1633,4115;0,0551975
1634,3757;0,0552525
1635,3400;0,0556068
1636,3042;0,0559676
1637,2684;0,0562865
1638,2327;0,0567196
1639,1969;0,0572296
1640,1611;0,0576415
1641,1254;0,0578234
1642,0896;0,0577529
1643,0538;0,0575367
1644,0181;0,0574024
1644,9823;0,057565
1645,9465;0,0579508
1646,9108;0,0581794
1647,8750;0,0579881
1648,8392;0,0573351
1649,8035;0,0561974
1650,7677;0,054641
1651,7319;0,0529209
1652,6962;0,0512892
1653,6604;0,0500137
1654,6246;0,0496859
1655,5889;0,0503655
1656,5531;0,0513244
1657,5173;0,0518928
1658,4816;0,0518238
1659,4458;0,0511975
1660,4100;0,0502336
1661,3743;0,0491403
1662,3385;0,0480808
1663,3027;0,0472031
1664,2670;0,0465708
1665,2312;0,0461016
1666,1954;0,0456531
1667,1597;0,0451307
1668,1239;0,0444862
1669,0881;0,043673
1670,0524;0,0427011
1671,0166;0,0416858
1671,9808;0,0406978
1672,9451;0,0396764
1673,9093;0,038582
1674,8735;0,0375598
1675,8378;0,0369067
1676,8020;0,0368261
1677,7662;0,0372003
1678,7305;0,0376456
1679,6947;0,0377622
1680,6589;0,0373226
1681,6232;0,0362961
1682,5874;0,0347599
1683,5516;0,0329199
1684,5159;0,0313506
1685,4801;0,0306737
1686,4443;0,0308195
1687,4086;0,0312072
1688,3728;0,0313385
1689,3370;0,0310242
1690,3013;0,0303275
1691,2655;0,0294343
1692,2297;0,0285562
1693,1940;0,0278848
1694,1582;0,0275572
1695,1224;0,0275761
1696,0867;0,0277163
1697,0509;0,027567
1698,0151;0,0268344
1698,9794;0,0257113
1699,9436;0,0248351
1700,9078;0,0247452
1701,8721;0,0254534
1702,8363;0,0265469
1703,8005;0,0275462
1704,7648;0,0281561
1705,7290;0,0283473
1706,6932;0,0283181
1707,6575;0,028345
1708,6217;0,0285968
1709,5859;0,0290655
1710,5502;0,0296442
1711,5144;0,0302365
1712,4786;0,0308089
1713,4429;0,031377
1714,4071;0,0319277
1715,3713;0,0322739
1716,3356;0,0320425
1717,2998;0,0311713
1718,2640;0,0303052
1719,2283;0,0300807
1720,1925;0,0304862
1721,1567;0,0311395
1722,1210;0,0317025
1723,0852;0,0320315
1724,0494;0,0321653
1725,0137;0,0322575
1725,9779;0,0324792
1726,9421;0,0329203
1727,9064;0,033539
1728,8706;0,0341856
1729,8348;0,0346752
1730,7991;0,0348519
1731,7633;0,0346067
1732,7275;0,0339035
1733,6918;0,032931
1734,6560;0,0321461
1735,6202;0,0318544
1736,5845;0,0319104
1737,5487;0,0319706
1738,5129;0,0318248
1739,4772;0,031492
1740,4414;0,031136
1741,4056;0,0309105
1742,3699;0,0308407
1743,3341;0,0308248
1744,2983;0,03073
1745,2626;0,0304771
1746,2268;0,0300425
1747,1910;0,0293836
1748,1553;0,0283677
1749,1195;0,0268518
1750,0837;0,0249371
1751,0480;0,0230404
1752,0122;0,0215584
1752,9764;0,0205765
1753,9407;0,0199348
1754,9049;0,0194299
1755,8691;0,0189307
1756,8334;0,0183935
1757,7976;0,0178223
1758,7618;0,0172211
1759,7261;0,0165725
1760,6903;0,0158627
1761,6545;0,0151284
1762,6188;0,0144668
1763,5830;0,0139736
1764,5472;0,0136692
1765,5115;0,013494
1766,4757;0,0133632
1767,4399;0,0132166
1768,4042;0,0130293
1769,3684;0,012793
1770,3326;0,0124892
1771,2969;0,012095
1772,2611;0,0116519
1773,2253;0,0113078
1774,1896;0,0111983
1775,1538;0,0113039
1776,1180;0,0114842
1777,0823;0,0116064
1778,0465;0,0116182
1779,0107;0,0115355
1779,9750;0,0113912
1780,9392;0,0112011
1781,9034;0,0109652
1782,8677;0,0106934
1783,8319;0,0104279
1784,7961;0,0102383
1785,7604;0,0101809
1786,7246;0,0102548
1787,6888;0,0104051
1788,6531;0,0105734
1789,6173;0,0107419
1790,5815;0,0109118
1791,5458;0,0110465
1792,5100;0,0110986
1793,4742;0,0111037
1794,4385;0,011134
1795,4027;0,0111795
1796,3669;0,0111707
1797,3312;0,0110741
1798,2954;0,0109235
1799,2596;0,0107733
1800,2239;0,0106402
1801,1881;0,0104995
1802,1523;0,0103326
1803,1166;0,0101564
1804,0808;0,0100118
1805,0450;0,0099395
1806,0093;0,00996308
1806,9735;0,0100767
1807,9377;0,0102373
1808,9020;0,010368
1809,8662;0,0103881
1810,8304;0,0102638
1811,7947;0,0100351
1812,7589;0,00978227
1813,7231;0,00956769
1814,6874;0,00941325
1815,6516;0,00931432
1816,6158;0,00925856
1817,5801;0,00923624
1818,5443;0,0092454
1819,5085;0,00929052
1820,4728;0,00937461
1821,4370;0,00949354
1822,4012;0,00963414
1823,3655;0,00977308
1824,3297;0,00988397
1825,2939;0,00995378
1826,2582;0,00998665
1827,2224;0,00998384
1828,1866;0,00992308
1829,1509;0,00977045
1830,1151;0,00953391
1831,0793;0,00929825
1832,0436;0,00916541
1833,0078;0,00916503
1833,9720;0,00925022
1834,9363;0,00935664
1835,9005;0,00944312
1836,8647;0,00949742
1837,8290;0,00952578
1838,7932;0,00953752
1839,7574;0,00953648
1840,7217;0,00953649
1841,6859;0,00957672
1842,6501;0,00969003
1843,6144;0,00984114
1844,5786;0,00993792
1845,5428;0,00992881
1846,5071;0,00982933
1847,4713;0,00965623
1848,4355;0,00940708
1849,3998;0,00909516
1850,3640;0,008768
1851,3282;0,00848951
1852,2925;0,00830882
1853,2567;0,00824523
1854,2209;0,00829314
1855,1852;0,00843256
1856,1494;0,00863057
1857,1136;0,00883952
1858,0779;0,00900089
1859,0421;0,00906706
1860,0063;0,00903093
1860,9706;0,00894052
1861,9348;0,00888031
1862,8990;0,00893056
1863,8633;0,00913575
1864,8275;0,00949849
1865,7917;0,00997542
1866,7560;0,0104492
1867,7202;0,010719
1868,6844;0,0106105
1869,6487;0,0101479
1870,6129;0,0095385
1871,5771;0,00897904
1872,5414;0,00855171
1873,5056;0,00826559
1874,4698;0,00811566
1875,4341;0,00809197
1876,3983;0,00816431
1877,3625;0,00827802
1878,3268;0,00837712
1879,2910;0,00843024
1880,2552;0,00844138
1881,2195;0,0084392
1882,1837;0,00845517
1883,1479;0,00850468
1884,1122;0,00858166
1885,0764;0,00866671
1886,0406;0,00873976
1887,0049;0,00878712
1887,9691;0,00880235
1888,9333;0,00878994
1889,8976;0,00877344
1890,8618;0,00878934
1891,8260;0,00885873
1892,7903;0,00896246
1893,7545;0,00904458
1894,7188;0,0090422
1895,6830;0,0089264
1896,6472;0,00873033
1897,6115;0,00853651
1898,5757;0,00842518
1899,5399;0,00842531
1900,5042;0,00850446
1901,4684;0,0085983
1902,4326;0,00865782
1903,3969;0,00868345
1904,3611;0,00872074
1905,3253;0,00881984
1906,2896;0,00898982
1907,2538;0,00917948
1908,2180;0,00929847
1909,1823;0,00927221
1910,1465;0,00909629
1911,1107;0,00884225
1912,0750;0,00860674
1913,0392;0,00845579
1914,0034;0,00840954
1914,9677;0,0084583
1915,9319;0,00857862
1916,8961;0,00874136
1917,8604;0,00892233
1918,8246;0,0091113
1919,7888;0,00930155
1920,7531;0,00946728
1921,7173;0,00955634
1922,6815;0,00950946
1923,6458;0,00929688
1924,6100;0,00894756
1925,5742;0,00854247
1926,5385;0,00817484
1927,5027;0,00791276
1928,4669;0,00778527
1929,4312;0,00778356
1930,3954;0,00786996
1931,3596;0,0079945
1932,3239;0,00811091
1933,2881;0,00818788
1934,2523;0,0082121
1935,2166;0,00818729
1936,1808;0,00813242
1937,1450;0,00807815
1938,1093;0,00806017
1939,0735;0,0081095
1940,0377;0,00823749
1941,0020;0,00841751
1941,9662;0,00858105
1942,9304;0,00865003
1943,8947;0,00858857
1944,8589;0,00842272
1945,8231;0,00821234
1946,7874;0,00801201
1947,7516;0,0078513
1948,7158;0,00773423
1949,6801;0,00764863
1950,6443;0,00757786
1951,6085;0,00750868
1952,5728;0,00743275
1953,5370;0,00734686
1954,5012;0,00725804
1955,4655;0,00719182
1956,4297;0,00719113
1957,3939;0,00729546
1958,3582;0,00750547
1959,3224;0,00775796
1960,2866;0,00794095
1961,2509;0,0079541
1962,2151;0,00777679
1963,1793;0,00748964
1964,1436;0,00722891
1965,1078;0,00710174
1966,0720;0,00711388
1967,0363;0,00716253
1968,0005;0,00711161
1968,9647;0,00689639
1969,9290;0,00656991
1970,8932;0,00626239
1971,8574;0,006099
1972,8217;0,00613438
1973,7859;0,00633375
1974,7501;0,00660244
1975,7144;0,00684983
1976,6786;0,00704014
1977,6428;0,00719559
1978,6071;0,00735353
1979,5713;0,0075196
1980,5355;0,00765663
1981,4998;0,00771073
1982,4640;0,00764958
1983,4282;0,00748753
1984,3925;0,00728685
1985,3567;0,00713611
1986,3209;0,00711634
1987,2852;0,0072714
1988,2494;0,00759277
1989,2136;0,00801819
1990,1779;0,00844177
1991,1421;0,00874197
1992,1063;0,0088303
1993,0706;0,00869709
1994,0348;0,00841594
1994,9990;0,00810025
1995,9633;0,00784474
1996,9275;0,00768711
1997,8917;0,00760339
1998,8560;0,00753578
1999,8202;0,00743931
2000,7844;0,00731861
2001,7487;0,0072284
2002,7129;0,00723804
2003,6771;0,0073866
2004,6414;0,00765716
2005,6056;0,00798225
2006,5698;0,00827779
2007,5341;0,00848326
2008,4983;0,00858582
2009,4625;0,00861812
2010,4268;0,00863735
2011,3910;0,00869952
2012,3552;0,00883652
2013,3195;0,00903964
2014,2837;0,00925466
2015,2479;0,00939699
2016,2122;0,00938925
2017,1764;0,00920579
2018,1406;0,00889287
2019,1049;0,00854554
2020,0691;0,00825927
2021,0333;0,00809253
2021,9976;0,00805919
2022,9618;0,00814211
2023,9260;0,00830984
2024,8903;0,008525
2025,8545;0,00874516
2026,8187;0,0089238
2027,7830;0,00901723
2028,7472;0,00899647
2029,7114;0,00885722
2030,6757;0,00862269
2031,6399;0,00833931
2032,6041;0,0080677
2033,5684;0,00787274
2034,5326;0,00781086
2035,4968;0,00791572
2036,4611;0,00818344
2037,4253;0,00856809
2038,3895;0,00898553
2039,3538;0,00932958
2040,3180;0,00950046
2041,2822;0,00944085
2042,2465;0,00916496
2043,2107;0,0087622
2044,1749;0,00837014
2045,1392;0,00812644
2046,1034;0,00811653
2047,0676;0,00833555
2048,0320;0,00868723
2048,9961;0,00903148
2049,9604;0,00925653
2050,9246;0,00932867
2051,8889;0,00929371
2052,8530;0,00924029
2053,8174;0,00924947
2054,7815;0,00935094
2055,7458;0,00950829
2056,7100;0,0096401
2057,6743;0,00966892
2058,6384;0,00956823
2059,6028;0,0093784
2060,5669;0,0091838
2061,5313;0,00906741
2062,4954;0,00907004
2063,4597;0,00917625
2064,4238;0,0093322
2065,3882;0,00948073
2066,3523;0,0095895
2067,3167;0,00965594
2068,2808;0,00969284
2069,2451;0,00971094
2070,2092;0,00971174
2071,1736;0,00969162
2072,1377;0,00964854
2073,1021;0,00958698
2074,0662;0,00951672
2075,0305;0,00944968
2075,9946;0,00939707
2076,9590;0,00936708
2077,9231;0,00936088
2078,8875;0,00936895
2079,8516;0,00937275
2080,8159;0,00935499
2081,7800;0,00931497
2082,7444;0,0092782
2083,7085;0,00929046
2084,6729;0,00939412
2085,6370;0,00959995
2086,6013;0,00986996
2087,5654;0,0101262
2088,5298;0,0102832
2089,4939;0,0102892
2090,4583;0,0101527
2091,4224;0,00993959
2092,3867;0,00974322
2093,3508;0,00964284
2094,3152;0,00967124
2095,2793;0,00980499
2096,2437;0,00998059
2097,2078;0,0101266
2098,1721;0,0101947
2099,1362;0,0101743
2100,1006;0,0100907
2101,0647;0,00997891
2102,0291;0,00988053
2102,9932;0,00981856
2103,9575;0,00979557
2104,9216;0,00979914
2105,8860;0,00981352
2106,8501;0,00983049
2107,8145;0,00985221
2108,7786;0,00988487
2109,7429;0,00992861
2110,7070;0,00997293
2111,6714;0,0100025
2112,6355;0,0100093
2113,5999;0,0100007
2114,5640;0,00999582
2115,5283;0,0100119
2116,4924;0,0100502
2117,4568;0,0100941
2118,4209;0,0101195
2119,3853;0,0101121
2120,3494;0,0100781
2121,3137;0,010042
2122,2778;0,0100328
2123,2422;0,0100687
2124,2063;0,0101485
2125,1707;0,0102539
2126,1348;0,0103584
2127,0991;0,0104391
2128,0632;0,0104861
2129,0276;0,0105076
2129,9917;0,0105285
2130,9561;0,0105811
2131,9202;0,0106896
2132,8845;0,0108552
2133,8486;0,0110487
2134,8130;0,0112211
2135,7771;0,011327
2136,7415;0,0113498
2137,7056;0,0113112
2138,6699;0,0112579
2139,6340;0,0112368
2140,5984;0,0112709
2141,5625;0,0113496
2142,5269;0,0114371
2143,4910;0,0114954
2144,4553;0,0115095
2145,4194;0,0115008
2146,3838;0,0115189
2147,3479;0,0116128
2148,3123;0,0117995
2149,2764;0,0120508
2150,2407;0,0123064
2151,2048;0,0125064
2152,1692;0,0126188
2153,1333;0,0126472
2154,0977;0,0126161
2155,0618;0,0125491
2156,0261;0,0124561
2156,9902;0,0123349
2157,9546;0,012181
2158,9187;0,0119929
2159,8831;0,0117729
2160,8472;0,0115292
2161,8115;0,0112821
2162,7756;0,0110652
2163,7400;0,0109118
2164,7041;0,010833
2165,6685;0,0108037
2166,6326;0,0107737
2167,5969;0,0107
2168,5610;0,0105783
2169,5254;0,0104504
2170,4895;0,0103838
2171,4539;0,0104397
2172,4180;0,0106468
2173,3823;0,0109926
2174,3464;0,0114264
2175,3108;0,0118693
2176,2749;0,0122288
2177,2393;0,0124218
2178,2034;0,0124031
2179,1677;0,01219
2180,1318;0,0118651
2181,0962;0,011547
2182,0603;0,0113375
2183,0247;0,0112721
2183,9888;0,0113084
2184,9531;0,0113585
2185,9172;0,0113428
2186,8816;0,0112296
2187,8457;0,0110427
2188,8101;0,01084
2189,7742;0,0106826
2190,7385;0,0106104
2191,7026;0,0106308
2192,6670;0,010722
2193,6311;0,0108432
2194,5955;0,0109488
2195,5596;0,011002
2196,5239;0,0109844
2197,4880;0,0108987
2198,4524;0,0107651
2199,4165;0,0106133
2200,3809;0,0104724
2201,3450;0,0103627
2202,3093;0,0102906
2203,2734;0,0102496
2204,2378;0,0102294
2205,2019;0,0102277
2206,1663;0,010259
2207,1304;0,0103484
2208,0947;0,0105109
2209,0588;0,0107288
2210,0232;0,0109443
2210,9873;0,0110793
2211,9517;0,0110744
2212,9158;0,0109246
2213,8801;0,0106849
2214,8442;0,0104424
2215,8086;0,0102701
2216,7727;0,0101925
2217,7371;0,0101831
2218,7012;0,0101911
2219,6655;0,0101772
2220,6296;0,0101367
2221,5940;0,0100964
2222,5581;0,0100937
2223,5225;0,0101511
2224,4866;0,0102602
2225,4509;0,010383
2226,4150;0,010468
2227,3794;0,0104735
2228,3435;0,0103921
2229,3079;0,0102564
2230,2720;0,0101259
2231,2363;0,0100598
2232,2004;0,0100903
2233,1648;0,01021
2234,1289;0,0103805
2235,0933;0,0105539
2236,0574;0,0106933
2237,0217;0,0107815
2237,9858;0,0108193
2238,9502;0,0108169
2239,9143;0,0107899
2240,8787;0,010757
2241,8428;0,0107364
2242,8071;0,0107403
2243,7712;0,0107674
2244,7356;0,0108019
2245,6997;0,0108215
2246,6641;0,0108105
2247,6282;0,0107695
2248,5925;0,0107166
2249,5566;0,0106779
2250,5210;0,0106753
2251,4851;0,0107173
2252,4495;0,0107965
2253,4136;0,0108931
2254,3779;0,0109824
2255,3420;0,0110425
2256,3064;0,0110611
2257,2705;0,0110394
2258,2349;0,0109916
2259,1990;0,0109404
2260,1633;0,0109097
2261,1274;0,0109163
2262,0918;0,0109646
2263,0559;0,0110444
2264,0203;0,0111353
2264,9844;0,0112142
2265,9487;0,0112655
2266,9128;0,011286
2267,8772;0,0112854
2268,8413;0,0112783
2269,8057;0,0112757
2270,7698;0,0112794
2271,7341;0,0112835
2272,6982;0,0112797
2273,6626;0,0112632
2274,6267;0,0112338
2275,5911;0,0111945
2276,5552;0,0111489
2277,5195;0,0111015
2278,4836;0,011061
2279,4480;0,0110411
2280,4121;0,0110592
2281,3765;0,0111309
2282,3406;0,0112647
2283,3049;0,0114599
2284,2690;0,0117072
2285,2334;0,0119933
2286,1975;0,0123064
2287,1619;0,0126414
2288,1260;0,013002
2289,0903;0,0133977
2290,0544;0,0138352
2291,0188;0,0143092
2291,9829;0,0147997
2292,9473;0,0152792
2293,9114;0,0157256
2294,8757;0,0161325
2295,8398;0,0165075
2296,8042;0,0168588
2297,7683;0,01718
2298,7327;0,0174484
2299,6968;0,0176402
2300,6611;0,0177546
2301,6252;0,0178302
2302,5896;0,0179388
2303,5537;0,0181585
2304,5181;0,0185385
2305,4822;0,0190706
2306,4465;0,0196794
2307,4106;0,020238
2308,3750;0,0206033
2309,3391;0,020665
2310,3035;0,0203887
2311,2676;0,0198369
2312,2319;0,0191509
2313,1960;0,0184965
2314,1604;0,017997
2315,1245;0,0176903
2316,0889;0,0175333
2317,0530;0,017443
2318,0173;0,0173473
2318,9814;0,017218
2319,9458;0,0170768
2320,9099;0,0169778
2321,8743;0,0169778
2322,8384;0,0171033
2323,8027;0,0173245
2324,7668;0,017554
2325,7312;0,0176775
2326,6953;0,0176021
2327,6597;0,0172933
2328,6238;0,0167844
2329,5881;0,0161643
2330,5522;0,0155494
2331,5166;0,0150434
2332,4807;0,0146941
2333,4451;0,0144753
2334,4092;0,0143189
2335,3735;0,0141769
2336,3376;0,014071
2337,3020;0,014095
2338,2661;0,0143657
2339,2305;0,0149426
2340,1946;0,0157523
2341,1589;0,0165565
2342,1230;0,0170189
2343,0874;0,0169506
2344,0515;0,016639
2345,0159;0,0167645
2345,9800;0,0177522
2346,9443;0,0193388
2347,9084;0,0208282
2348,8728;0,0215956
2349,8369;0,0213998
2350,8013;0,0204402
2351,7654;0,0192168
2352,7297;0,0182493
2353,6938;0,0177976
2354,6582;0,0178122
2355,6223;0,0181239
2356,5867;0,0185839
2357,5508;0,0190338
2358,5151;0,0192841
2359,4792;0,0192148
2360,4436;0,0188694
2361,4077;0,0183943
2362,3721;0,0178858
2363,3362;0,0173262
2364,3005;0,016657
2365,2646;0,0158761
2366,2290;0,015055
2367,1931;0,0142824
2368,1575;0,013612
2369,1216;0,0130561
2370,0859;0,0126087
2371,0500;0,0122647
2372,0144;0,0120288
2372,9785;0,0119181
2373,9429;0,0119627
2374,9070;0,012196
2375,8713;0,0126333
2376,8354;0,0132483
2377,7998;0,013962
2378,7639;0,0146534
2379,7283;0,0151889
2380,6924;0,0154593
2381,6567;0,0154088
2382,6208;0,0150479
2383,5852;0,014446
2384,5493;0,0137101
2385,5137;0,0129557
2386,4778;0,0122787
2387,4421;0,0117382
2388,4063;0,0113511
2389,3706;0,0111012
2390,3347;0,0109548
2391,2991;0,010876
2392,2632;0,010836
2393,2275;0,010816
2394,1917;0,0108039
2395,1560;0,0107923
2396,1201;0,0107771
2397,0845;0,0107591
2398,0486;0,0107458
2399,0129;0,0107442
2399,9771;0,0107581
2400,9414;0,0107859
2401,9055;0,0108196
2402,8699;0,010851
2403,8340;0,0108758
2404,7983;0,0108964
2405,7625;0,0109182
2406,7268;0,0109448
2407,6909;0,0109747
2408,6553;0,0110036
2409,6194;0,0110274
2410,5837;0,0110481
2411,5479;0,0110736
2412,5122;0,011113
2413,4763;0,0111696
2414,4407;0,0112368
2415,4048;0,0112994
2416,3691;0,0113401
2417,3333;0,0113488
2418,2976;0,0113278
2419,2617;0,011291
2420,2261;0,0112566
2421,1902;0,0112371
2422,1545;0,0112352
2423,1187;0,0112448
2424,0830;0,0112583
2425,0471;0,0112733
2426,0115;0,0112951
2426,9756;0,0113318
2427,9399;0,0113861
2428,9041;0,0114509
2429,8684;0,0115112
2430,8325;0,0115522
2431,7969;0,0115684
2432,7610;0,0115657
2433,7253;0,0115572
2434,6895;0,0115541
2435,6538;0,0115596
2436,6179;0,0115685
2437,5823;0,0115732
2438,5464;0,01157
2439,5107;0,0115629
2440,4749;0,0115607
2441,4392;0,0115719
2442,4033;0,0116003
2443,3677;0,0116429
2444,3318;0,0116918
2445,2961;0,0117361
2446,2603;0,0117662
2447,2246;0,0117762
2448,1887;0,0117669
2449,1531;0,0117463
2450,1172;0,0117268
2451,0815;0,0117201
2452,0457;0,0117322
2453,0100;0,0117614
2453,9741;0,0118012
2454,9385;0,0118448
2455,9026;0,0118884
2456,8669;0,0119308
2457,8311;0,0119697
2458,7954;0,0120004
2459,7595;0,0120169
2460,7239;0,0120171
2461,6880;0,0120059
2462,6523;0,0119952
2463,6165;0,0119981
2464,5808;0,0120222
2465,5449;0,0120653
2466,5093;0,0121174
2467,4734;0,0121657
2468,4377;0,0122014
2469,4019;0,0122228
2470,3662;0,012235
2471,3303;0,0122452
2472,2947;0,0122583
2473,2588;0,0122733
2474,2231;0,0122845
2475,1873;0,0122859
2476,1516;0,0122766
2477,1157;0,0122641
2478,0801;0,0122618
2479,0442;0,0122819
2480,0085;0,012327
2480,9727;0,0123864
2481,9370;0,0124405
2482,9011;0,0124705
2483,8655;0,0124695
2484,8296;0,0124459
2485,7939;0,0124202
2486,7581;0,012413
2487,7224;0,0124346
2488,6865;0,0124792
2489,6509;0,0125287
2490,6150;0,0125628
2491,5793;0,0125702
2492,5435;0,0125541
2493,5078;0,0125296
2494,4719;0,0125143
2495,4363;0,0125192
2496,4004;0,0125439
2497,3647;0,0125798
2498,3289;0,0126173
2499,2932;0,0126519
2500,2573;0,0126846
2501,2217;0,0127187
2502,1858;0,012754
2503,1501;0,0127864
2504,1143;0,0128106
2505,0786;0,0128252
2506,0427;0,0128341
2507,0071;0,0128439
2507,9712;0,0128587
2508,9355;0,0128761
2509,8997;0,012888
2510,8640;0,0128861
2511,8281;0,0128674
2512,7925;0,0128378
2513,7566;0,0128101
2514,7209;0,0127989
2515,6851;0,0128131
2516,6494;0,0128522
2517,6135;0,0129061
2518,5779;0,01296
2519,5420;0,0130011
2520,5063;0,0130238
2521,4705;0,0130308
2522,4348;0,0130299
2523,3989;0,0130279
2524,3633;0,0130274
2525,3274;0,0130259
2526,2917;0,0130199
2527,2559;0,0130087
2528,2202;0,0129972
2529,1843;0,0129933
2530,1487;0,0130038
2531,1128;0,0130302
2532,0771;0,0130673
2533,0413;0,0131057
2534,0056;0,0131367
2534,9697;0,0131556
2535,9341;0,0131627
2536,8982;0,0131612
2537,8625;0,0131532
2538,8267;0,0131393
2539,7910;0,0131192
2540,7551;0,0130947
2541,7195;0,0130714
2542,6836;0,0130573
2543,6479;0,0130585
2544,6121;0,0130767
2545,5764;0,013108
2546,5405;0,0131454
2547,5049;0,0131807
2548,4690;0,0132061
2549,4333;0,0132145
2550,3975;0,0131998
2551,3618;0,013161
2552,3259;0,0131053
2553,2903;0,0130499
2554,2544;0,0130169
2555,2188;0,0130244
2556,1829;0,0130755
2557,1472;0,0131556
2558,1113;0,0132369
2559,0757;0,0132914
2560,0398;0,013303
2561,0042;0,0132752
2561,9683;0,0132273
2562,9326;0,0131844
2563,8967;0,013165
2564,8611;0,0131737
2565,8252;0,013201
2566,7896;0,013231
2567,7537;0,0132511
2568,7180;0,0132571
2569,6821;0,0132536
2570,6465;0,0132475
2571,6106;0,0132424
2572,5750;0,0132367
2573,5391;0,0132267
2574,5034;0,0132118
2575,4675;0,0131961
2576,4319;0,0131863
2577,3960;0,0131861
2578,3604;0,0131939
2579,3245;0,0132047
2580,2888;0,0132155
2581,2529;0,0132285
2582,2173;0,0132494
2583,1814;0,0132812
2584,1458;0,0133188
2585,1099;0,0133497
2586,0742;0,013361
2587,0383;0,0133479
2588,0027;0,0133186
2588,9668;0,0132906
2589,9312;0,0132821
2590,8953;0,0133032
2591,8596;0,0133508
2592,8237;0,0134118
2593,7881;0,0134689
2594,7522;0,0135079
2595,7166;0,0135226
2596,6807;0,0135158
2597,6450;0,0134971
2598,6091;0,0134782
2599,5735;0,0134684
2600,5376;0,0134715
2601,5020;0,0134863
2602,4661;0,0135091
2603,4304;0,0135367
2604,3945;0,013567
2605,3589;0,0135985
2606,3230;0,0136282
2607,2874;0,013652
2608,2515;0,0136668
2609,2158;0,0136729
2610,1799;0,0136742
2611,1443;0,013676
2612,1084;0,0136815
2613,0728;0,0136908
2614,0369;0,0137019
2615,0012;0,0137143
2615,9653;0,0137297
2616,9297;0,0137511
2617,8938;0,0137791
2618,8582;0,0138105
2619,8223;0,0138398
2620,7866;0,0138628
2621,7507;0,0138787
2622,7151;0,0138905
2623,6792;0,0139018
2624,6436;0,0139144
2625,6077;0,0139283
2626,5720;0,0139427
2627,5361;0,0139588
2628,5005;0,0139789
2629,4646;0,014005
2630,4290;0,0140364
2631,3931;0,0140698
2632,3574;0,0141013
2633,3215;0,014129
2634,2859;0,0141548
2635,2500;0,0141827
2636,2144;0,014215
2637,1785;0,0142503
2638,1428;0,0142823
2639,1069;0,0143041
2640,0713;0,0143125
2641,0354;0,0143112
2641,9998;0,0143095
2642,9639;0,0143179
2643,9282;0,0143416
2644,8923;0,0143779
2645,8567;0,0144177
2646,8208;0,0144514
2647,7852;0,0144742
2648,7493;0,0144889
2649,7136;0,0145031
2650,6777;0,0145239
2651,6421;0,0145538
2652,6062;0,0145899
2653,5706;0,0146271
2654,5347;0,0146618
2655,4990;0,0146938
2656,4631;0,0147255
2657,4275;0,0147594
2658,3916;0,0147955
2659,3560;0,0148319
2660,3201;0,0148662
2661,2844;0,0148977
2662,2485;0,0149275
2663,2129;0,0149579
2664,1770;0,01499
2665,1414;0,0150232
2666,1055;0,0150551
2667,0698;0,0150832
2668,0339;0,015106
2668,9983;0,0151243
2669,9624;0,0151414
2670,9268;0,0151618
2671,8909;0,0151902
2672,8552;0,015229
2673,8193;0,0152763
2674,7837;0,0153253
2675,7478;0,0153661
2676,7122;0,0153907
2677,6763;0,0153977
2678,6406;0,0153944
2679,6047;0,0153947
2680,5691;0,0154113
2681,5332;0,015449
2682,4976;0,0155016
2683,4617;0,0155547
2684,4260;0,0155948
2685,3901;0,0156162
2686,3545;0,0156245
2687,3186;0,0156317
2688,2830;0,0156493
2689,2471;0,0156815
2690,2114;0,0157239
2691,1755;0,0157674
2692,1399;0,0158044
2693,1040;0,0158322
2694,0684;0,015854
2695,0325;0,0158751
2695,9968;0,0159001
2696,9609;0,0159304
2697,9253;0,0159648
2698,8894;0,0160011
2699,8538;0,0160373
2700,8179;0,0160722
2701,7822;0,0161052
2702,7463;0,0161361
2703,7107;0,0161655
2704,6748;0,016195
2705,6392;0,0162268
2706,6033;0,0162625
2707,5676;0,0163023
2708,5317;0,0163445
2709,4961;0,0163863
2710,4602;0,0164257
2711,4246;0,0164626
2712,3887;0,0164988
2713,3530;0,0165367
2714,3171;0,0165776
2715,2815;0,016621
2716,2456;0,0166658
2717,2100;0,0167107
2718,1741;0,0167559
2719,1384;0,0168013
2720,1025;0,0168458
2721,0669;0,0168861
2722,0310;0,016918
2722,9954;0,0169389
2723,9595;0,01695
2724,9238;0,0169565
2725,8879;0,0169658
2726,8523;0,0169842
2727,8164;0,0170144
2728,7808;0,0170546
2729,7449;0,0171001
2730,7092;0,0171452
2731,6733;0,0171852
2732,6377;0,0172172
2733,6018;0,0172406
2734,5662;0,0172572
2735,5303;0,0172709
2736,4946;0,0172864
2737,4587;0,017308
2738,4231;0,0173374
2739,3872;0,0173733
2740,3516;0,0174118
2741,3157;0,017448
2742,2800;0,017478
2743,2441;0,0175002
2744,2085;0,0175157
2745,1726;0,0175272
2746,1370;0,0175382
2747,1011;0,0175518
2748,0654;0,0175697
2749,0295;0,017593
2749,9939;0,0176215
2750,9580;0,0176551
2751,9224;0,0176935
2752,8865;0,0177366
2753,8508;0,0177837
2754,8149;0,0178336
2755,7793;0,0178839
2756,7434;0,0179319
2757,7078;0,0179749
2758,6719;0,0180116
2759,6362;0,0180419
2760,6003;0,0180672
2761,5647;0,0180895
2762,5288;0,0181117
2763,4932;0,0181367
2764,4573;0,0181673
2765,4216;0,0182061
2766,3857;0,0182539
2767,3501;0,0183095
2768,3142;0,0183687
2769,2786;0,0184257
2770,2427;0,0184748
2771,2070;0,0185133
2772,1711;0,0185428
2773,1355;0,018569
2774,0996;0,0185993
2775,0640;0,0186403
2776,0281;0,0186952
2776,9924;0,0187632
2777,9565;0,0188407
2778,9209;0,0189222
2779,8850;0,0190027
2780,8494;0,0190779
2781,8135;0,0191454
2782,7778;0,0192042
2783,7419;0,0192553
2784,7063;0,0193007
2785,6704;0,019343
2786,6348;0,0193849
2787,5989;0,0194297
2788,5632;0,0194813
2789,5273;0,0195433
2790,4917;0,0196184
2791,4558;0,0197055
2792,4202;0,0197996
2793,3843;0,0198928
2794,3486;0,0199781
2795,3127;0,0200526
2796,2771;0,02012
2797,2412;0,0201882
2798,2056;0,0202659
2799,1697;0,0203571
2800,1340;0,0204599
2801,0981;0,0205682
2802,0625;0,020676
2803,0266;0,0207809
2803,9910;0,0208844
2804,9551;0,0209891
2805,9194;0,021096
2806,8835;0,021203
2807,8479;0,0213071
2808,8120;0,021407
2809,7764;0,0215053
2810,7405;0,0216075
2811,7048;0,0217192
2812,6689;0,0218434
2813,6333;0,0219803
2814,5974;0,0221284
2815,5618;0,0222859
2816,5259;0,0224517
2817,4902;0,0226238
2818,4543;0,0227994
2819,4187;0,0229748
2820,3828;0,0231474
2821,3472;0,023318
2822,3113;0,0234905
2823,2756;0,0236712
2824,2397;0,0238663
2825,2041;0,0240796
2826,1682;0,0243114
2827,1326;0,0245591
2828,0967;0,0248185
2829,0610;0,0250865
2830,0251;0,0253625
2830,9895;0,0256495
2831,9536;0,0259525
2832,9180;0,0262761
2833,8821;0,026622
2834,8464;0,0269891
2835,8105;0,027376
2836,7749;0,0277852
2837,7390;0,0282253
2838,7034;0,0287114
2839,6675;0,029262
2840,6318;0,0298949
2841,5959;0,0306235
2842,5603;0,0314537
2843,5244;0,0323794
2844,4888;0,0333779
2845,4529;0,0344048
2846,4172;0,0353948
2847,3813;0,03627
2848,3457;0,0369565
2849,3098;0,037404
2850,2742;0,037599
2851,2383;0,0375666
2852,2026;0,0373595
2853,1667;0,0370403
2854,1311;0,036665
2855,0952;0,0362738
2856,0596;0,0358909
2857,0237;0,0355297
2857,9880;0,0351998
2858,9521;0,0349105
2859,9165;0,0346719
2860,8806;0,0344924
2861,8450;0,0343769
2862,8091;0,0343257
2863,7734;0,0343342
2864,7375;0,0343944
2865,7019;0,0344957
2866,6660;0,0346252
2867,6304;0,0347685
2868,5945;0,0349103
2869,5588;0,035036
2870,5229;0,035134
2871,4873;0,0351982
2872,4514;0,0352295
2873,4158;0,0352362
2874,3799;0,035232
2875,3442;0,0352321
2876,3083;0,0352489
2877,2727;0,0352892
2878,2368;0,0353528
2879,2012;0,0354349
2880,1653;0,0355293
2881,1296;0,0356321
2882,0938;0,0357432
2883,0581;0,0358658
2884,0222;0,0360035
2884,9866;0,036158
2885,9507;0,0363288
2886,9150;0,0365138
2887,8792;0,0367111
2888,8435;0,0369183
2889,8076;0,0371324
2890,7720;0,037348
2891,7361;0,0375583
2892,7004;0,0377582
2893,6646;0,0379467
2894,6289;0,0381288
2895,5930;0,0383129
2896,5574;0,0385062
2897,5215;0,0387113
2898,4858;0,0389246
2899,4500;0,0391399
2900,4143;0,0393529
2901,3784;0,0395649
2902,3428;0,0397837
2903,3069;0,0400216
2904,2712;0,0402912
2905,2354;0,0406022
2906,1997;0,0409608
2907,1638;0,0413719
2908,1282;0,0418427
2909,0923;0,0423837
2910,0566;0,0430061
2911,0208;0,0437129
2911,9851;0,0444886
2912,9492;0,0452933
2913,9136;0,046066
2914,8777;0,0467376
2915,8420;0,0472501
2916,8062;0,0475713
2917,7705;0,047701
2918,7346;0,0476641
2919,6990;0,0474968
2920,6631;0,0472335
2921,6274;0,0468986
2922,5916;0,0465057
2923,5559;0,0460624
2924,5200;0,0455749
2925,4844;0,0450514
2926,4485;0,0445035
2927,4128;0,043944
2928,3770;0,0433844
2929,3413;0,0428329
2930,3054;0,0422923
2931,2698;0,0417612
2932,2339;0,0412361
2933,1982;0,0407139
2934,1624;0,0401942
2935,1267;0,0396793
2936,0908;0,0391723
2937,0552;0,038676
2938,0193;0,038192
2938,9836;0,0377201
2939,9478;0,0372593
2940,9121;0,0368084
2941,8762;0,0363676
2942,8406;0,0359401
2943,8047;0,0355327
2944,7690;0,035156
2945,7332;0,0348204
2946,6975;0,0345325
2947,6616;0,034292
2948,6260;0,0340921
2949,5901;0,0339209
2950,5544;0,0337656
2951,5186;0,0336135
2952,4829;0,0334534
2953,4470;0,0332759
2954,4114;0,033075
2955,3755;0,0328499
2956,3398;0,0326054
2957,3040;0,03235
2958,2683;0,0320923
2959,2324;0,0318373
2960,1968;0,0315853
2961,1609;0,0313326
2962,1252;0,0310742
2963,0894;0,0308049
2964,0537;0,0305204
2965,0178;0,0302185
2965,9822;0,0299009
2966,9463;0,0295738
2967,9106;0,0292467
2968,8748;0,0289288
2969,8391;0,0286249
2970,8032;0,0283341
2971,7676;0,0280523
2972,7317;0,0277765
2973,6960;0,0275074
2974,6602;0,0272492
2975,6245;0,0270057
2976,5886;0,0267773
2977,5530;0,0265608
2978,5171;0,0263521
2979,4814;0,0261499
2980,4456;0,0259569
2981,4099;0,025778
2982,3740;0,0256174
2983,3384;0,0254754
2984,3025;0,025349
2985,2668;0,0252338
2986,2310;0,0251258
2987,1953;0,025024
2988,1594;0,0249299
2989,1238;0,0248475
2990,0879;0,0247804
2991,0522;0,0247297
2992,0164;0,024692
2992,9807;0,0246591
2993,9448;0,0246215
2994,9092;0,0245737
2995,8733;0,0245181
2996,8376;0,024466
2997,8018;0,0244332
2998,7661;0,0244322
2999,7302;0,0244661
3000,6946;0,0245264
3001,6587;0,0245972
3002,6230;0,0246623
3003,5872;0,0247135
3004,5515;0,0247526
3005,5156;0,0247899
3006,4800;0,024837
3007,4441;0,0249008
3008,4084;0,0249795
3009,3726;0,0250645
3010,3369;0,0251437
3011,3010;0,0252065
3012,2654;0,0252467
3013,2295;0,0252633
3014,1938;0,0252597
3015,1580;0,025243
3016,1223;0,0252241
3017,0864;0,025216
3018,0508;0,025232
3019,0149;0,0252802
3019,9792;0,0253593
3020,9434;0,0254578
3021,9077;0,0255583
3022,8718;0,0256463
3023,8362;0,0257188
3024,8003;0,0257876
3025,7646;0,0258736
3026,7288;0,0259951
3027,6931;0,0261563
3028,6572;0,0263424
3029,6216;0,0265249
3030,5857;0,0266742
3031,5500;0,0267724
3032,5142;0,0268204
3033,4785;0,0268357
3034,4426;0,026842
3035,4070;0,0268593
3036,3711;0,026898
3037,3354;0,026959
3038,2996;0,0270373
3039,2639;0,027126
3040,2280;0,0272202
3041,1924;0,0273197
3042,1565;0,0274291
3043,1208;0,0275562
3044,0850;0,0277066
3045,0493;0,0278788
3046,0134;0,0280608
3046,9778;0,0282341
3047,9419;0,0283812
3048,9063;0,0284957
3049,8704;0,0285871
3050,8347;0,0286773
3051,7988;0,0287891
3052,7632;0,0289347
3053,7273;0,0291087
3054,6917;0,0292912
3055,6558;0,0294579
3056,6201;0,0295938
3057,5842;0,0297013
3058,5486;0,0297997
3059,5127;0,0299145
3060,4771;0,0300644
3061,4412;0,0302513
3062,4055;0,0304584
3063,3696;0,030657
3064,3340;0,0308187
3065,2981;0,0309276
3066,2625;0,0309867
3067,2266;0,0310159
3068,1909;0,0310423
3069,1550;0,0310901
3070,1194;0,0311729
3071,0835;0,0312921
3072,0479;0,0314393
3073,0120;0,031602
3073,9763;0,0317684
3074,9404;0,0319309
3075,9048;0,0320873
3076,8689;0,0322379
3077,8333;0,0323834
3078,7974;0,0325207
3079,7617;0,0326439
3080,7258;0,0327462
3081,6902;0,032825
3082,6543;0,0328848
3083,6187;0,0329371
3084,5828;0,0329959
3085,5471;0,0330725
3086,5112;0,0331719
3087,4756;0,033293
3088,4397;0,0334315
3089,4041;0,0335838
3090,3682;0,0337476
3091,3325;0,0339204
3092,2966;0,0340976
3093,2610;0,0342721
3094,2251;0,0344382
3095,1895;0,0345947
3096,1536;0,0347464
3097,1179;0,0349005
3098,0820;0,0350608
3099,0464;0,0352241
3100,0105;0,0353811
3100,9749;0,035522
3101,9390;0,035642
3102,9033;0,0357437
3103,8674;0,0358347
3104,8318;0,0359228
3105,7959;0,0360138
3106,7603;0,0361114
3107,7244;0,0362206
3108,6887;0,0363485
3109,6528;0,0365021
3110,6172;0,0366841
3111,5813;0,0368893
3112,5457;0,0371051
3113,5098;0,0373161
3114,4741;0,0375105
3115,4382;0,0376841
3116,4026;0,0378415
3117,3667;0,0379918
3118,3311;0,0381434
3119,2952;0,0383007
3120,2595;0,0384631
3121,2236;0,0386264
3122,1880;0,0387844
3123,1521;0,0389306
3124,1165;0,0390598
3125,0806;0,039171
3126,0449;0,0392698
3127,0090;0,0393696
3127,9734;0,0394873
3128,9375;0,0396369
3129,9019;0,0398219
3130,8660;0,0400326
3131,8303;0,0402494
3132,7944;0,0404519
3133,7588;0,0406285
3134,7229;0,0407802
3135,6873;0,040918
3136,6514;0,0410555
3137,6157;0,0412021
3138,5798;0,0413598
3139,5442;0,0415251
3140,5083;0,0416927
3141,4727;0,0418594
3142,4368;0,0420264
3143,4011;0,0421983
3144,3652;0,0423802
3145,3296;0,0425744
3146,2937;0,0427785
3147,2581;0,0429862
3148,2222;0,0431908
3149,1865;0,0433894
3150,1506;0,0435837
3151,1150;0,0437781
3152,0791;0,043975
3153,0435;0,044172
3154,0076;0,0443636
3154,9719;0,044546
3155,9360;0,0447219
3156,9004;0,0448998
3157,8645;0,0450896
3158,8289;0,0452957
3159,7930;0,0455146
3160,7573;0,0457375
3161,7214;0,0459561
3162,6858;0,0461678
3163,6499;0,0463759
3164,6143;0,0465853
3165,5784;0,0467984
3166,5427;0,0470125
3167,5068;0,0472216
3168,4712;0,0474205
3169,4353;0,0473992
3170,3997;0,0475815
3171,3638;0,0477677
3172,3281;0,047966
3173,2922;0,0481814
3174,2566;0,0484139
3175,2207;0,048658
3176,1851;0,048904
3177,1492;0,0491411
3178,1135;0,0493609
3179,0776;0,0495612
3180,0420;0,0497461
3181,0061;0,0499237
3181,9705;0,0501022
3182,9346;0,0502866
3183,8989;0,0504776
3184,8630;0,0506728
3185,8274;0,0508687
3186,7915;0,0510625
3187,7559;0,0512525
3188,7200;0,0514387
3189,6843;0,0516226
3190,6484;0,0518073
3191,6128;0,0519974
3192,5769;0,0521969
3193,5413;0,0524071
3194,5054;0,052624
3195,4697;0,0528386
3196,4338;0,05304
3197,3982;0,0532209
3198,3623;0,0533823
3199,3267;0,0535328
3200,2908;0,0536847
3201,2551;0,0538476
3202,2192;0,0540256
3203,1836;0,0542167
3204,1477;0,0544164
3205,1121;0,0546202
3206,0762;0,0548255
3207,0405;0,0550298
3208,0046;0,0552315
3208,9690;0,0554292
3209,9331;0,0556235
3210,8975;0,0558183
3211,8616;0,0560191
3212,8259;0,0562305
3213,7900;0,056452
3214,7544;0,0566771
3215,7185;0,0568948
3216,6829;0,0570947
3217,6470;0,0572707
3218,6113;0,0574246
3219,5754;0,057565
3220,5398;0,0577045
3221,5039;0,0578547
3222,4683;0,0580226
3223,4324;0,0582082
3224,3967;0,0584064
3225,3608;0,0586095
3226,3252;0,0588105
3227,2893;0,059005
3228,2537;0,0591909
3229,2178;0,059368
3230,1821;0,0595373
3231,1462;0,0597008
3232,1106;0,0598616
3233,0747;0,060024
3234,0391;0,0601925
3235,0032;0,0603706
3235,9675;0,0605594
3236,9316;0,0607579
3237,8960;0,0609635
3238,8601;0,0611733
3239,8245;0,0613849
3240,7886;0,0615972
3241,7529;0,0618096
3242,7170;0,0620223
3243,6814;0,0622343
3244,6455;0,0624435
3245,6099;0,0626465
3246,5740;0,0628408
3247,5383;0,063027
3248,5024;0,06321
3249,4668;0,0633983
3250,4309;0,0636004
3251,3953;0,0638189
3252,3594;0,0640477
3253,3237;0,0642742
3254,2878;0,0644859
3255,2522;0,0646788
3256,2163;0,0648607
3257,1807;0,0650467
3258,1448;0,0652514
3259,1091;0,0654806
3260,0732;0,0657296
3261,0376;0,0659858
3262,0017;0,0662352
3262,9661;0,0664673
3263,9302;0,0666781
3264,8945;0,0668705
3265,8586;0,0670526
3266,8230;0,0672352
3267,7871;0,0674288
3268,7515;0,0676388
3269,7156;0,067862
3270,6799;0,0680865
3271,6440;0,0682951
3272,6084;0,0684724
3273,5725;0,0686106
3274,5369;0,068712
3275,5010;0,0687876
3276,4653;0,0688518
3277,4294;0,0689177
3278,3938;0,0689934
3279,3579;0,0690804
3280,3223;0,069173
3281,2864;0,0692606
3282,2507;0,0693313
3283,2148;0,0693786
3284,1792;0,0694058
3285,1433;0,0694265
3286,1077;0,0694579
3287,0718;0,0695105
3288,0361;0,0695823
3289,0002;0,0696575
3289,9646;0,0697148
3290,9287;0,0697383
3291,8931;0,0697259
3292,8572;0,0696884
3293,8215;0,0696434
3294,7856;0,0696053
3295,7500;0,06958
3296,7141;0,0695651
3297,6785;0,0695532
3298,6426;0,0695365
3299,6069;0,0695097
3300,5710;0,0694721
3301,5354;0,0694287
3302,4995;0,0693911
3303,4639;0,0693737
3304,4280;0,0693872
3305,3923;0,0694305
3306,3564;0,0694872
3307,3208;0,0695319
3308,2849;0,0695424
3309,2493;0,0695127
3310,2134;0,0694569
3311,1777;0,0694
3312,1418;0,069363
3313,1062;0,0693519
3314,0703;0,0693591
3315,0347;0,0693737
3315,9988;0,069393
3316,9631;0,0694258
3317,9272;0,0694847
3318,8916;0,0695755
3319,8557;0,0696919
3320,8201;0,0698193
3321,7842;0,069945
3322,7485;0,0700657
3323,7126;0,070186
3324,6770;0,0703101
3325,6411;0,0704342
3326,6055;0,0705454
3327,5696;0,07063
3328,5339;0,0706843
3329,4980;0,070719
3330,4624;0,0707532
3331,4265;0,0708037
3332,3909;0,0708744
3333,3550;0,0709526
3334,3193;0,0710154
3335,2834;0,0710397
3336,2478;0,0710135
3337,2119;0,0709391
3338,1763;0,0708302
3339,1404;0,0707031
3340,1047;0,0705695
3341,0688;0,0704339
3342,0332;0,0702949
3342,9973;0,0701498
3343,9617;0,0699974
3344,9258;0,0698389
3345,8901;0,069677
3346,8542;0,0695133
3347,8186;0,0693481
3348,7827;0,0691812
3349,7471;0,0690128
3350,7112;0,068844
3351,6755;0,0686757
3352,6396;0,068507
3353,6040;0,0683345
3354,5681;0,0681544
3355,5325;0,0679653
3356,4966;0,0677698
3357,4609;0,0675745
3358,4250;0,0673865
3359,3894;0,0672107
3360,3535;0,0670474
3361,3179;0,0668932
3362,2820;0,0667413
3363,2463;0,0665835
3364,2104;0,0664112
3365,1748;0,0662165
3366,1389;0,0659952
3367,1033;0,0657487
3368,0674;0,065485
3369,0317;0,0652172
3369,9958;0,0649584
3370,9602;0,0647182
3371,9243;0,0644994
3372,8887;0,0642987
3373,8528;0,064108
3374,8171;0,063918
3375,7813;0,0637211
3376,7456;0,0635147
3377,7097;0,0633034
3378,6741;0,0630986
3379,6382;0,0629137
3380,6025;0,0627564
3381,5667;0,0626213
3382,5310;0,0624891
3383,4951;0,0623345
3384,4595;0,0621415
3385,4236;0,0619159
3386,3879;0,0616854
3387,3521;0,0614849
3388,3164;0,0613367
3389,2805;0,0612371
3390,2449;0,0611582
3391,2090;0,0610631
3392,1733;0,0609251
3393,1375;0,0607405
3394,1018;0,060525
3395,0659;0,0602996
3396,0303;0,0600768
3396,9944;0,0598583
3397,9587;0,0596396
3398,9229;0,0594169
3399,8872;0,0591896
3400,8513;0,0589592
3401,8157;0,0587267
3402,7798;0,0584927
3403,7441;0,0582592
3404,7083;0,0580299
3405,6726;0,0578083
3406,6367;0,0575946
3407,6011;0,0573851
3408,5652;0,0571749
3409,5295;0,0569608
3410,4937;0,056743
3411,4580;0,056523
3412,4221;0,0563028
3413,3865;0,0560858
3414,3506;0,0558784
3415,3149;0,0556905
3416,2791;0,0555315
3417,2434;0,0554
3418,2075;0,0552776
3419,1719;0,0551301
3420,1360;0,0549216
3421,1003;0,0546333
3422,0645;0,0542752
3423,0288;0,0538809
3423,9929;0,0534909
3424,9573;0,0531372
3425,9214;0,0528353
3426,8857;0,0525831
3427,8499;0,0523647
3428,8142;0,0521557
3429,7783;0,0519317
3430,7427;0,0516762
3431,7068;0,0513854
3432,6711;0,0510681
3433,6353;0,0507415
3434,5996;0,0504243
3435,5637;0,0501314
3436,5281;0,0498714
3437,4922;0,0496474
3438,4565;0,0494586
3439,4207;0,0493015
3440,3850;0,04917
3441,3491;0,0490548
3442,3135;0,0489434
3443,2776;0,0488182
3444,2419;0,0486566
3445,2061;0,0484331
3446,1704;0,0481283
3447,1345;0,0477418
3448,0989;0,0473002
3449,0630;0,0468475
3450,0273;0,046425
3450,9915;0,0460562
3451,9558;0,0457445
3452,9199;0,045479
3453,8843;0,045244
3454,8484;0,0450274
3455,8127;0,0448252
3456,7769;0,0446399
3457,7412;0,0444729
3458,7053;0,0443184
3459,6697;0,0441612
3460,6338;0,0439818
3461,5981;0,0437649
3462,5623;0,0435061
3463,5266;0,043211
3464,4907;0,042889
3465,4551;0,0425478
3466,4192;0,0421938
3467,3835;0,0418375
3468,3477;0,0414975
3469,3120;0,0411968
3470,2761;0,0409505
3471,2405;0,0407535
3472,2046;0,0405792
3473,1689;0,0403927
3474,1331;0,0401746
3475,0974;0,039937
3476,0615;0,0397183
3477,0259;0,0395568
3477,9900;0,0394614
3478,9543;0,039399
3479,9185;0,0393078
3480,8828;0,0391326
3481,8469;0,0388612
3482,8113;0,0385329
3483,7754;0,038208
3484,7397;0,0379244
3485,7039;0,0376773
3486,6682;0,0374294
3487,6323;0,0371433
3488,5967;0,0368121
3489,5608;0,0364693
3490,5251;0,0361675
3491,4893;0,0359451
3492,4536;0,0358044
3493,4177;0,035712
3494,3821;0,0356208
3495,3462;0,0355015
3496,3105;0,0353651
3497,2747;0,0352562
3498,2390;0,0352176
3499,2031;0,0352524
3500,1675;0,0353062
3501,1316;0,0352795
3502,0959;0,0350788
3503,0601;0,0346873
3504,0244;0,034192
3504,9885;0,0337283
3505,9529;0,0333898
3506,9170;0,0331822
3507,8813;0,0330337
3508,8455;0,032842
3509,8098;0,0325343
3510,7739;0,0321128
3511,7383;0,0316468
3512,7024;0,0312197
3513,6667;0,0308813
3514,6309;0,0306367
3515,5952;0,0304664
3516,5593;0,0303539
3517,5237;0,0303017
3518,4878;0,0303271
3519,4521;0,0304421
3520,4163;0,0306303
3521,3806;0,030839
3522,3447;0,030993
3523,3091;0,0310258
3524,2732;0,030908
3525,2375;0,0306472
3526,2017;0,0302652
3527,1660;0,0297793
3528,1301;0,0292075
3529,0945;0,0285903
3530,0586;0,0279977
3531,0229;0,0275048
3531,9871;0,0271591
3532,9514;0,0269593
3533,9155;0,0268541
3534,8799;0,0267596
3535,8440;0,026598
3536,8083;0,026344
3537,7725;0,0260472
3538,7368;0,0258052
3539,7009;0,0257101
3540,6653;0,0258079
3541,6294;0,0260805
3542,5938;0,0264381
3543,5579;0,0267218
3544,5222;0,0267545
3545,4863;0,0264481
3546,4507;0,0258818
3547,4148;0,0252474
3548,3792;0,0247116
3549,3433;0,0243319
3550,3076;0,0240639
3551,2717;0,0238125
3552,2361;0,0234958
3553,2002;0,0231009
3554,1646;0,0226913
3555,1287;0,022355
3556,0930;0,0221467
3557,0571;0,0220729
3558,0215;0,0221093
3558,9856;0,0222261
3559,9500;0,0224076
3560,9141;0,022658
3561,8784;0,0229885
3562,8425;0,0233923
3563,8069;0,0238058
3564,7710;0,0240468
3565,7354;0,0238124
3566,6995;0,0229133
3567,6638;0,0215909
3568,6279;0,020369
3569,5923;0,0195699
3570,5564;0,0191676
3571,5208;0,0189817
3572,4849;0,0188604
3573,4492;0,018736
3574,4133;0,0186029
3575,3777;0,0184771
3576,3418;0,018367
3577,3062;0,0182668
3578,2703;0,0181693
3579,2346;0,0180844
3580,1987;0,0180415
3581,1631;0,0180713
3582,1272;0,0181843
3583,0916;0,0183648
3584,0557;0,0185729
3585,0200;0,0187188
3585,9841;0,0186417
3586,9485;0,0182214
3587,9126;0,0175953
3588,8770;0,0171069
3589,8411;0,0169714
3590,8054;0,0171393
3591,7695;0,0174303
3592,7339;0,0176735
3593,6980;0,01776
3594,6624;0,0176645
3595,6265;0,0174484
3596,5908;0,0172031
3597,5549;0,0169657
3598,5193;0,0166998
3599,4834;0,0163532
3600,4478;0,0159305
3601,4119;0,0155079
3602,3762;0,0151712
3603,3403;0,0149449
3604,3047;0,0147841
3605,2688;0,0146089
3606,2332;0,0143355
3607,1973;0,0139132
3608,1616;0,0133809
3609,1257;0,0128802
3610,0901;0,0125702
3611,0542;0,0125194
3612,0186;0,012676
3612,9827;0,0129123
3613,9470;0,0130944
3614,9111;0,0131314
3615,8755;0,0129873
3616,8396;0,0126651
3617,8040;0,0121938
3618,7681;0,0116563
3619,7324;0,0112297
3620,6965;0,011114
3621,6609;0,011354
3622,6250;0,0117787
3623,5894;0,0121277
3624,5535;0,0122107
3625,5178;0,011981
3626,4819;0,0114925
3627,4463;0,0107887
3628,4104;0,00992572
3629,3748;0,00916379
3630,3389;0,00881086
3631,3032;0,00883303
3632,2673;0,00892395
3633,2317;0,0088247
3634,1958;0,0084777
3635,1602;0,00799219
3636,1243;0,00752739
3637,0886;0,00718557
3638,0527;0,00697858
3639,0171;0,00686808
3639,9812;0,0068219
3640,9456;0,00683227
3641,9097;0,00689148
3642,8740;0,00696535
3643,8381;0,00700689
3644,8025;0,00700689
3645,7666;0,00701474
3646,7310;0,00701539
3647,6951;0,00667512
3648,6594;0,00553562
3649,6235;0,003939
3650,5879;0,00283718
3651,5520;0,002536
3652,5164;0,00265041
3653,4805;0,00273924
3654,4448;0,00260686
3655,4089;0,00229737
3656,3733;0,00198259
3657,3374;0,00182257
3658,3018;0,00184988
3659,2659;0,00196394
3660,2302;0,00204208
3661,1943;0,00204741
3662,1587;0,00203612
3663,1228;0,00207614
3664,0872;0,00216374
3665,0513;0,00223005
3666,0156;0,00221973
3666,9797;0,00215851
3667,9441;0,00211817
3668,9082;0,0021138
3669,8726;0,00209567
3670,8367;0,00203587
3671,8010;0,00193033
3672,7651;0,00177388
3673,7295;0,00158481
3674,6936;0,00138666
3675,6580;0,00120149
3676,6221;0,00112707
3677,5864;0,00126232
3678,5505;0,0015435
3679,5149;0,00181745
3680,4790;0,0020083
3681,4434;0,00214739
3682,4075;0,00228561
3683,3718;0,00240972
3684,3359;0,00244775
3685,3003;0,00235362
3686,2644;0,00218392
3687,2288;0,0020696
3688,1929;0,00207522
3689,1572;0,00214016
3690,1213;0,00224424
3691,0857;0,0024655
3692,0498;0,0028139
3693,0142;0,00319725
3693,9783;0,00352417
3694,9426;0,00375661
3695,9067;0,00389155
3696,8711;0,00393108
3697,8352;0,00387684
3698,7996;0,00374393
3699,7637;0,00357141
3700,7280;0,00341858
3701,6921;0,00335444
3702,6565;0,00343595
3703,6206;0,00366631
3704,5850;0,00397254
3705,5491;0,004245
3706,5134;0,00440547
3707,4775;0,00443486
3708,4419;0,00431923
3709,4060;0,00394994
3710,3704;0,00316969
3711,3345;0,00209079
3712,2988;0,00119492
3713,2629;0,000870211
3714,2273;0,0010967
3715,1914;0,00162257
3716,1558;0,00222277
3717,1199;0,00280125
3718,0842;0,00336866
3719,0483;0,00397146
3720,0127;0,00462889
3720,9768;0,0053088
3721,9412;0,00593966
3722,9053;0,00643638
3723,8696;0,00672764
3724,8337;0,00678913
3725,7981;0,00666206
3726,7622;0,00642316
3727,7266;0,0061306
3728,6907;0,00581408
3729,6550;0,00551711
3730,6191;0,00533235
3731,5835;0,0053675
3732,5476;0,00561669
3733,5120;0,0058214
3734,4761;0,00560171
3735,4404;0,00493894
3736,4045;0,00429948
3737,3689;0,00405292
3738,3330;0,00408868
3739,2974;0,00401691
3740,2615;0,00350445
3741,2258;0,00246822
3742,1899;0,00112719
3743,1543;-7,90463E-05
3744,1184;-0,000714384
3745,0828;-0,000619623
3746,0469;-2,48428E-05
3747,0112;0,000624799
3747,9753;0,00095393
3748,9397;0,000787017
3749,9038;0,000142712
3750,8682;-0,000691636
3751,8323;-0,00117763
3752,7966;-0,00100136
3753,7607;-0,000371439
3754,7251;0,000284804
3755,6892;0,000667796
3756,6536;0,000691636
3757,6177;0,00042818
3758,5820;4,2401E-05
3759,5461;-0,00026984
3760,5105;-0,000380583
3761,4746;-0,000298044
3762,4390;-0,000126148
3763,4031;2,46517E-05
3764,3674;8,79623E-05
3765,3315;4,31197E-05
3766,2959;-0,000102563
3767,2600;-0,000329173
3768,2244;-0,000609006
3769,1885;-0,000896974
3770,1528;-0,00111782
3771,1169;-0,00118752
3772,0813;-0,00107265
3773,0454;-0,000828728
3774,0098;-0,000568571
3774,9739;-0,000393166
3775,9382;-0,000344855
3776,9023;-0,000408235
3777,8667;-0,000534571
3778,8308;-0,00065092
3779,7952;-0,000672361
3780,7593;-0,000552227
3781,7236;-0,000325776
3782,6877;-9,16235E-05
3783,6521;4,4398E-05
3784,6162;2,04296E-05
3785,5806;-0,000150752
3786,5447;-0,000388362
3787,5090;-0,000590099
3788,4731;-0,000690607
3789,4375;-0,000689217
3790,4016;-0,000631289
3791,3660;-0,000561619
3792,3301;-0,000483399
3793,2944;-0,00035359
3794,2585;-0,000124142
3795,2229;0,000197657
3796,1870;0,000523565
3797,1514;0,0007237
3798,1155;0,000700566
3799,0798;0,000439539
3800,0439;1,29386E-05
3801,0083;-0,000442482
3801,9724;-0,000781974
3802,9368;-0,000963615
3803,9009;-0,00109655
3804,8652;-0,00132868
3805,8293;-0,00168395
3806,7937;-0,00200216
3807,7578;-0,00204174
3808,7222;-0,00169634
3809,6863;-0,00112087
3810,6506;-0,000618128
3811,6147;-0,000413501
3812,5791;-0,000515602
3813,5432;-0,000730426
3814,5076;-0,000806504
3815,4717;-0,000617634
3816,4360;-0,000240298
3817,4001;0,000120316
3818,3645;0,000262614
3819,3286;9,12043E-05
3820,2930;-0,000314621
3821,2571;-0,0006964
3822,2214;-0,000779389
3823,1855;-0,000509263
3824,1499;-7,42337E-05
3825,1140;0,000279404
3826,0784;0,000407545
3827,0425;0,00030982
3828,0068;8,69456E-05
3828,9709;-0,000133654
3829,9353;-0,000262549
3830,8994;-0,000276441
3831,8638;-0,000207733
3832,8279;-0,000111026
3833,7922;-2,54871E-05
3834,7563;4,8338E-05
3835,7207;0,000138501
3836,6848;0,000257739
3837,6492;0,000369433
3838,6133;0,000420414
3839,5776;0,000394004
3840,5417;0,000297734
3841,5061;0,000132307
3842,4702;-7,90717E-05
3843,4346;-0,000248398
3844,3987;-0,000248401
3845,3630;-7,16618E-06
3846,3271;0,000408963
3847,2915;0,000801696
3848,2556;0,000933364
3849,2200;0,000643005
3850,1841;-7,75228E-05
3851,1484;-0,00110623
3852,1125;-0,00230518
3853,0769;-0,00344026
3854,0410;-0,00393831
3855,0054;-0,00340865
3855,9695;-0,00219504
3856,9338;-0,000931756
3857,8979;-2,94481E-05
3858,8623;0,000425699
3859,8264;0,00057098
3860,7908;0,00061792
3861,7549;0,000702409
3862,7192;0,000807368
3863,6833;0,000835433
3864,6477;0,000745694
3865,6118;0,000583883
3866,5762;0,000423547
3867,5403;0,000324015
3868,5046;0,000306186
3869,4688;0,000326864
3870,4331;0,000296121
3871,3972;0,000159785
3872,3616;-4,34787E-05
3873,3257;-0,000226527
3874,2900;-0,000332959
3875,2542;-0,000360128
3876,2185;-0,000324383
3877,1826;-0,000222939
3878,1470;-3,29431E-05
3879,1111;0,000244403
3880,0754;0,000538469
3881,0396;0,000721462
3882,0039;0,000675946
3882,9680;0,000361154
3883,9324;-0,000152512
3884,8965;-0,000690978
3885,8608;-0,00105114
3886,8250;-0,0011208
3887,7893;-0,000938731
3888,7534;-0,000637138
3889,7178;-0,000343752
3890,6819;-0,000129505
3891,6462;8,55185E-06
3892,6104;0,000141601
3893,5747;0,000333145
3894,5388;0,000556335
3895,5032;0,000728384
3896,4673;0,000808292
3897,4316;0,000831943
3898,3958;0,000860143
3899,3601;0,000909996
3900,3242;0,000939565
3901,2886;0,000882259
3902,2527;0,000681202
3903,2170;0,000326387
3904,1812;-0,000108792
3905,1455;-0,000498258
3906,1096;-0,000757017
3907,0740;-0,000886944
3908,0381;-0,000935202
3909,0024;-0,00093506
3909,9666;-0,000886533
3910,9309;-0,000774874
3911,8950;-0,000596924
3912,8594;-0,000372985
3913,8235;-0,000142879
3914,7878;4,20447E-05
3915,7520;0,000129317
3916,7163;9,4255E-05
3917,6804;-1,77106E-05
3918,6448;-9,55097E-05
3919,6089;-4,07002E-05
3920,5732;0,000156067
3921,5374;0,000414462
3922,5017;0,00061676
3923,4658;0,000673507
3924,4302;0,000581323
3925,3943;0,000432049
3926,3586;0,000345733
3927,3228;0,000385027
3928,2871;0,000525008
3929,2512;0,000675109
3930,2156;0,000719881
3931,1797;0,000578081
3932,1440;0,000265903
3933,1082;-0,000102792
3934,0725;-0,000399243
3935,0366;-0,000557641
3936,0010;-0,00058137
3936,9651;-0,000505521
3937,9294;-0,000366061
3938,8936;-0,000192524
3939,8579;-1,49987E-05
3940,8220;0,00013293
3941,7864;0,000228416
3942,7505;0,000281263
3943,7148;0,000333799
3944,6790;0,000424917
3945,6433;0,000553104
3946,6074;0,000668068
3947,5718;0,000692788
3948,5359;0,000566965
3949,5002;0,000293462
3950,4644;-5,13084E-05
3951,4287;-0,000362613
3952,3928;-0,000567439
3953,3572;-0,000648958
3954,3213;-0,000633061
3955,2856;-0,000561945
3956,2498;-0,000472706
3957,2141;-0,000388044
3958,1782;-0,000320413
3959,1426;-0,000282732
3960,1067;-0,000293689
3961,0710;-0,000369713
3962,0352;-0,000508398
3962,9995;-0,000678891
3963,9636;-0,000831625
3964,9280;-0,000920611
3965,8921;-0,000925428
3966,8564;-0,000857793
3967,8206;-0,000752441
3968,7849;-0,000647693
3969,7490;-0,000567153
3970,7134;-0,000514061
3971,6775;-0,00048091
3972,6418;-0,000464545
3973,6060;-0,000473377
3974,5703;-0,000520614
3975,5344;-0,000610072
3976,4988;-0,000727558
3977,4629;-0,000846007
3978,4272;-0,000940313
3979,3914;-0,00100097
3980,3557;-0,00103735
3981,3198;-0,00106877
3982,2842;-0,0011086
3983,2483;-0,00115247
3984,2126;-0,00117921
3985,1768;-0,00116459
3986,1411;-0,00109816
3987,1052;-0,000992584
3988,0696;-0,000880133
3989,0337;-0,000796925
3989,9980;-0,000766336
3990,9622;-0,000789203
3991,9265;-0,00084791
3992,8906;-0,000919854
3993,8550;-0,000989924
3994,8191;-0,00105409
3995,7834;-0,00111409
3996,7476;-0,00116984
3997,7119;-0,00121635
3998,6760;-0,00124681
3999,6404;-0,00125783
4000,6045;-0,000689462

##### Extended Information
[Comments]
Sample name
Comment
Username
Division
Organization;UNIVERSIDAD INDUSTRIAL DE SANTANDER

[Detailed Information]
Creation date;18/03/2025 6:36 p.m.

Data array type;Linear data array
Horizontal axis;Wavenumber [cm-1]
Vertical axis;Abs
Start;399,193 cm-1
End;4000,6 cm-1
Data interval;0,964233 cm-1
Data points;3736    

[Measurement Information]
Model name;FT/IR-4X1typeA
Serial No.;A035162111

Accessory;ATR PRO 4X
Accessory S/N;A021162126
Incident angle;45 deg

Measurement date;18/03/2025 6:35 p.m.

Light source;Standard
Detector;TGS
Accumulation;40
Resolution;4 cm-1
Zero filling;On
Apodization;Cosine
Gain;Auto (8)
Aperture;Auto (7 mm)
Scan speed;Auto (2 mm/sec)
Filter;Auto (12800 Hz)

