TITLE;
DATA TYPE;INFRARED SPECTRUM
ORIGIN;JASCO
OWNER;
DATE;25/01/29
TIME;10:50:02
SPECTROMETER/DATA SYSTEM;
LOCALE;9226
RESOLUTION;
DELTAX;0,964233
XUNITS;1/CM
YUNITS;ABSORBANCE
FIRSTX;  399,1927
LASTX; 4000,6047
NPOINTS;    3736
FIRSTY;     0,10399
MAXY;     0,13698
MINY;     0,00194
XYDATA
399,1927;0,103993
400,1569;0,102672
401,1211;0,102073
402,0854;0,102042
403,0496;0,10229
404,0138;0,102561
404,9781;0,102692
405,9423;0,102635
406,9065;0,102443
407,8708;0,102197
408,8350;0,101936
409,7992;0,101643
410,7635;0,101321
411,7277;0,101059
412,6919;0,101019
413,6562;0,101331
414,6204;0,101995
415,5846;0,102846
416,5489;0,103565
417,5131;0,103765
418,4773;0,103261
419,4416;0,102417
420,4058;0,101927
421,3700;0,102165
422,3343;0,10304
423,2985;0,104271
424,2627;0,105571
425,2270;0,106683
426,1912;0,107409
427,1554;0,107657
428,1197;0,107481
429,0839;0,107067
430,0481;0,106674
431,0124;0,106536
431,9766;0,106756
432,9408;0,107266
433,9051;0,107877
434,8693;0,10841
435,8335;0,108804
436,7978;0,109135
437,7620;0,109514
438,7262;0,109988
439,6905;0,110499
440,6547;0,110935
441,6189;0,111206
442,5832;0,111301
443,5474;0,11128
444,5116;0,111214
445,4759;0,111121
446,4401;0,110978
447,4043;0,110766
448,3686;0,110521
449,3328;0,110334
450,2970;0,110309
451,2613;0,110498
452,2255;0,110856
453,1897;0,111244
454,1540;0,111482
455,1182;0,111421
456,0824;0,11101
457,0467;0,110353
458,0109;0,109698
458,9751;0,109309
459,9394;0,109299
460,9036;0,109588
461,8678;0,109995
462,8321;0,110349
463,7963;0,110544
464,7605;0,110545
465,7248;0,110388
466,6890;0,110154
467,6532;0,109931
468,6175;0,109782
469,5817;0,109736
470,5459;0,109788
471,5102;0,109902
472,4744;0,110022
473,4386;0,110092
474,4029;0,110077
475,3671;0,109976
476,3313;0,109817
477,2956;0,109646
478,2598;0,109519
479,2240;0,10947
480,1883;0,109498
481,1525;0,10956
482,1167;0,109598
483,0810;0,109584
484,0452;0,109548
485,0094;0,109565
485,9737;0,109694
486,9379;0,109928
487,9021;0,110191
488,8664;0,110376
489,8306;0,110401
490,7948;0,110247
491,7591;0,109959
492,7233;0,109628
493,6875;0,109337
494,6518;0,10914
495,6160;0,109053
496,5802;0,109068
497,5445;0,109162
498,5087;0,1093
499,4729;0,109439
500,4372;0,109545
501,4014;0,109606
502,3656;0,109637
503,3299;0,109664
504,2941;0,109705
505,2583;0,109756
506,2226;0,109807
507,1868;0,109854
508,1510;0,109914
509,1153;0,110009
510,0795;0,110147
511,0437;0,110309
512,0080;0,110462
512,9722;0,110579
513,9365;0,110662
514,9007;0,110731
515,8649;0,110812
516,8292;0,110909
517,7934;0,110998
518,7576;0,111043
519,7219;0,111031
520,6861;0,110984
521,6503;0,110939
522,6146;0,110927
523,5788;0,110952
524,5430;0,110993
525,5073;0,111023
526,4715;0,111021
527,4357;0,110988
528,4000;0,110937
529,3642;0,110875
530,3284;0,110802
531,2927;0,110719
532,2569;0,110632
533,2211;0,110556
534,1854;0,110501
535,1496;0,110462
536,1138;0,110417
537,0781;0,110339
538,0423;0,110214
539,0065;0,110047
539,9708;0,109862
540,9350;0,109692
541,8992;0,109566
542,8635;0,109506
543,8277;0,109525
544,7919;0,109623
545,7562;0,109786
546,7204;0,109986
547,6846;0,110195
548,6489;0,11039
549,6131;0,110561
550,5773;0,11071
551,5416;0,110845
552,5058;0,110979
553,4700;0,111132
554,4343;0,11132
555,3985;0,111541
556,3627;0,111752
557,3270;0,11187
558,2912;0,111794
559,2554;0,111451
560,2197;0,110836
561,1839;0,110013
562,1481;0,109088
563,1124;0,108153
564,0766;0,10726
565,0408;0,10642
566,0051;0,105637
566,9693;0,104939
567,9335;0,104383
568,8978;0,104019
569,8620;0,103848
570,8262;0,103807
571,7905;0,103799
572,7547;0,103743
573,7189;0,103605
574,6832;0,103411
575,6474;0,103216
576,6116;0,10307
577,5759;0,102991
578,5401;0,102959
579,5043;0,102937
580,4686;0,102899
581,4328;0,102834
582,3970;0,102749
583,3613;0,102656
584,3255;0,102566
585,2897;0,102485
586,2540;0,102417
587,2182;0,102366
588,1824;0,102335
589,1467;0,102322
590,1109;0,102323
591,0751;0,102331
592,0394;0,102343
593,0036;0,102355
593,9678;0,102361
594,9321;0,102347
595,8963;0,102287
596,8605;0,102153
597,8248;0,101929
598,7890;0,101627
599,7532;0,101289
600,7175;0,100972
601,6817;0,100717
602,6459;0,100522
603,6102;0,100358
604,5744;0,100185
605,5386;0,0999907
606,5029;0,0997867
607,4671;0,099588
608,4313;0,0993844
609,3956;0,0991414
610,3598;0,0988402
611,3240;0,0985263
612,2883;0,0983175
613,2525;0,0983448
614,2167;0,0986508
615,1810;0,0991102
616,1452;0,0994387
617,1094;0,0993183
618,0737;0,0985815
619,0379;0,0973204
620,0021;0,0958303
620,9664;0,09444
621,9306;0,0933613
622,8948;0,0926393
623,8591;0,0921928
624,8233;0,0918105
625,7875;0,0915545
626,7518;0,09137
627,7160;0,0912334
628,6802;0,0911128
629,6445;0,0909795
630,6087;0,0908091
631,5729;0,0906053
632,5372;0,0903919
633,5014;0,0902001
634,4656;0,0900562
635,4299;0,0899783
636,3941;0,0899783
637,3583;0,0900619
638,3226;0,0902211
639,2868;0,0904267
640,2510;0,0906338
641,2153;0,090805
642,1795;0,0909379
643,1437;0,0910757
644,1080;0,0912834
645,0722;0,0916019
646,0364;0,0920097
647,0007;0,0924194
647,9649;0,092715
648,9291;0,0928134
649,8934;0,0927128
650,8576;0,0924955
651,8218;0,0922827
652,7861;0,0921757
653,7503;0,0922152
654,7145;0,0923706
655,6788;0,0925591
656,6430;0,0926931
657,6072;0,0927314
658,5715;0,0926976
659,5357;0,0926377
660,4999;0,0925352
661,4642;0,0922444
662,4284;0,0915003
663,3926;0,090033
664,3569;0,0877936
665,3211;0,085272
666,2853;0,0836517
667,2496;0,0842008
668,2138;0,0866363
669,1780;0,0889545
670,1423;0,090105
671,1065;0,0904303
672,0707;0,0901892
673,0350;0,0894263
673,9992;0,0883365
674,9634;0,0872435
675,9277;0,0863733
676,8919;0,0857193
677,8561;0,0851228
678,8204;0,0844404
679,7846;0,0836396
680,7488;0,0827656
681,7131;0,081883
682,6773;0,0810187
683,6415;0,0801759
684,6058;0,0793592
685,5700;0,0785932
686,5342;0,0779134
687,4985;0,0773422
688,4627;0,0768862
689,4269;0,076498
690,3912;0,0761231
691,3554;0,0757202
692,3196;0,0752719
693,2839;0,074784
694,2481;0,0742792
695,2123;0,0737855
696,1766;0,0733237
697,1408;0,0728986
698,1050;0,0724971
699,0693;0,072097
700,0335;0,0716783
700,9977;0,0712327
701,9620;0,0707668
702,9262;0,0702984
703,8904;0,069819
704,8547;0,069355
705,8189;0,0689198
706,7831;0,0685142
707,7474;0,0681253
708,7116;0,0677319
709,6758;0,0673107
710,6401;0,0668393
711,6043;0,0663025
712,5685;0,0657042
713,5328;0,0650837
714,4970;0,0645189
715,4612;0,0623568
716,4255;0,0625144
717,3897;0,0629797
718,3539;0,0634999
719,3182;0,0637084
720,2824;0,0633056
721,2466;0,0622385
722,2109;0,060738
723,1751;0,0591784
724,1393;0,057875
725,1036;0,056959
726,0678;0,0563766
727,0320;0,0559772
727,9963;0,0556191
728,9605;0,0552353
729,9247;0,0548319
730,8890;0,0544451
731,8532;0,0540996
732,8174;0,0537956
733,7817;0,0535216
734,7459;0,0532691
735,7101;0,0530362
736,6744;0,0528211
737,6386;0,052616
738,6028;0,052407
739,5671;0,0521796
740,5313;0,0519236
741,4955;0,0516338
742,4598;0,05131
743,4240;0,0509583
744,3882;0,0505932
745,3525;0,0502367
746,3167;0,0499111
747,2809;0,049629
748,2452;0,049387
749,2094;0,0491664
750,1736;0,0489429
751,1379;0,0486985
752,1021;0,0484282
753,0663;0,0481395
754,0306;0,0478448
754,9948;0,0475533
755,9590;0,0472677
756,9233;0,0469858
757,8875;0,0467053
758,8517;0,0464278
759,8160;0,0461579
760,7802;0,0458998
761,7444;0,0456551
762,7087;0,045423
763,6729;0,0452035
764,6371;0,0449983
765,6014;0,0448096
766,5656;0,0446352
767,5298;0,0444679
768,4941;0,0442979
769,4583;0,0441197
770,4225;0,0439364
771,3868;0,0437567
772,3510;0,0435883
773,3152;0,0434301
774,2795;0,0432717
775,2437;0,0430987
776,2079;0,0429019
777,1722;0,0426806
778,1364;0,0424425
779,1006;0,042198
780,0649;0,0419567
781,0291;0,041726
781,9933;0,0415108
782,9576;0,041314
783,9218;0,0411344
784,8860;0,0409675
785,8503;0,0408073
786,8145;0,0406508
787,7787;0,0404988
788,7430;0,0403536
789,7072;0,0402145
790,6714;0,0400747
791,6357;0,0399234
792,5999;0,0397523
793,5641;0,039561
794,5284;0,039358
795,4926;0,0391573
796,4568;0,0389716
797,4211;0,0388088
798,3853;0,0386719
799,3495;0,0385607
800,3138;0,0384745
801,2780;0,0384123
802,2422;0,0383723
803,2065;0,0383498
804,1707;0,038337
805,1349;0,0383237
806,0992;0,038299
807,0634;0,0382549
808,0276;0,0381887
808,9919;0,0381043
809,9561;0,0380105
810,9203;0,037917
811,8846;0,0378306
812,8488;0,0377525
813,8130;0,0376807
814,7773;0,0376132
815,7415;0,0375526
816,7057;0,0375057
817,6700;0,0374798
818,6342;0,0374774
819,5984;0,0374934
820,5627;0,0375163
821,5269;0,0375344
822,4911;0,037541
823,4554;0,0375365
824,4196;0,037525
825,3839;0,0375087
826,3481;0,0374853
827,3123;0,0374499
828,2766;0,0374005
829,2408;0,0373424
830,2050;0,0372869
831,1693;0,0372448
832,1335;0,0372185
833,0977;0,037199
834,0620;0,0371689
835,0262;0,0371105
835,9904;0,0370121
836,9547;0,0368724
837,9189;0,0366988
838,8831;0,0365059
839,8474;0,0363131
840,8116;0,0361408
841,7758;0,0360057
842,7401;0,035914
843,7043;0,0358584
844,6685;0,0358199
845,6328;0,0357764
846,5970;0,0357128
847,5612;0,0356276
848,5255;0,0355315
849,4897;0,0354407
850,4539;0,0353691
851,4182;0,0353234
852,3824;0,0353019
853,3466;0,0352965
854,3109;0,0352952
855,2751;0,0352852
856,2393;0,0352575
857,2036;0,0352115
858,1678;0,0351574
859,1320;0,0351127
860,0963;0,0350951
861,0605;0,0351125
862,0247;0,0351588
862,9890;0,0352171
863,9532;0,035269
864,9174;0,0353058
865,8817;0,0353336
866,8459;0,0353701
867,8101;0,0354359
868,7744;0,0355437
869,7386;0,0356922
870,7028;0,0358661
871,6671;0,0360428
872,6313;0,0362011
873,5955;0,0363296
874,5598;0,0364288
875,5240;0,0365099
876,4882;0,0365888
877,4525;0,0366797
878,4167;0,0367915
879,3809;0,0369262
880,3452;0,0370829
881,3094;0,0372615
882,2736;0,0374672
883,2379;0,0377116
884,2021;0,0380098
885,1663;0,0383745
886,1306;0,03881
887,0948;0,0393087
888,0590;0,0398519
889,0233;0,0404158
889,9875;0,0409772
890,9517;0,0415174
891,9160;0,042022
892,8802;0,0424785
893,8444;0,0428748
894,8087;0,0432004
895,7729;0,0434495
896,7371;0,0436211
897,7014;0,043717
898,6656;0,0437362
899,6298;0,0436733
900,5941;0,0435218
901,5583;0,0432825
902,5225;0,0429714
903,4868;0,0426211
904,4510;0,0422732
905,4152;0,0419654
906,3795;0,0417203
907,3437;0,0415417
908,3079;0,0414182
909,2722;0,0413331
910,2364;0,0412728
911,2007;0,0412318
912,1649;0,0412131
913,1292;0,0412244
914,0934;0,0412748
915,0576;0,0413708
916,0219;0,0415143
916,9861;0,0417011
917,9503;0,041922
918,9146;0,0421637
919,8788;0,0424116
920,8430;0,0426524
921,8073;0,0428759
922,7715;0,0430766
923,7357;0,0432533
924,7000;0,0434093
925,6642;0,0435505
926,6284;0,0436835
927,5927;0,0438131
928,5569;0,0439406
929,5211;0,0440631
930,4854;0,0441755
931,4496;0,044275
932,4138;0,0443654
933,3781;0,0444591
934,3423;0,0445742
935,3065;0,0447276
936,2708;0,0449271
937,2350;0,0451685
938,1992;0,0454395
939,1635;0,0457287
940,1277;0,0460343
941,0919;0,0463663
942,0562;0,0467426
943,0204;0,04718
943,9846;0,0476869
944,9489;0,0482606
945,9131;0,0488907
946,8773;0,049563
947,8416;0,0502645
948,8058;0,0509866
949,7700;0,051727
950,7343;0,0524914
951,6985;0,0532913
952,6627;0,0541404
953,6270;0,0550479
954,5912;0,0560147
955,5554;0,057033
956,5197;0,0580916
957,4839;0,0591819
958,4481;0,0603008
959,4124;0,0614491
960,3766;0,0626271
961,3408;0,0638318
962,3051;0,0650574
963,2693;0,0662981
964,2335;0,067551
965,1978;0,0688157
966,1620;0,0700922
967,1262;0,0713812
968,0905;0,0726862
969,0547;0,074019
970,0189;0,0754014
970,9832;0,0768624
971,9474;0,0784304
972,9116;0,0801243
973,8759;0,081949
974,8401;0,0838972
975,8043;0,0859555
976,7686;0,088109
977,7328;0,0903416
978,6970;0,0926302
979,6613;0,0949388
980,6255;0,0972138
981,5897;0,099389
982,5540;0,101396
983,5182;0,10318
984,4824;0,104714
985,4467;0,106001
986,4109;0,107075
987,3751;0,107985
988,3394;0,108782
989,3036;0,1095
990,2678;0,110159
991,2321;0,110762
992,1963;0,111309
993,1605;0,111803
994,1248;0,112252
995,0890;0,11267
996,0532;0,113065
997,0175;0,11344
997,9817;0,11379
998,9459;0,114111
999,9102;0,114405
1000,8744;0,114685
1001,8386;0,114978
1002,8029;0,115315
1003,7671;0,115724
1004,7313;0,116231
1005,6956;0,116849
1006,6598;0,117587
1007,6240;0,118448
1008,5883;0,119428
1009,5525;0,120516
1010,5167;0,121693
1011,4810;0,122927
1012,4452;0,124185
1013,4094;0,125426
1014,3737;0,126612
1015,3379;0,127713
1016,3021;0,12871
1017,2664;0,129598
1018,2306;0,130383
1019,1948;0,131085
1020,1591;0,131727
1021,1233;0,132333
1022,0875;0,132917
1023,0518;0,133486
1024,0160;0,134041
1024,9802;0,134579
1025,9445;0,135097
1026,9087;0,135595
1027,8729;0,136064
1028,8372;0,136481
1029,8014;0,136803
1030,7656;0,136977
1031,7299;0,136947
1032,6941;0,136673
1033,6583;0,136143
1034,6226;0,135378
1035,5868;0,134432
1036,5510;0,133378
1037,5153;0,132301
1038,4795;0,131283
1039,4437;0,130397
1040,4080;0,129696
1041,3722;0,129201
1042,3364;0,128904
1043,3007;0,128769
1044,2649;0,128743
1045,2291;0,128771
1046,1934;0,128809
1047,1576;0,128824
1048,1218;0,128792
1049,0861;0,128693
1050,0503;0,128498
1051,0145;0,128179
1051,9788;0,127711
1052,9430;0,127086
1053,9072;0,126311
1054,8715;0,125404
1055,8357;0,124377
1056,7999;0,123218
1057,7642;0,121898
1058,7284;0,12038
1059,6926;0,118643
1060,6569;0,116705
1061,6211;0,114624
1062,5853;0,112488
1063,5496;0,110387
1064,5138;0,10839
1065,4780;0,106535
1066,4423;0,10483
1067,4065;0,10326
1068,3707;0,101805
1069,3350;0,100443
1070,2992;0,0991565
1071,2634;0,0979287
1072,2277;0,0967399
1073,1919;0,0955644
1074,1561;0,0943709
1075,1204;0,0931296
1076,0846;0,0918223
1077,0488;0,0904527
1078,0131;0,0890497
1078,9773;0,0876608
1079,9415;0,0863376
1080,9058;0,085121
1081,8700;0,084032
1082,8342;0,083073
1083,7985;0,0822354
1084,7627;0,0815087
1085,7269;0,0808847
1086,6912;0,0803571
1087,6554;0,0799189
1088,6196;0,0795612
1089,5839;0,0792747
1090,5481;0,0790532
1091,5123;0,0788949
1092,4766;0,0788021
1093,4408;0,0787778
1094,4050;0,0788229
1095,3693;0,0789334
1096,3335;0,0790993
1097,2977;0,0793061
1098,2620;0,0795353
1099,2262;0,0797668
1100,1904;0,0799802
1101,1547;0,0801566
1102,1189;0,0802796
1103,0831;0,0803379
1104,0474;0,0803268
1105,0116;0,0802499
1105,9758;0,0801175
1106,9401;0,0799413
1107,9043;0,0797255
1108,8685;0,0794597
1109,8328;0,0791168
1110,7970;0,0786593
1111,7612;0,0780542
1112,7255;0,077289
1113,6897;0,076382
1114,6539;0,0753821
1115,6182;0,0743554
1116,5824;0,0733662
1117,5466;0,0724578
1118,5109;0,0716421
1119,4751;0,0708993
1120,4393;0,0701882
1121,4036;0,0694593
1122,3678;0,0686679
1123,3320;0,0677822
1124,2963;0,0667851
1125,2605;0,0656737
1126,2247;0,0644567
1127,1890;0,0631513
1128,1532;0,0617814
1129,1174;0,0603733
1130,0817;0,0589527
1131,0459;0,0575418
1132,0101;0,0561593
1132,9744;0,0548226
1133,9386;0,0535514
1134,9028;0,0523702
1135,8671;0,0513067
1136,8313;0,0503879
1137,7955;0,0496348
1138,7598;0,0490579
1139,7240;0,048656
1140,6882;0,0484168
1141,6525;0,048319
1142,6167;0,0483363
1143,5809;0,0484407
1144,5452;0,0486071
1145,5094;0,0488166
1146,4736;0,0490592
1147,4379;0,0493334
1148,4021;0,0496436
1149,3663;0,049994
1150,3306;0,0503844
1151,2948;0,050806
1152,2590;0,051241
1153,2233;0,0516652
1154,1875;0,0520511
1155,1517;0,0523705
1156,1160;0,052596
1157,0802;0,052699
1158,0444;0,0526485
1159,0087;0,0524099
1159,9729;0,0519469
1160,9371;0,0512272
1161,9014;0,0502295
1162,8656;0,0489522
1163,8298;0,0474182
1164,7941;0,0456751
1165,7583;0,0437905
1166,7225;0,041842
1167,6868;0,0399057
1168,6510;0,0380464
1169,6152;0,0363111
1170,5795;0,0347281
1171,5437;0,0333104
1172,5079;0,0320603
1173,4722;0,030973
1174,4364;0,0300384
1175,4006;0,0292413
1176,3649;0,0285623
1177,3291;0,0279814
1178,2933;0,0274812
1179,2576;0,02705
1180,2218;0,0266821
1181,1860;0,0263756
1182,1503;0,0261296
1183,1145;0,0259415
1184,0787;0,025807
1185,0430;0,025721
1186,0072;0,0256797
1186,9714;0,0256825
1187,9357;0,0257328
1188,8999;0,025838
1189,8641;0,0260062
1190,8284;0,0262426
1191,7926;0,0265456
1192,7568;0,0269054
1193,7211;0,0273065
1194,6853;0,0277325
1195,6495;0,0281715
1196,6138;0,0286176
1197,5780;0,0290697
1198,5422;0,0295269
1199,5065;0,0300566
1200,4707;0,0305026
1201,4349;0,0309365
1202,3992;0,0313541
1203,3634;0,0317537
1204,3276;0,0321354
1205,2919;0,0324988
1206,2561;0,0328418
1207,2203;0,0331627
1208,1846;0,033464
1209,1488;0,0337559
1210,1130;0,0340577
1211,0773;0,0343943
1212,0415;0,0347884
1213,0057;0,0352519
1213,9700;0,0357816
1214,9342;0,0363602
1215,8984;0,0369638
1216,8627;0,0375708
1217,8269;0,0381679
1218,7911;0,0387492
1219,7554;0,0393138
1220,7196;0,0398606
1221,6838;0,0403869
1222,6481;0,0408891
1223,6123;0,0413646
1224,5765;0,0418123
1225,5408;0,0422315
1226,5050;0,0426209
1227,4692;0,0429779
1228,4335;0,0433006
1229,3977;0,0435892
1230,3619;0,0438461
1231,3262;0,0440738
1232,2904;0,0442726
1233,2546;0,0444399
1234,2189;0,0445719
1235,1831;0,0446661
1236,1473;0,044724
1237,1116;0,0447509
1238,0758;0,0447539
1239,0400;0,0447393
1240,0043;0,0447107
1240,9685;0,0446685
1241,9327;0,0446099
1242,8970;0,0445294
1243,8612;0,04442
1244,8254;0,0442738
1245,7897;0,0440853
1246,7539;0,0438528
1247,7181;0,0435812
1248,6824;0,0432809
1249,6466;0,042966
1250,6108;0,0426511
1251,5751;0,042349
1252,5393;0,0420683
1253,5035;0,041813
1254,4678;0,0415812
1255,4320;0,0413661
1256,3962;0,0411565
1257,3605;0,0409398
1258,3247;0,040706
1259,2889;0,0404502
1260,2532;0,0401731
1261,2174;0,0398784
1262,1816;0,0395691
1263,1459;0,0392454
1264,1101;0,0389052
1265,0743;0,0385463
1266,0386;0,0381686
1267,0028;0,0377746
1267,9670;0,037368
1268,9313;0,0369525
1269,8955;0,0365304
1270,8597;0,0361028
1271,8240;0,0356697
1272,7882;0,0352311
1273,7524;0,0347886
1274,7167;0,0343466
1275,6809;0,0339129
1276,6451;0,0334964
1277,6094;0,0331036
1278,5736;0,0327344
1279,5378;0,0323808
1280,5021;0,0320308
1281,4663;0,0316747
1282,4305;0,0313105
1283,3948;0,0309461
1284,3590;0,0305956
1285,3232;0,0302746
1286,2875;0,0299942
1287,2517;0,0297583
1288,2159;0,0295642
1289,1802;0,0294053
1290,1444;0,0292754
1291,1086;0,0291726
1292,0729;0,0291009
1293,0371;0,0290685
1294,0013;0,0290846
1294,9656;0,0291548
1295,9298;0,0292785
1296,8940;0,0294501
1297,8583;0,0296629
1298,8225;0,0299119
1299,7867;0,0301951
1300,7510;0,0305121
1301,7152;0,030861
1302,6794;0,0312392
1303,6437;0,0316448
1304,6079;0,0320769
1305,5721;0,0325356
1306,5364;0,0330197
1307,5006;0,033524
1308,4648;0,0340396
1309,4291;0,0345556
1310,3933;0,0350612
1311,3575;0,0355455
1312,3218;0,0359963
1313,2860;0,0363987
1314,2502;0,0367353
1315,2145;0,0369886
1316,1787;0,0371455
1317,1429;0,0372014
1318,1072;0,0371644
1319,0714;0,0370558
1320,0356;0,0369047
1320,9999;0,0367381
1321,9641;0,0365744
1322,9283;0,0364222
1323,8926;0,036284
1324,8568;0,0361607
1325,8210;0,0360538
1326,7853;0,0359645
1327,7495;0,035892
1328,7137;0,035832
1329,6780;0,0357772
1330,6422;0,0357195
1331,6064;0,0356517
1332,5707;0,0355704
1333,5349;0,0354727
1334,4991;0,0353526
1335,4634;0,0351958
1336,4276;0,034979
1337,3918;0,0346789
1338,3561;0,0342901
1339,3203;0,033839
1340,2845;0,0333753
1341,2488;0,0329459
1342,2130;0,0325765
1343,1772;0,0322715
1344,1415;0,0320243
1345,1057;0,0318267
1346,0699;0,0316747
1347,0342;0,0315716
1347,9984;0,0315247
1348,9626;0,0315402
1349,9269;0,0316175
1350,8911;0,0317479
1351,8553;0,0319176
1352,8196;0,0321136
1353,7838;0,0323297
1354,7480;0,0325681
1355,7123;0,0328347
1356,6765;0,0331319
1357,6407;0,0334536
1358,6050;0,0337849
1359,5692;0,0341056
1360,5334;0,0343972
1361,4977;0,0346529
1362,4619;0,0348784
1363,4261;0,0350827
1364,3904;0,0352704
1365,3546;0,0354443
1366,3188;0,035608
1367,2831;0,0357632
1368,2473;0,0359046
1369,2115;0,0360179
1370,1758;0,03608
1371,1400;0,036062
1372,1042;0,0359396
1373,0685;0,0357088
1374,0327;0,0353989
1374,9969;0,035061
1375,9612;0,0347304
1376,9254;0,0344013
1377,8896;0,0340364
1378,8539;0,0335983
1379,8181;0,0330791
1380,7823;0,0325114
1381,7466;0,0319517
1382,7108;0,0314423
1383,6750;0,030984
1384,6393;0,0305381
1385,6035;0,0300612
1386,5677;0,0295512
1387,5320;0,0290624
1388,4962;0,0286634
1389,4604;0,0283849
1390,4247;0,028213
1391,3889;0,0281111
1392,3531;0,0280382
1393,3174;0,0279641
1394,2816;0,0278811
1395,2458;0,0278055
1396,2101;0,0277597
1397,1743;0,0277545
1398,1385;0,0277868
1399,1028;0,0278496
1400,0670;0,027938
1401,0313;0,0280492
1401,9955;0,0281815
1402,9597;0,0283333
1403,9240;0,0285051
1404,8882;0,0287011
1405,8524;0,0289244
1406,8167;0,0291715
1407,7809;0,0294345
1408,7451;0,0297079
1409,7094;0,0299926
1410,6736;0,030295
1411,6378;0,0306238
1412,6021;0,030986
1413,5663;0,0313838
1414,5305;0,0318115
1415,4948;0,0322485
1416,4590;0,032657
1417,4232;0,0329958
1418,3875;0,0332455
1419,3517;0,0334102
1420,3159;0,0334965
1421,2802;0,0335102
1422,2444;0,0334626
1423,2086;0,0333675
1424,1729;0,0332357
1425,1371;0,0330708
1426,1013;0,0328625
1427,0656;0,0325836
1428,0298;0,0322029
1428,9940;0,0317179
1429,9583;0,0311803
1430,9225;0,0306769
1431,8867;0,0302702
1432,8510;0,0299544
1433,8152;0,0296566
1434,7794;0,0292785
1435,7437;0,0287758
1436,7079;0,0282213
1437,6721;0,0277492
1438,6364;0,0274329
1439,6006;0,0272648
1440,5648;0,0272127
1441,5291;0,0272494
1442,4933;0,0273528
1443,4575;0,0275021
1444,4218;0,0276785
1445,3860;0,0278682
1446,3502;0,0280642
1447,3145;0,0282665
1448,2787;0,0284779
1449,2429;0,0286997
1450,2072;0,0289341
1451,1714;0,0291899
1452,1356;0,0294742
1453,0999;0,0297643
1454,0641;0,0299734
1455,0283;0,0299476
1455,9926;0,0295777
1456,9568;0,0290197
1457,9210;0,028614
1458,8853;0,0284572
1459,8495;0,0284226
1460,8137;0,0284095
1461,7780;0,0283556
1462,7422;0,0281826
1463,7064;0,027817
1464,6707;0,0272676
1465,6349;0,0266488
1466,5991;0,0260842
1467,5634;0,0256123
1468,5276;0,0251832
1469,4918;0,024684
1470,4561;0,0239653
1471,4203;0,0229216
1472,3845;0,0216397
1473,3488;0,0204255
1474,3130;0,0195274
1475,2772;0,0189264
1476,2415;0,0184786
1477,2057;0,0180859
1478,1699;0,0177179
1479,1342;0,0173769
1480,0984;0,0170747
1481,0626;0,0168241
1482,0269;0,0166368
1482,9911;0,0165202
1483,9553;0,0164702
1484,9196;0,0164646
1485,8838;0,0164615
1486,8480;0,016413
1487,8123;0,0163121
1488,7765;0,0162348
1489,7407;0,0162841
1490,7050;0,0164723
1491,6692;0,016736
1492,6334;0,0170277
1493,5977;0,0173331
1494,5619;0,0176434
1495,5261;0,0179537
1496,4904;0,0182892
1497,4546;0,0187019
1498,4188;0,0192009
1499,3831;0,0197256
1500,3473;0,0202241
1501,3115;0,0207006
1502,2758;0,0211783
1503,2400;0,0216397
1504,2042;0,0219857
1505,1685;0,0220496
1506,1327;0,0217591
1507,0969;0,0213577
1508,0612;0,021128
1509,0254;0,0209998
1509,9896;0,0208421
1510,9539;0,0206502
1511,9181;0,0204471
1512,8823;0,0202188
1513,8466;0,0199243
1514,8108;0,0195358
1515,7750;0,019072
1516,7393;0,0185882
1517,7035;0,0181269
1518,6677;0,0176823
1519,6320;0,0172201
1520,5962;0,0167343
1521,5604;0,0162769
1522,5247;0,0159166
1523,4889;0,0156828
1524,4531;0,0155627
1525,4174;0,0155302
1526,3816;0,0155635
1527,3458;0,0156475
1528,3101;0,0157697
1529,2743;0,0159162
1530,2385;0,0160664
1531,2028;0,0161966
1532,1670;0,0163041
1533,1312;0,016426
1534,0955;0,0166126
1535,0597;0,0168793
1536,0239;0,0171947
1536,9882;0,0174761
1537,9524;0,0175666
1538,9166;0,0172736
1539,8809;0,0166114
1540,8451;0,0160597
1541,8093;0,0160597
1542,7736;0,0164221
1543,7378;0,0167997
1544,7020;0,0170674
1545,6663;0,0172371
1546,6305;0,0173473
1547,5947;0,0174269
1548,5590;0,0174879
1549,5232;0,0175274
1550,4874;0,0175405
1551,4517;0,0175367
1552,4159;0,0175464
1553,3801;0,0176069
1554,3444;0,0177318
1555,3086;0,0178751
1556,2728;0,0179119
1557,2371;0,0177171
1558,2013;0,017413
1559,1655;0,0173338
1560,1298;0,0174529
1561,0940;0,017534
1562,0582;0,0175563
1563,0225;0,0176113
1563,9867;0,0177527
1564,9509;0,0179687
1565,9152;0,0182056
1566,8794;0,0184093
1567,8436;0,0185706
1568,8079;0,018739
1569,7721;0,018969
1570,7363;0,0192607
1571,7006;0,0195757
1572,6648;0,0198776
1573,6290;0,0201386
1574,5933;0,0203465
1575,5575;0,0205414
1576,5217;0,0208092
1577,4860;0,0211793
1578,4502;0,0215947
1579,4144;0,0220114
1580,3787;0,0224346
1581,3429;0,0228786
1582,3071;0,0233418
1583,2714;0,0238124
1584,2356;0,0242831
1585,1998;0,0247568
1586,1641;0,025239
1587,1283;0,0257268
1588,0925;0,0262036
1589,0568;0,0266429
1590,0210;0,0270187
1590,9852;0,0273119
1591,9495;0,0275116
1592,9137;0,0276142
1593,8779;0,0276253
1594,8422;0,0275608
1595,8064;0,0274428
1596,7706;0,0272901
1597,7349;0,0271119
1598,6991;0,0269103
1599,6633;0,0266889
1600,6276;0,02646
1601,5918;0,0262445
1602,5560;0,0260631
1603,5203;0,0259237
1604,4845;0,0258156
1605,4487;0,0257154
1606,4130;0,0256015
1607,3772;0,0254699
1608,3414;0,0253441
1609,3057;0,0252649
1610,2699;0,0252628
1611,2341;0,0253373
1612,1984;0,0254579
1613,1626;0,0255715
1614,1268;0,0256169
1615,0911;0,02557
1616,0553;0,0254974
1617,0195;0,0255117
1617,9838;0,0256419
1618,9480;0,0258281
1619,9122;0,0260131
1620,8765;0,0261702
1621,8407;0,0262898
1622,8049;0,0263812
1623,7692;0,0264703
1624,7334;0,0265769
1625,6976;0,0267006
1626,6619;0,0268371
1627,6261;0,0269929
1628,5903;0,0271815
1629,5546;0,027412
1630,5188;0,0276811
1631,4830;0,0279632
1632,4473;0,0281915
1633,4115;0,0282539
1634,3757;0,0280631
1635,3400;0,0277122
1636,3042;0,027467
1637,2684;0,0274563
1638,2327;0,027583
1639,1969;0,0277392
1640,1611;0,0278942
1641,1254;0,0280521
1642,0896;0,0282035
1643,0538;0,0282965
1644,0181;0,0282335
1644,9823;0,0279342
1645,9465;0,027475
1646,9108;0,0271148
1647,8750;0,0270537
1648,8392;0,0272714
1649,8035;0,0276168
1650,7677;0,0278672
1651,7319;0,0277453
1652,6962;0,0271478
1653,6604;0,026434
1654,6246;0,0259754
1655,5889;0,0257177
1656,5531;0,0255373
1657,5173;0,0254015
1658,4816;0,0252801
1659,4458;0,0251031
1660,4100;0,0247941
1661,3743;0,0243485
1662,3385;0,0238712
1663,3027;0,0234926
1664,2670;0,0232581
1665,2312;0,0231158
1666,1954;0,022958
1667,1597;0,0226571
1668,1239;0,0221274
1669,0881;0,0214232
1670,0524;0,020746
1671,0166;0,0202696
1671,9808;0,019996
1672,9451;0,0198108
1673,9093;0,0195963
1674,8735;0,0192963
1675,8378;0,018936
1676,8020;0,0185892
1677,7662;0,0183212
1678,7305;0,0181578
1679,6947;0,0180742
1680,6589;0,0179772
1681,6232;0,0177058
1682,5874;0,0171261
1683,5516;0,0163311
1684,5159;0,0156308
1685,4801;0,0151823
1686,4443;0,0148964
1687,4086;0,0146697
1688,3728;0,0144759
1689,3370;0,0143307
1690,3013;0,0142536
1691,2655;0,0142453
1692,2297;0,0142752
1693,1940;0,0142837
1694,1582;0,014205
1695,1224;0,0140082
1696,0867;0,0137356
1697,0509;0,0134941
1698,0151;0,0133793
1698,9794;0,0133879
1699,9436;0,0134167
1700,9078;0,0133611
1701,8721;0,0132061
1702,8363;0,013021
1703,8005;0,0128966
1704,7648;0,0128971
1705,7290;0,0130423
1706,6932;0,013306
1707,6575;0,0136325
1708,6217;0,0139713
1709,5859;0,0143033
1710,5502;0,0146337
1711,5144;0,0149657
1712,4786;0,0152823
1713,4429;0,0155433
1714,4071;0,0157075
1715,3713;0,0157877
1716,3356;0,0159017
1717,2998;0,0161851
1718,2640;0,0166071
1719,2283;0,017021
1720,1925;0,0173543
1721,1567;0,0176339
1722,1210;0,0179092
1723,0852;0,0182059
1724,0494;0,0185215
1725,0137;0,0188377
1725,9779;0,0191367
1726,9421;0,019411
1727,9064;0,0196639
1728,8706;0,0198977
1729,8348;0,0200946
1730,7991;0,0202038
1731,7633;0,0201596
1732,7275;0,0199477
1733,6918;0,019652
1734,6560;0,0193769
1735,6202;0,019147
1736,5845;0,018934
1737,5487;0,0187091
1738,5129;0,0184511
1739,4772;0,0181491
1740,4414;0,0178144
1741,4056;0,0174744
1742,3699;0,017144
1743,3341;0,0168123
1744,2983;0,0164579
1745,2626;0,0160643
1746,2268;0,0156193
1747,1910;0,015111
1748,1553;0,0145389
1749,1195;0,0139364
1750,0837;0,0133669
1751,0480;0,0128778
1752,0122;0,0124695
1752,9764;0,0121128
1753,9407;0,0117749
1754,9049;0,0114315
1755,8691;0,0110742
1756,8334;0,0107124
1757,7976;0,0103609
1758,7618;0,0100205
1759,7261;0,0096755
1760,6903;0,00931555
1761,6545;0,00895937
1762,6188;0,00864967
1763,5830;0,0084206
1764,5472;0,00827248
1765,5115;0,00817332
1766,4757;0,00807471
1767,4399;0,00792725
1768,4042;0,00769333
1769,3684;0,00736074
1770,3326;0,00695993
1771,2969;0,00657345
1772,2611;0,00630277
1773,2253;0,00619379
1774,1896;0,00620824
1775,1538;0,00627661
1776,1180;0,00634851
1777,0823;0,00639624
1778,0465;0,00640435
1779,0107;0,00637126
1779,9750;0,0063143
1780,9392;0,00626055
1781,9034;0,00622781
1782,8677;0,00621656
1783,8319;0,00621919
1784,7961;0,00623307
1785,7604;0,00626416
1786,7246;0,00631936
1787,6888;0,00639388
1788,6531;0,00646143
1789,6173;0,00647724
1790,5815;0,0064064
1791,5458;0,00626757
1792,5100;0,00613419
1793,4742;0,00606471
1794,4385;0,00605616
1795,4027;0,00607576
1796,3669;0,00609715
1797,3312;0,00610473
1798,2954;0,00609218
1799,2596;0,00606715
1800,2239;0,00604954
1801,1881;0,00605561
1802,1523;0,00608451
1803,1166;0,00612386
1804,0808;0,0061626
1805,0450;0,00619421
1806,0093;0,00621182
1806,9735;0,00620533
1807,9377;0,00616608
1808,9020;0,00609701
1809,8662;0,00601878
1810,8304;0,00596163
1811,7947;0,00594613
1812,7589;0,00597121
1813,7231;0,00601882
1814,6874;0,00606615
1815,6516;0,00609589
1816,6158;0,00610314
1817,5801;0,00609753
1818,5443;0,00609664
1819,5085;0,00611357
1820,4728;0,00614836
1821,4370;0,00618815
1822,4012;0,00621468
1823,3655;0,00621466
1824,3297;0,00618626
1825,2939;0,00613557
1826,2582;0,00606766
1827,2224;0,0059841
1828,1866;0,00589207
1829,1509;0,00581504
1830,1151;0,00578591
1831,0793;0,0058205
1832,0436;0,00590352
1833,0078;0,00600367
1833,9720;0,0060924
1834,9363;0,00615063
1835,9005;0,00617405
1836,8647;0,00617816
1837,8290;0,00619177
1838,7932;0,00623789
1839,7574;0,00631743
1840,7217;0,00640489
1841,6859;0,00645699
1842,6501;0,00643798
1843,6144;0,00635279
1844,5786;0,00624896
1845,5428;0,00617139
1846,5071;0,00612813
1847,4713;0,00610456
1848,4355;0,0060874
1849,3998;0,00607182
1850,3640;0,00605946
1851,3282;0,00605496
1852,2925;0,00606175
1853,2567;0,00607864
1854,2209;0,00610056
1855,1852;0,00612291
1856,1494;0,00614533
1857,1136;0,00617003
1858,0779;0,00619714
1859,0421;0,00622112
1860,0063;0,00623317
1860,9706;0,00622881
1861,9348;0,00621421
1862,8990;0,00620422
1863,8633;0,0062122
1864,8275;0,0062382
1865,7917;0,00626518
1866,7560;0,00626962
1867,7202;0,00624179
1868,6844;0,00619388
1869,6487;0,006143
1870,6129;0,00609474
1871,5771;0,00604914
1872,5414;0,00601054
1873,5056;0,00598664
1874,4698;0,00598368
1875,4341;0,00600414
1876,3983;0,00604434
1877,3625;0,00609311
1878,3268;0,00613398
1879,2910;0,00615358
1880,2552;0,00614959
1881,2195;0,00613314
1882,1837;0,00612322
1883,1479;0,00613553
1884,1122;0,00617253
1885,0764;0,00622109
1886,0406;0,00625895
1887,0049;0,00626642
1887,9691;0,0062384
1888,9333;0,00618932
1889,8976;0,00614426
1890,8618;0,00612193
1891,8260;0,00612485
1892,7903;0,00614324
1893,7545;0,00616496
1894,7188;0,00618323
1895,6830;0,00619828
1896,6472;0,00621262
1897,6115;0,00622467
1898,5757;0,00622769
1899,5399;0,00621532
1900,5042;0,00618861
1901,4684;0,00615855
1902,4326;0,0061408
1903,3969;0,00614514
1904,3611;0,0061675
1905,3253;0,00619172
1906,2896;0,0062001
1907,2538;0,00618544
1908,2180;0,00615706
1909,1823;0,00613598
1910,1465;0,00614151
1911,1107;0,0061796
1912,0750;0,00624233
1913,0392;0,00631525
1914,0034;0,0063831
1914,9677;0,00643135
1915,9319;0,00644871
1916,8961;0,00643206
1917,8604;0,00638873
1918,8246;0,00633209
1919,7888;0,00627482
1920,7531;0,00622569
1921,7173;0,00619033
1922,6815;0,00617309
1923,6458;0,00617707
1924,6100;0,00620079
1925,5742;0,00623481
1926,5385;0,00626256
1927,5027;0,00626609
1928,4669;0,00623459
1929,4312;0,00617306
1930,3954;0,00610458
1931,3596;0,00606048
1932,3239;0,00606312
1933,2881;0,00611204
1934,2523;0,00618438
1935,2166;0,0062501
1936,1808;0,00629198
1937,1450;0,00631673
1938,1093;0,00634871
1939,0735;0,00641089
1940,0377;0,00650602
1941,0020;0,00661011
1941,9662;0,00668378
1942,9304;0,00669684
1943,8947;0,00664914
1944,8589;0,00657024
1945,8231;0,00649888
1946,7874;0,00646023
1947,7516;0,00645603
1948,7158;0,00646952
1949,6801;0,00647828
1950,6443;0,00646672
1951,6085;0,0064325
1952,5728;0,00638666
1953,5370;0,00634981
1954,5012;0,0063456
1955,4655;0,00639047
1956,4297;0,00648123
1957,3939;0,00658749
1958,3582;0,00665796
1959,3224;0,00664414
1960,2866;0,00653145
1961,2509;0,00635609
1962,2151;0,00619038
1963,1793;0,00610284
1964,1436;0,0061195
1965,1078;0,00621031
1966,0720;0,00630782
1967,0363;0,00634819
1968,0005;0,00631012
1968,9647;0,0062249
1969,9290;0,00615131
1970,8932;0,00613647
1971,8574;0,00618759
1972,8217;0,00626571
1973,7859;0,00630156
1974,7501;0,00623075
1975,7144;0,0060352
1976,6786;0,00576899
1977,6428;0,00554116
1978,6071;0,00545608
1979,5713;0,00555203
1980,5355;0,00578459
1981,4998;0,00606163
1982,4640;0,00629801
1983,4282;0,00645505
1984,3925;0,00654658
1985,3567;0,0066135
1986,3209;0,00668536
1987,2852;0,00675578
1988,2494;0,00678807
1989,2136;0,00674505
1990,1779;0,00662156
1991,1421;0,0064568
1992,1063;0,00631669
1993,0706;0,00625765
1994,0348;0,00629852
1994,9990;0,00641737
1995,9633;0,00656713
1996,9275;0,00669577
1997,8917;0,0067641
1998,8560;0,00675971
1999,8202;0,00670183
2000,7844;0,00663035
2001,7487;0,00658109
2002,7129;0,00656154
2003,6771;0,00654473
2004,6414;0,00648918
2005,6056;0,00637579
2006,5698;0,00623413
2007,5341;0,00613181
2008,4983;0,00612741
2009,4625;0,00622377
2010,4268;0,0063624
2011,3910;0,00646338
2012,3552;0,00647775
2013,3195;0,00641446
2014,2837;0,00632705
2015,2479;0,00627438
2016,2122;0,00628445
2017,1764;0,00634596
2018,1406;0,00642852
2019,1049;0,0065088
2020,0691;0,00657848
2021,0333;0,0066333
2021,9976;0,00666195
2022,9618;0,00665054
2023,9260;0,00659984
2024,8903;0,00653728
2025,8545;0,00650816
2026,8187;0,00654794
2027,7830;0,0066554
2028,7472;0,00678679
2029,7114;0,00687643
2030,6757;0,00687181
2031,6399;0,00676386
2032,6041;0,0065972
2033,5684;0,0064537
2034,5326;0,00641588
2035,4968;0,00652652
2036,4611;0,00676603
2037,4253;0,0070582
2038,3895;0,007303
2039,3538;0,00742066
2040,3180;0,00738751
2041,2822;0,00724521
2042,2465;0,00707556
2043,2107;0,00695475
2044,1749;0,00691615
2045,1392;0,00694384
2046,1034;0,00699579
2047,0676;0,00703718
2048,0320;0,0070607
2048,9961;0,00708129
2049,9604;0,00711427
2050,9246;0,00715849
2051,8889;0,00719671
2052,8530;0,00720893
2053,8174;0,00718599
2054,7815;0,00713485
2055,7458;0,00707191
2056,7100;0,0070111
2057,6743;0,00695595
2058,6384;0,00690238
2059,6028;0,00684929
2060,5669;0,00680752
2061,5313;0,00679875
2062,4954;0,00684369
2063,4597;0,00694659
2064,4238;0,00708639
2065,3882;0,00722152
2066,3523;0,00730628
2067,3167;0,00731001
2068,2808;0,00722938
2069,2451;0,00708994
2070,2092;0,00693843
2071,1736;0,00682815
2072,1377;0,00680064
2073,1021;0,00686781
2074,0662;0,00700363
2075,0305;0,00715221
2075,9946;0,00725133
2076,9590;0,00726076
2077,9231;0,00718036
2078,8875;0,00704734
2079,8516;0,00691443
2080,8159;0,00682315
2081,7800;0,00678787
2082,7444;0,00679806
2083,7085;0,00683255
2084,6729;0,00687385
2085,6370;0,0069126
2086,6013;0,00694371
2087,5654;0,00696112
2088,5298;0,00695876
2089,4939;0,00693691
2090,4583;0,00690714
2091,4224;0,00688923
2092,3867;0,0069003
2093,3508;0,00694355
2094,3152;0,007005
2095,2793;0,0070612
2096,2437;0,00709279
2097,2078;0,00709437
2098,1721;0,00707436
2099,1362;0,00704728
2100,1006;0,00702474
2101,0647;0,00701544
2102,0291;0,00702017
2102,9932;0,00703774
2103,9575;0,00706476
2104,9216;0,00709613
2105,8860;0,00712655
2106,8501;0,00715284
2107,8145;0,00717489
2108,7786;0,00719364
2109,7429;0,00720742
2110,7070;0,00721029
2111,6714;0,00719468
2112,6355;0,00715735
2113,5999;0,00710416
2114,5640;0,00704974
2115,5283;0,00701153
2116,4924;0,00700195
2117,4568;0,00702306
2118,4209;0,00706656
2119,3853;0,00711817
2120,3494;0,00716378
2121,3137;0,00719436
2122,2778;0,00720823
2123,2422;0,00721053
2124,2063;0,00721075
2125,1707;0,00721917
2126,1348;0,00724298
2127,0991;0,00728321
2128,0632;0,00733336
2129,0276;0,007381
2129,9917;0,00741211
2130,9561;0,00741732
2131,9202;0,00739768
2132,8845;0,00736677
2133,8486;0,00734669
2134,8130;0,00735764
2135,7771;0,00740619
2136,7415;0,0074802
2137,7056;0,00755517
2138,6699;0,00760901
2139,6340;0,00763571
2140,5984;0,00764962
2141,5625;0,00767766
2142,5269;0,00774439
2143,4910;0,00785807
2144,4553;0,00800509
2145,4194;0,00815488
2146,3838;0,00827254
2147,3479;0,00833316
2148,3123;0,00833147
2149,2764;0,00828282
2150,2407;0,00821535
2151,2048;0,00815743
2152,1692;0,00812702
2153,1333;0,00812891
2154,0977;0,00816123
2155,0618;0,00822562
2156,0261;0,00833112
2156,9902;0,0084842
2157,9546;0,00866927
2158,9187;0,00884125
2159,8831;0,00894891
2160,8472;0,0089736
2161,8115;0,00894418
2162,7756;0,00891424
2163,7400;0,00892316
2164,7041;0,00896836
2165,6685;0,00900542
2166,6326;0,0089765
2167,5969;0,00885022
2168,5610;0,0086465
2169,5254;0,00843023
2170,4895;0,00827854
2171,4539;0,00824122
2172,4180;0,00831579
2173,3823;0,00844987
2174,3464;0,00856933
2175,3108;0,00861566
2176,2749;0,0085699
2177,2393;0,00845048
2178,2034;0,00829162
2179,1677;0,00812243
2180,1318;0,00796151
2181,0962;0,00782619
2182,0603;0,00774174
2183,0247;0,00773642
2183,9888;0,00782236
2184,9531;0,00797843
2185,9172;0,00815195
2186,8816;0,0082811
2187,8457;0,0083234
2188,8101;0,00827145
2189,7742;0,00814732
2190,7385;0,00798282
2191,7026;0,00780229
2192,6670;0,00761957
2193,6311;0,00744671
2194,5955;0,00730211
2195,5596;0,00720753
2196,5239;0,00717564
2197,4880;0,00719938
2198,4524;0,00725357
2199,4165;0,0073087
2200,3809;0,0073466
2201,3450;0,00736663
2202,3093;0,00737967
2203,2734;0,00739673
2204,2378;0,00742202
2205,2019;0,00745407
2206,1663;0,00749072
2207,1304;0,00753094
2208,0947;0,00757138
2209,0588;0,00760161
2210,0232;0,00760449
2210,9873;0,00756402
2211,9517;0,00747615
2212,9158;0,0073552
2213,8801;0,00723089
2214,8442;0,00713739
2215,8086;0,00710052
2216,7727;0,00712955
2217,7371;0,00721628
2218,7012;0,00733952
2219,6655;0,00747163
2220,6296;0,00758429
2221,5940;0,00765307
2222,5581;0,00766141
2223,5225;0,00760445
2224,4866;0,00749175
2225,4509;0,00734699
2226,4150;0,00720293
2227,3794;0,00709099
2228,3435;0,00703573
2229,3079;0,00704664
2230,2720;0,00711785
2231,2363;0,00723324
2232,2004;0,00737353
2233,1648;0,00752122
2234,1289;0,00766131
2235,0933;0,00777934
2236,0574;0,00785982
2237,0217;0,00788814
2237,9858;0,00785613
2238,9502;0,0077683
2239,9143;0,00764518
2240,8787;0,0075208
2241,8428;0,00743406
2242,8071;0,00741614
2243,7712;0,00747838
2244,7356;0,00760575
2245,6997;0,00776035
2246,6641;0,00789546
2247,6282;0,00797562
2248,5925;0,00799315
2249,5566;0,00797167
2250,5210;0,00795306
2251,4851;0,00797393
2252,4495;0,00804514
2253,4136;0,00814694
2254,3779;0,00824333
2255,3420;0,00830604
2256,3064;0,00833152
2257,2705;0,0083393
2258,2349;0,00835447
2259,1990;0,00838811
2260,1633;0,0084302
2261,1274;0,00845877
2262,0918;0,00845752
2263,0559;0,0084288
2264,0203;0,00839359
2264,9844;0,00837964
2265,9487;0,00840631
2266,9128;0,00847499
2267,8772;0,00856875
2268,8413;0,00865939
2269,8057;0,00871825
2270,7698;0,00872723
2271,7341;0,0086864
2272,6982;0,00861451
2273,6626;0,00853994
2274,6267;0,00848518
2275,5911;0,00845351
2276,5552;0,00842748
2277,5195;0,00838204
2278,4836;0,00830447
2279,4480;0,00820776
2280,4121;0,00812802
2281,3765;0,0081076
2282,3406;0,00817551
2283,3049;0,00833683
2284,2690;0,00857498
2285,2334;0,00886228
2286,1975;0,00917143
2287,1619;0,00948322
2288,1260;0,0097898
2289,0903;0,010094
2290,0544;0,0104055
2291,0188;0,0107334
2291,9829;0,0110791
2292,9473;0,0114323
2293,9114;0,0117732
2294,8757;0,012081
2295,8398;0,012341
2296,8042;0,0125468
2297,7683;0,0126944
2298,7327;0,0127763
2299,6968;0,0127816
2300,6611;0,0127082
2301,6252;0,0125784
2302,5896;0,012445
2303,5537;0,0123808
2304,5181;0,0124488
2305,4822;0,0126654
2306,4465;0,0129764
2307,4106;0,013262
2308,3750;0,013377
2309,3391;0,0132101
2310,3035;0,0127352
2311,2676;0,0120281
2312,2319;0,0112357
2313,1960;0,0105115
2314,1604;0,00995165
2315,1245;0,00956673
2316,0889;0,009301
2317,0530;0,00908091
2318,0173;0,0088624
2318,9814;0,00865421
2319,9458;0,00851198
2320,9099;0,00851199
2321,8743;0,0087162
2322,8384;0,00913544
2323,8027;0,00970124
2324,7668;0,0102696
2325,7312;0,0106693
2326,6953;0,0107728
2327,6597;0,0105493
2328,6238;0,0100754
2329,5881;0,009505
2330,5522;0,00901527
2331,5166;0,00874238
2332,4807;0,00872888
2333,4451;0,00891562
2334,4092;0,00919308
2335,3735;0,00948094
2336,3376;0,00978171
2337,3020;0,0101752
2338,2661;0,0107577
2339,2305;0,0115533
2340,1946;0,0124361
2341,1589;0,0131023
2342,1230;0,0131641
2343,0874;0,0124626
2344,0515;0,0114612
2345,0159;0,0111025
2345,9800;0,0119649
2346,9443;0,0137159
2347,9084;0,0154532
2348,8728;0,0163674
2349,8369;0,0161528
2350,8013;0,0150716
2351,7654;0,013748
2352,7297;0,0127782
2353,6938;0,0123788
2354,6582;0,0123923
2355,6223;0,0126109
2356,5867;0,0129602
2357,5508;0,0133772
2358,5151;0,0136909
2359,4792;0,0137103
2360,4436;0,0133868
2361,4077;0,0128194
2362,3721;0,0121094
2363,3362;0,0112661
2364,3005;0,010251
2365,2646;0,0090714
2366,2290;0,00780636
2367,1931;0,00655881
2368,1575;0,00540719
2369,1216;0,00439907
2370,0859;0,00356866
2371,0500;0,00294745
2372,0144;0,00256392
2372,9785;0,00244329
2373,9429;0,00260965
2374,9070;0,00308171
2375,8713;0,00385643
2376,8354;0,00488837
2377,7998;0,00607941
2378,7639;0,00728912
2379,7283;0,00836402
2380,6924;0,00917457
2381,6567;0,00964564
2382,6208;0,00977017
2383,5852;0,00960334
2384,5493;0,00924101
2385,5137;0,00879081
2386,4778;0,00834546
2387,4421;0,00796605
2388,4063;0,0076787
2389,3706;0,0074823
2390,3347;0,00736128
2391,2991;0,00729692
2392,2632;0,00727361
2393,2275;0,00728016
2394,1917;0,00730818
2395,1560;0,00735018
2396,1201;0,00739841
2397,0845;0,007445
2398,0486;0,00748577
2399,0129;0,00751507
2399,9771;0,00752906
2400,9414;0,00752868
2401,9055;0,00751701
2402,8699;0,00750034
2403,8340;0,00748481
2404,7983;0,00747442
2405,7625;0,00747046
2406,7268;0,00747186
2407,6909;0,00747926
2408,6553;0,00749633
2409,6194;0,00752639
2410,5837;0,00757069
2411,5479;0,00762503
2412,5122;0,0076806
2413,4763;0,00772804
2414,4407;0,00776266
2415,4048;0,00778619
2416,3691;0,00780425
2417,3333;0,00782155
2418,2976;0,00783809
2419,2617;0,00785
2420,2261;0,00785328
2421,1902;0,00784676
2422,1545;0,00783508
2423,1187;0,00782535
2424,0830;0,0078233
2425,0471;0,00783045
2426,0115;0,00784446
2426,9756;0,00786175
2427,9399;0,00788018
2428,9041;0,00789985
2429,8684;0,00792177
2430,8325;0,00794606
2431,7969;0,00797123
2432,7610;0,00799518
2433,7253;0,00801673
2434,6895;0,00803633
2435,6538;0,008055
2436,6179;0,00807232
2437,5823;0,00808527
2438,5464;0,0080893
2439,5107;0,00808151
2440,4749;0,00806388
2441,4392;0,00804423
2442,4033;0,0080335
2443,3677;0,00804049
2444,3318;0,00806706
2445,2961;0,00810656
2446,2603;0,0081468
2447,2246;0,00817578
2448,1887;0,00818716
2449,1531;0,0081826
2450,1172;0,00817006
2451,0815;0,00815942
2452,0457;0,00815785
2453,0100;0,00816711
2453,9741;0,00818367
2454,9385;0,00820118
2455,9026;0,00821373
2456,8669;0,00821851
2457,8311;0,00821682
2458,7954;0,0082132
2459,7595;0,00821336
2460,7239;0,00822188
2461,6880;0,00824058
2462,6523;0,00826808
2463,6165;0,00830045
2464,5808;0,00833248
2465,5449;0,00835894
2466,5093;0,00837577
2467,4734;0,00838082
2468,4377;0,00837443
2469,4019;0,00835948
2470,3662;0,0083408
2471,3303;0,0083238
2472,2947;0,00831262
2473,2588;0,00830844
2474,2231;0,0083091
2475,1873;0,00831044
2476,1516;0,00830921
2477,1157;0,00830581
2478,0801;0,00830504
2479,0442;0,00831394
2480,0085;0,00833766
2480,9727;0,00837575
2481,9370;0,00842142
2482,9011;0,00846441
2483,8655;0,00849563
2484,8296;0,00851086
2485,7939;0,00851163
2486,7581;0,00850339
2487,7224;0,00849287
2488,6865;0,00848609
2489,6509;0,00848744
2490,6150;0,00849911
2491,5793;0,00852043
2492,5435;0,00854756
2493,5078;0,00857445
2494,4719;0,00859524
2495,4363;0,00860676
2496,4004;0,00860957
2497,3647;0,00860676
2498,3289;0,0086017
2499,2932;0,00859659
2500,2573;0,00859274
2501,2217;0,00859183
2502,1858;0,0085964
2503,1501;0,00860874
2504,1143;0,00862892
2505,0786;0,00865381
2506,0427;0,00867823
2507,0071;0,00869762
2507,9712;0,0087103
2508,9355;0,00871788
2509,8997;0,00872359
2510,8640;0,00873006
2511,8281;0,00873778
2512,7925;0,00874514
2513,7566;0,00874943
2514,7209;0,00874841
2515,6851;0,00874164
2516,6494;0,00873129
2517,6135;0,008722
2518,5779;0,00871941
2519,5420;0,00872757
2520,5063;0,00874637
2521,4705;0,00877051
2522,4348;0,00879131
2523,3989;0,00880072
2524,3633;0,00879557
2525,3274;0,00877952
2526,2917;0,00876133
2527,2559;0,00875049
2528,2202;0,00875241
2529,1843;0,008766
2530,1487;0,00878477
2531,1128;0,00880059
2532,0771;0,00880784
2533,0413;0,00880575
2534,0056;0,0087979
2534,9697;0,00878971
2535,9341;0,00878581
2536,8982;0,00878875
2537,8625;0,00879922
2538,8267;0,00881708
2539,7910;0,00884167
2540,7551;0,00887108
2541,7195;0,00890114
2542,6836;0,00892527
2543,6479;0,00893628
2544,6121;0,00892929
2545,5764;0,00890457
2546,5405;0,00886854
2547,5049;0,00883209
2548,4690;0,0088069
2549,4333;0,00880109
2550,3975;0,00881599
2551,3618;0,00884533
2552,3259;0,00887753
2553,2903;0,00890052
2554,2544;0,00890735
2555,2188;0,00889979
2556,1829;0,0088877
2557,1472;0,00888371
2558,1113;0,00889572
2559,0757;0,00892144
2560,0398;0,00894871
2561,0042;0,00896186
2561,9683;0,0089509
2562,9326;0,00891792
2563,8967;0,00887683
2564,8611;0,00884652
2565,8252;0,00884134
2566,7896;0,00886433
2567,7537;0,00890651
2568,7180;0,00895212
2569,6821;0,00898628
2570,6465;0,0090011
2571,6106;0,00899766
2572,5750;0,00898376
2573,5391;0,00896935
2574,5034;0,00896231
2575,4675;0,00896607
2576,4319;0,00897968
2577,3960;0,00899936
2578,3604;0,00902021
2579,3245;0,00903741
2580,2888;0,0090469
2581,2529;0,00904624
2582,2173;0,00903591
2583,1814;0,00902012
2584,1458;0,00900607
2585,1099;0,00900114
2586,0742;0,00900906
2587,0383;0,00902767
2588,0027;0,00904977
2588,9668;0,00906711
2589,9312;0,00907489
2590,8953;0,00907407
2591,8596;0,00907018
2592,8237;0,00906984
2593,7881;0,00907722
2594,7522;0,00909243
2595,7166;0,00911214
2596,6807;0,00913146
2597,6450;0,00914603
2598,6091;0,00915363
2599,5735;0,00915489
2600,5376;0,0091529
2601,5020;0,00915167
2602,4661;0,0091541
2603,4304;0,00916075
2604,3945;0,00917026
2605,3589;0,00918124
2606,3230;0,00919394
2607,2874;0,00921024
2608,2515;0,0092316
2609,2158;0,009257
2610,1799;0,0092824
2611,1443;0,00930273
2612,1084;0,00931485
2613,0728;0,00931921
2614,0369;0,00931928
2615,0012;0,00931931
2615,9653;0,00932221
2616,9297;0,00932882
2617,8938;0,00933836
2618,8582;0,00934925
2619,8223;0,00935974
2620,7866;0,00936837
2621,7507;0,00937464
2622,7151;0,00937962
2623,6792;0,00938591
2624,6436;0,00939655
2625,6077;0,00941332
2626,5720;0,00943574
2627,5361;0,00946123
2628,5005;0,00948637
2629,4646;0,00950821
2630,4290;0,00952496
2631,3931;0,00953599
2632,3574;0,0095419
2633,3215;0,00954459
2634,2859;0,00954714
2635,2500;0,00955289
2636,2144;0,00956408
2637,1785;0,00958087
2638,1428;0,00960166
2639,1069;0,00962433
2640,0713;0,00964761
2641,0354;0,0096711
2641,9998;0,00969426
2642,9639;0,00971534
2643,9282;0,00973163
2644,8923;0,00974106
2645,8567;0,00974414
2646,8208;0,00974441
2647,7852;0,00974697
2648,7493;0,00975585
2649,7136;0,00977193
2650,6777;0,00979277
2651,6421;0,00981408
2652,6062;0,00983188
2653,5706;0,00984406
2654,5347;0,00985086
2655,4990;0,00985449
2656,4631;0,00985832
2657,4275;0,00986585
2658,3916;0,00987951
2659,3560;0,00989947
2660,3201;0,00992318
2661,2844;0,00994612
2662,2485;0,00996391
2663,2129;0,00997472
2664,1770;0,00998056
2665,1414;0,00998622
2666,1055;0,00999645
2667,0698;0,010013
2668,0339;0,0100333
2668,9983;0,0100527
2669,9624;0,0100672
2670,9268;0,0100767
2671,8909;0,0100852
2672,8552;0,0100977
2673,8193;0,0101166
2674,7837;0,01014
2675,7478;0,010162
2676,7122;0,0101771
2677,6763;0,010183
2678,6406;0,0101823
2679,6047;0,0101815
2680,5691;0,0101872
2681,5332;0,0102034
2682,4976;0,01023
2683,4617;0,0102633
2684,4260;0,0102979
2685,3901;0,0103284
2686,3545;0,0103514
2687,3186;0,0103659
2688,2830;0,0103736
2689,2471;0,0103789
2690,2114;0,0103867
2691,1755;0,0104007
2692,1399;0,0104215
2693,1040;0,0104458
2694,0684;0,0104688
2695,0325;0,0104865
2695,9968;0,0104989
2696,9609;0,0105096
2697,9253;0,0105239
2698,8894;0,0105452
2699,8538;0,0105726
2700,8179;0,010602
2701,7822;0,010629
2702,7463;0,0106524
2703,7107;0,0106743
2704,6748;0,010698
2705,6392;0,0107245
2706,6033;0,0107513
2707,5676;0,0107739
2708,5317;0,0107897
2709,4961;0,0108006
2710,4602;0,0108122
2711,4246;0,0108302
2712,3887;0,0108566
2713,3530;0,0108879
2714,3171;0,0109168
2715,2815;0,0109367
2716,2456;0,0109449
2717,2100;0,0109443
2718,1741;0,0109417
2719,1384;0,0109447
2720,1025;0,0109587
2721,0669;0,0109841
2722,0310;0,0110174
2722,9954;0,0110519
2723,9595;0,0110816
2724,9238;0,0111031
2725,8879;0,0111173
2726,8523;0,0111281
2727,8164;0,0111407
2728,7808;0,0111588
2729,7449;0,0111831
2730,7092;0,0112115
2731,6733;0,0112406
2732,6377;0,0112666
2733,6018;0,0112865
2734,5662;0,0112986
2735,5303;0,0113036
2736,4946;0,0113038
2737,4587;0,0113039
2738,4231;0,0113088
2739,3872;0,0113221
2740,3516;0,0113445
2741,3157;0,0113734
2742,2800;0,011404
2743,2441;0,0114314
2744,2085;0,0114522
2745,1726;0,0114656
2746,1370;0,0114733
2747,1011;0,011479
2748,0654;0,0114868
2749,0295;0,0115001
2749,9939;0,0115203
2750,9580;0,0115466
2751,9224;0,0115759
2752,8865;0,0116042
2753,8508;0,0116285
2754,8149;0,0116475
2755,7793;0,0116624
2756,7434;0,0116764
2757,7078;0,0116924
2758,6719;0,0117121
2759,6362;0,0117346
2760,6003;0,0117569
2761,5647;0,0117757
2762,5288;0,0117897
2763,4932;0,0118006
2764,4573;0,0118131
2765,4216;0,0118328
2766,3857;0,0118634
2767,3501;0,0119042
2768,3142;0,0119502
2769,2786;0,0119935
2770,2427;0,0120272
2771,2070;0,0120479
2772,1711;0,0120575
2773,1355;0,0120619
2774,0996;0,0120687
2775,0640;0,0120842
2776,0281;0,0121113
2776,9924;0,0121482
2777,9565;0,0121908
2778,9209;0,0122336
2779,8850;0,0122732
2780,8494;0,0123089
2781,8135;0,0123429
2782,7778;0,0123783
2783,7419;0,0124173
2784,7063;0,0124596
2785,6704;0,0125023
2786,6348;0,0125418
2787,5989;0,0125758
2788,5632;0,0126048
2789,5273;0,0126324
2790,4917;0,0126629
2791,4558;0,0126996
2792,4202;0,0127429
2793,3843;0,0127907
2794,3486;0,0128396
2795,3127;0,012887
2796,2771;0,0129325
2797,2412;0,0129776
2798,2056;0,0130245
2799,1697;0,0130752
2800,1340;0,0131296
2801,0981;0,0131864
2802,0625;0,013244
2803,0266;0,0133012
2803,9910;0,0133581
2804,9551;0,0134151
2805,9194;0,0134729
2806,8835;0,0135311
2807,8479;0,0135893
2808,8120;0,0136471
2809,7764;0,0137051
2810,7405;0,0137653
2811,7048;0,0138301
2812,6689;0,0139022
2813,6333;0,0139831
2814,5974;0,0140728
2815,5618;0,0141694
2816,5259;0,0142691
2817,4902;0,0143679
2818,4543;0,0144627
2819,4187;0,0145531
2820,3828;0,0146414
2821,3472;0,0147315
2822,3113;0,0148271
2823,2756;0,0149303
2824,2397;0,0150417
2825,2041;0,0151606
2826,1682;0,0152862
2827,1326;0,0154178
2828,0967;0,0155553
2829,0610;0,0156984
2830,0251;0,0158471
2830,9895;0,0160015
2831,9536;0,0161617
2832,9180;0,0163271
2833,8821;0,0164961
2834,8464;0,0166665
2835,8105;0,0168375
2836,7749;0,0170108
2837,7390;0,0171919
2838,7034;0,0173883
2839,6675;0,0176074
2840,6318;0,0178541
2841,5959;0,0181296
2842,5603;0,018431
2843,5244;0,0187519
2844,4888;0,019083
2845,4529;0,0194121
2846,4172;0,0197248
2847,3813;0,020006
2848,3457;0,0202421
2849,3098;0,0204238
2850,2742;0,0205477
2851,2383;0,020618
2852,2026;0,0206444
2853,1667;0,0206401
2854,1311;0,0206175
2855,0952;0,0205856
2856,0596;0,0205493
2857,0237;0,0205112
2857,9880;0,0204753
2858,9521;0,0204482
2859,9165;0,0204384
2860,8806;0,020453
2861,8450;0,0204945
2862,8091;0,02056
2863,7734;0,0206432
2864,7375;0,0207385
2865,7019;0,020842
2866,6660;0,0209513
2867,6304;0,0210624
2868,5945;0,0211686
2869,5588;0,0212614
2870,5229;0,0213347
2871,4873;0,0213881
2872,4514;0,0214275
2873,4158;0,0214624
2874,3799;0,0215012
2875,3442;0,0215479
2876,3083;0,0216024
2877,2727;0,0216622
2878,2368;0,0217258
2879,2012;0,0217927
2880,1653;0,0218623
2881,1296;0,0219326
2882,0938;0,0219995
2883,0581;0,0220592
2884,0222;0,0221112
2884,9866;0,0221599
2885,9507;0,022213
2886,9150;0,0222784
2887,8792;0,0223603
2888,8435;0,0224564
2889,8076;0,0225592
2890,7720;0,0226586
2891,7361;0,0227458
2892,7004;0,022817
2893,6646;0,0228737
2894,6289;0,0229224
2895,5930;0,0229716
2896,5574;0,0230283
2897,5215;0,0230952
2898,4858;0,0231697
2899,4500;0,0232451
2900,4143;0,0233138
2901,3784;0,0233716
2902,3428;0,0234197
2903,3069;0,0234646
2904,2712;0,0235154
2905,2354;0,0235795
2906,1997;0,0236602
2907,1638;0,0237572
2908,1282;0,0238684
2909,0923;0,0239928
2910,0566;0,0241313
2911,0208;0,0242846
2911,9851;0,0244503
2912,9492;0,0246207
2913,9136;0,0247836
2914,8777;0,0249249
2915,8420;0,0250323
2916,8062;0,0250985
2917,7705;0,0251215
2918,7346;0,0251044
2919,6990;0,0250537
2920,6631;0,0249778
2921,6274;0,0248845
2922,5916;0,0247796
2923,5559;0,0246648
2924,5200;0,024538
2925,4844;0,0243953
2926,4485;0,0242342
2927,4128;0,0240558
2928,3770;0,0238652
2929,3413;0,0236696
2930,3054;0,023476
2931,2698;0,0232892
2932,2339;0,0231116
2933,1982;0,0229436
2934,1624;0,0227841
2935,1267;0,0226301
2936,0908;0,0224768
2937,0552;0,022319
2938,0193;0,0221517
2938,9836;0,0219726
2939,9478;0,0217816
2940,9121;0,0215813
2941,8762;0,021375
2942,8406;0,0211673
2943,8047;0,0209634
2944,7690;0,0207683
2945,7332;0,020586
2946,6975;0,020417
2947,6616;0,0202584
2948,6260;0,0201057
2949,5901;0,0199562
2950,5544;0,0198114
2951,5186;0,0196765
2952,4829;0,0195566
2953,4470;0,0194525
2954,4114;0,0193587
2955,3755;0,0192658
2956,3398;0,0191655
2957,3040;0,0190552
2958,2683;0,0189382
2959,2324;0,0188206
2960,1968;0,0187067
2961,1609;0,0185963
2962,1252;0,0184849
2963,0894;0,0183671
2964,0537;0,0182401
2965,0178;0,0181054
2965,9822;0,0179679
2966,9463;0,0178331
2967,9106;0,0177042
2968,8748;0,0175808
2969,8391;0,0174593
2970,8032;0,0173356
2971,7676;0,0172072
2972,7317;0,0170753
2973,6960;0,0169438
2974,6602;0,0168172
2975,6245;0,0166984
2976,5886;0,0165878
2977,5530;0,0164841
2978,5171;0,0163865
2979,4814;0,0162953
2980,4456;0,0162117
2981,4099;0,0161359
2982,3740;0,0160662
2983,3384;0,0160003
2984,3025;0,0159368
2985,2668;0,0158762
2986,2310;0,0158201
2987,1953;0,0157698
2988,1594;0,015725
2989,1238;0,0156841
2990,0879;0,0156466
2991,0522;0,0156141
2992,0164;0,0155899
2992,9807;0,0155763
2993,9448;0,0155729
2994,9092;0,0155762
2995,8733;0,0155819
2996,8376;0,0155875
2997,8018;0,0155934
2998,7661;0,015602
2999,7302;0,0156155
3000,6946;0,0156345
3001,6587;0,0156581
3002,6230;0,0156849
3003,5872;0,0157146
3004,5515;0,0157471
3005,5156;0,0157814
3006,4800;0,0158145
3007,4441;0,0158417
3008,4084;0,0158589
3009,3726;0,0158648
3010,3369;0,015862
3011,3010;0,0158565
3012,2654;0,0158548
3013,2295;0,0158617
3014,1938;0,0158792
3015,1580;0,0159069
3016,1223;0,0159433
3017,0864;0,015987
3018,0508;0,016036
3019,0149;0,0160876
3019,9792;0,0161386
3020,9434;0,0161867
3021,9077;0,0162318
3022,8718;0,0162766
3023,8362;0,0163247
3024,8003;0,0163784
3025,7646;0,0164369
3026,7288;0,0164959
3027,6931;0,0165508
3028,6572;0,0165981
3029,6216;0,0166374
3030,5857;0,0166709
3031,5500;0,0167027
3032,5142;0,0167377
3033,4785;0,0167816
3034,4426;0,0168398
3035,4070;0,0169158
3036,3711;0,0170089
3037,3354;0,0171122
3038,2996;0,0172145
3039,2639;0,0173041
3040,2280;0,0173743
3041,1924;0,017426
3042,1565;0,0174672
3043,1208;0,0175083
3044,0850;0,0175569
3045,0493;0,0176151
3046,0134;0,0176809
3046,9778;0,0177514
3047,9419;0,0178257
3048,9063;0,0179049
3049,8704;0,0179897
3050,8347;0,0180775
3051,7988;0,0181627
3052,7632;0,0182398
3053,7273;0,0183067
3054,6917;0,0183668
3055,6558;0,0184269
3056,6201;0,0184936
3057,5842;0,0185692
3058,5486;0,0186515
3059,5127;0,0187356
3060,4771;0,0188175
3061,4412;0,0188954
3062,4055;0,01897
3063,3696;0,0190428
3064,3340;0,0191152
3065,2981;0,0191882
3066,2625;0,019263
3067,2266;0,0193414
3068,1909;0,0194252
3069,1550;0,0195156
3070,1194;0,0196126
3071,0835;0,0197148
3072,0479;0,0198189
3073,0120;0,0199201
3073,9763;0,0200127
3074,9404;0,0200919
3075,9048;0,0201565
3076,8689;0,0202095
3077,8333;0,0202577
3078,7974;0,0203087
3079,7617;0,0203671
3080,7258;0,0204335
3081,6902;0,0205051
3082,6543;0,0205788
3083,6187;0,0206534
3084,5828;0,0207293
3085,5471;0,0208075
3086,5112;0,0208874
3087,4756;0,0209669
3088,4397;0,0210436
3089,4041;0,0211167
3090,3682;0,0211878
3091,3325;0,0212605
3092,2966;0,0213387
3093,2610;0,0214245
3094,2251;0,0215163
3095,1895;0,0216089
3096,1536;0,0216951
3097,1179;0,021769
3098,0820;0,0218295
3099,0464;0,0218825
3100,0105;0,0219386
3100,9749;0,0220087
3101,9390;0,0220981
3102,9033;0,022204
3103,8674;0,0223167
3104,8318;0,0224257
3105,7959;0,0225252
3106,7603;0,0226162
3107,7244;0,0227043
3108,6887;0,022795
3109,6528;0,0228895
3110,6172;0,0229847
3111,5813;0,0230765
3112,5457;0,0231639
3113,5098;0,0232493
3114,4741;0,0233364
3115,4382;0,0234261
3116,4026;0,0235146
3117,3667;0,0235957
3118,3311;0,0236664
3119,2952;0,0237299
3120,2595;0,0237952
3121,2236;0,0238727
3122,1880;0,0239685
3123,1521;0,0240817
3124,1165;0,0242061
3125,0806;0,0243332
3126,0449;0,0244556
3127,0090;0,0245673
3127,9734;0,0246642
3128,9375;0,0247453
3129,9019;0,0248146
3130,8660;0,0248828
3131,8303;0,0249633
3132,7944;0,0250659
3133,7588;0,0251902
3134,7229;0,0253243
3135,6873;0,0254507
3136,6514;0,0255561
3137,6157;0,0256385
3138,5798;0,025707
3139,5442;0,0257765
3140,5083;0,0258592
3141,4727;0,0259597
3142,4368;0,0260751
3143,4011;0,0261994
3144,3652;0,0263267
3145,3296;0,0264536
3146,2937;0,0265777
3147,2581;0,026697
3148,2222;0,0268094
3149,1865;0,0269135
3150,1506;0,0270106
3151,1150;0,0271043
3152,0791;0,0272006
3153,0435;0,0273047
3154,0076;0,027419
3154,9719;0,0275412
3155,9360;0,0276658
3156,9004;0,0277863
3157,8645;0,0278994
3158,8289;0,0280068
3159,7930;0,0281142
3160,7573;0,0282271
3161,7214;0,0283473
3162,6858;0,028471
3163,6499;0,028591
3164,6143;0,0287013
3165,5784;0,0288005
3166,5427;0,028893
3167,5068;0,0289865
3168,4712;0,0290886
3169,4353;0,0292825
3170,3997;0,0294094
3171,3638;0,0295432
3172,3281;0,0296771
3173,2922;0,0298037
3174,2566;0,0299176
3175,2207;0,0300174
3176,1851;0,0301072
3177,1492;0,0301954
3178,1135;0,0302914
3179,0776;0,0304006
3180,0420;0,0305219
3181,0061;0,0306488
3181,9705;0,0307731
3182,9346;0,0308895
3183,8989;0,030998
3184,8630;0,0311033
3185,8274;0,0312112
3186,7915;0,0313254
3187,7559;0,0314462
3188,7200;0,0315709
3189,6843;0,0316958
3190,6484;0,0318171
3191,6128;0,0319321
3192,5769;0,0320393
3193,5413;0,0321397
3194,5054;0,0322369
3195,4697;0,0323362
3196,4338;0,0324422
3197,3982;0,0325556
3198,3623;0,0326727
3199,3267;0,0327872
3200,2908;0,0328944
3201,2551;0,0329935
3202,2192;0,0330874
3203,1836;0,03318
3204,1477;0,0332728
3205,1121;0,0333645
3206,0762;0,0334534
3207,0405;0,0335398
3208,0046;0,0336263
3208,9690;0,0337171
3209,9331;0,0338144
3210,8975;0,0339182
3211,8616;0,0340265
3212,8259;0,0341377
3213,7900;0,0342506
3214,7544;0,0343643
3215,7185;0,0344764
3216,6829;0,0345836
3217,6470;0,0346838
3218,6113;0,0347773
3219,5754;0,0348676
3220,5398;0,0349592
3221,5039;0,0350548
3222,4683;0,035154
3223,4324;0,035255
3224,3967;0,0353567
3225,3608;0,0354596
3226,3252;0,0355653
3227,2893;0,0356741
3228,2537;0,0357838
3229,2178;0,0358903
3230,1821;0,0359894
3231,1462;0,0360797
3232,1106;0,0361634
3233,0747;0,0362454
3234,0391;0,0363318
3235,0032;0,0364276
3235,9675;0,0365353
3236,9316;0,0366545
3237,8960;0,0367813
3238,8601;0,0369093
3239,8245;0,0370306
3240,7886;0,0371383
3241,7529;0,0372288
3242,7170;0,0373043
3243,6814;0,037373
3244,6455;0,0374474
3245,6099;0,0375394
3246,5740;0,0376558
3247,5383;0,0377951
3248,5024;0,0379487
3249,4668;0,0381046
3250,4309;0,038252
3251,3953;0,0383844
3252,3594;0,0385002
3253,3237;0,0386017
3254,2878;0,0386924
3255,2522;0,0387764
3256,2163;0,0388585
3257,1807;0,0389441
3258,1448;0,0390386
3259,1091;0,0391454
3260,0732;0,0392642
3261,0376;0,0393909
3262,0017;0,0395202
3262,9661;0,0396482
3263,9302;0,0397739
3264,8945;0,0398983
3265,8586;0,0400211
3266,8230;0,0401387
3267,7871;0,0402443
3268,7515;0,0403312
3269,7156;0,0403965
3270,6799;0,0404436
3271,6440;0,0404813
3272,6084;0,0405199
3273,5725;0,0405667
3274,5369;0,0406238
3275,5010;0,0406887
3276,4653;0,0407572
3277,4294;0,0408255
3278,3938;0,0408913
3279,3579;0,0409528
3280,3223;0,0410073
3281,2864;0,0410514
3282,2507;0,0410832
3283,2148;0,0411041
3284,1792;0,0411192
3285,1433;0,041135
3286,1077;0,0411559
3287,0718;0,0411818
3288,0361;0,0412076
3289,0002;0,0412264
3289,9646;0,0412331
3290,9287;0,0412271
3291,8931;0,041212
3292,8572;0,0411944
3293,8215;0,0411811
3294,7856;0,0411768
3295,7500;0,0411834
3296,7141;0,0411992
3297,6785;0,04122
3298,6426;0,0412407
3299,6069;0,0412576
3300,5710;0,0412693
3301,5354;0,0412764
3302,4995;0,0412794
3303,4639;0,0412765
3304,4280;0,0412643
3305,3923;0,0412411
3306,3564;0,0412097
3307,3208;0,0411786
3308,2849;0,0411585
3309,2493;0,0411566
3310,2134;0,0411728
3311,1777;0,0411998
3312,1418;0,0412288
3313,1062;0,0412545
3314,0703;0,0412781
3315,0347;0,0413057
3315,9988;0,0413436
3316,9631;0,0413936
3317,9272;0,0414524
3318,8916;0,0415131
3319,8557;0,0415699
3320,8201;0,0416202
3321,7842;0,0416663
3322,7485;0,0417132
3323,7126;0,0417657
3324,6770;0,0418255
3325,6411;0,0418909
3326,6055;0,0419576
3327,5696;0,0420213
3328,5339;0,042079
3329,4980;0,042129
3330,4624;0,0421699
3331,4265;0,0421999
3332,3909;0,0422171
3333,3550;0,0422211
3334,3193;0,0422135
3335,2834;0,0421965
3336,2478;0,0421708
3337,2119;0,0421341
3338,1763;0,0420829
3339,1404;0,0420164
3340,1047;0,0419395
3341,0688;0,0418615
3342,0332;0,0417914
3342,9973;0,0417321
3343,9617;0,0416786
3344,9258;0,0416208
3345,8901;0,0415502
3346,8542;0,0414649
3347,8186;0,0413691
3348,7827;0,0412693
3349,7471;0,0411688
3350,7112;0,0410672
3351,6755;0,0409621
3352,6396;0,0408544
3353,6040;0,0407491
3354,5681;0,0406528
3355,5325;0,0405695
3356,4966;0,0404966
3357,4609;0,0404271
3358,4250;0,0403543
3359,3894;0,0402763
3360,3535;0,0401968
3361,3179;0,0401213
3362,2820;0,0400522
3363,2463;0,0399857
3364,2104;0,039914
3365,1748;0,0398305
3366,1389;0,0397341
3367,1033;0,0396303
3368,0674;0,0395271
3369,0317;0,0394299
3369,9958;0,0393388
3370,9602;0,0392499
3371,9243;0,0391586
3372,8887;0,0390637
3373,8528;0,0389683
3374,8171;0,0388771
3375,7813;0,0387934
3376,7456;0,0387162
3377,7097;0,0386407
3378,6741;0,0385606
3379,6382;0,0384717
3380,6025;0,0383736
3381,5667;0,0382707
3382,5310;0,0381704
3383,4951;0,0380803
3384,4595;0,0380047
3385,4236;0,0379432
3386,3879;0,0378904
3387,3521;0,0378386
3388,3164;0,0377815
3389,2805;0,0377163
3390,2449;0,0376433
3391,2090;0,0375649
3392,1733;0,0374831
3393,1375;0,0373985
3394,1018;0,037311
3395,0659;0,0372209
3396,0303;0,0371302
3396,9944;0,0370411
3397,9587;0,0369545
3398,9229;0,0368689
3399,8872;0,036781
3400,8513;0,0366879
3401,8157;0,036588
3402,7798;0,0364822
3403,7441;0,0363722
3404,7083;0,0362601
3405,6726;0,0361478
3406,6367;0,0360369
3407,6011;0,0359288
3408,5652;0,0358241
3409,5295;0,0357218
3410,4937;0,0356199
3411,4580;0,0355157
3412,4221;0,0354079
3413,3865;0,0352968
3414,3506;0,0351835
3415,3149;0,0350679
3416,2791;0,0349476
3417,2434;0,034819
3418,2075;0,0346806
3419,1719;0,0345353
3420,1360;0,03439
3421,1003;0,0342525
3422,0645;0,0341262
3423,0288;0,0340094
3423,9929;0,0338963
3424,9573;0,0337816
3425,9214;0,0336628
3426,8857;0,0335407
3427,8499;0,0334177
3428,8142;0,0332955
3429,7783;0,0331735
3430,7427;0,0330503
3431,7068;0,0329252
3432,6711;0,0328001
3433,6353;0,0326779
3434,5996;0,0325601
3435,5637;0,0324448
3436,5281;0,0323272
3437,4922;0,0322027
3438,4565;0,0320715
3439,4207;0,0319385
3440,3850;0,0318101
3441,3491;0,0316878
3442,3135;0,0315643
3443,2776;0,0314265
3444,2419;0,031264
3445,2061;0,0310782
3446,1704;0,030884
3447,1345;0,0307024
3448,0989;0,0305466
3449,0630;0,0304147
3450,0273;0,0302943
3450,9915;0,0301732
3451,9558;0,0300482
3452,9199;0,0299252
3453,8843;0,0298126
3454,8484;0,0297119
3455,8127;0,0296143
3456,7769;0,0295047
3457,7412;0,0293713
3458,7053;0,0292136
3459,6697;0,0290418
3460,6338;0,028871
3461,5981;0,0287117
3462,5623;0,0285646
3463,5266;0,028422
3464,4907;0,0282743
3465,4551;0,0281161
3466,4192;0,0279499
3467,3835;0,027783
3468,3477;0,0276236
3469,3120;0,0274757
3470,2761;0,0273379
3471,2405;0,0272054
3472,2046;0,0270744
3473,1689;0,026945
3474,1331;0,0268202
3475,0974;0,0267025
3476,0615;0,0265889
3477,0259;0,0264706
3477,9900;0,0263371
3478,9543;0,0261829
3479,9185;0,026013
3480,8828;0,0258418
3481,8469;0,025684
3482,8113;0,0255447
3483,7754;0,0254159
3484,7397;0,0252838
3485,7039;0,0251389
3486,6682;0,0249831
3487,6323;0,024828
3488,5967;0,0246862
3489,5608;0,0245609
3490,5251;0,0244423
3491,4893;0,024314
3492,4536;0,024164
3493,4177;0,0239936
3494,3821;0,0238192
3495,3462;0,0236646
3496,3105;0,0235476
3497,2747;0,0234681
3498,2390;0,0234079
3499,2031;0,0233384
3500,1675;0,0232331
3501,1316;0,0230808
3502,0959;0,0228921
3503,0601;0,022694
3504,0244;0,0225132
3504,9885;0,0223612
3505,9529;0,0222326
3506,9170;0,022112
3507,8813;0,0219833
3508,8455;0,0218379
3509,8098;0,0216782
3510,7739;0,0215138
3511,7383;0,0213552
3512,7024;0,0212094
3513,6667;0,0210789
3514,6309;0,0209624
3515,5952;0,0208553
3516,5593;0,0207522
3517,5237;0,0206487
3518,4878;0,0205435
3519,4521;0,020439
3520,4163;0,0203395
3521,3806;0,020247
3522,3447;0,0201578
3523,3091;0,0200612
3524,2732;0,0199429
3525,2375;0,0197923
3526,2017;0,0196095
3527,1660;0,0194071
3528,1301;0,019205
3529,0945;0,0190219
3530,0586;0,0188666
3531,0229;0,0187382
3531,9871;0,0186296
3532,9514;0,018531
3533,9155;0,0184333
3534,8799;0,0183298
3535,8440;0,0182179
3536,8083;0,0181004
3537,7725;0,0179848
3538,7368;0,0178816
3539,7009;0,0178004
3540,6653;0,0177446
3541,6294;0,017707
3542,5938;0,0176694
3543,5579;0,01761
3544,5222;0,0175132
3545,4863;0,0173762
3546,4507;0,0172064
3547,4148;0,0170144
3548,3792;0,016811
3549,3433;0,0166047
3550,3076;0,0164026
3551,2717;0,0162138
3552,2361;0,0160503
3553,2002;0,0159238
3554,1646;0,0158371
3555,1287;0,0157826
3556,0930;0,0157454
3557,0571;0,0157089
3558,0215;0,0156621
3558,9856;0,0156073
3559,9500;0,0155626
3560,9141;0,0155528
3561,8784;0,0155912
3562,8425;0,0156623
3563,8069;0,0157155
3564,7710;0,0156819
3565,7354;0,0155208
3566,6995;0,0152585
3567,6638;0,0149655
3568,6279;0,0146947
3569,5923;0,0144645
3570,5564;0,0142762
3571,5208;0,014123
3572,4849;0,0139919
3573,4492;0,0138726
3574,4133;0,0137672
3575,3777;0,0136896
3576,3418;0,0136542
3577,3062;0,0136653
3578,2703;0,0137163
3579,2346;0,013798
3580,1987;0,0139054
3581,1631;0,01404
3582,1272;0,0142021
3583,0916;0,014381
3584,0557;0,014547
3585,0200;0,0146639
3585,9841;0,014722
3586,9485;0,0147596
3587,9126;0,0148282
3588,8770;0,0149418
3589,8411;0,0150817
3590,8054;0,015223
3591,7695;0,0153352
3592,7339;0,0153786
3593,6980;0,0153253
3594,6624;0,015185
3595,6265;0,0150044
3596,5908;0,0148333
3597,5549;0,0146929
3598,5193;0,0145722
3599,4834;0,0144474
3600,4478;0,0143066
3601,4119;0,0141594
3602,3762;0,0140251
3603,3403;0,0139102
3604,3047;0,0137897
3605,2688;0,0136046
3606,2332;0,0132847
3607,1973;0,0127909
3608,1616;0,012149
3609,1257;0,0114423
3610,0901;0,0107754
3611,0542;0,0102433
3612,0186;0,00991453
3612,9827;0,00981642
3613,9470;0,00992037
3614,9111;0,0101492
3615,8755;0,0104114
3616,8396;0,0106468
3617,8040;0,0108609
3618,7681;0,0111175
3619,7324;0,0114738
3620,6965;0,0119155
3621,6609;0,0123801
3622,6250;0,0128225
3623,5894;0,0132285
3624,5535;0,0135747
3625,5178;0,0137894
3626,4819;0,013761
3627,4463;0,0134257
3628,4104;0,0128708
3629,3748;0,0122719
3630,3389;0,0117186
3631,3032;0,0111996
3632,2673;0,010688
3633,2317;0,0101726
3634,1958;0,00965375
3635,1602;0,009142
3636,1243;0,00865574
3637,0886;0,00821081
3638,0527;0,00781249
3639,0171;0,00745881
3639,9812;0,00715151
3640,9456;0,00690332
3641,9097;0,00673366
3642,8740;0,00665362
3643,8381;0,00664592
3644,8025;0,00664458
3645,7666;0,0065265
3646,7310;0,00615673
3647,6951;0,00553771
3648,6594;0,00492921
3649,6235;0,00460378
3650,5879;0,00452843
3651,5520;0,00452844
3652,5164;0,00451226
3653,4805;0,00445671
3654,4448;0,00434827
3655,4089;0,00418323
3656,3733;0,00399001
3657,3374;0,00381913
3658,3018;0,00370747
3659,2659;0,00366349
3660,2302;0,00367769
3661,1943;0,00373557
3662,1587;0,00382679
3663,1228;0,00394904
3664,0872;0,00410292
3665,0513;0,00427587
3666,0156;0,00442891
3666,9797;0,00450258
3667,9441;0,00446274
3668,9082;0,00435987
3669,8726;0,00430741
3670,8367;0,00436976
3671,8010;0,00450909
3672,7651;0,00463099
3673,7295;0,00464751
3674,6936;0,00454271
3675,6580;0,0044025
3676,6221;0,00432759
3677,5864;0,00433967
3678,5505;0,00441831
3679,5149;0,00455637
3680,4790;0,00475602
3681,4434;0,00501196
3682,4075;0,00530909
3683,3718;0,00562602
3684,3359;0,00593293
3685,3003;0,0061852
3686,2644;0,00633085
3687,2288;0,00635682
3688,1929;0,00635598
3689,1572;0,00649686
3690,1213;0,00684819
3691,0857;0,00730853
3692,0498;0,0077503
3693,0142;0,00812647
3693,9783;0,00844914
3694,9426;0,00873951
3695,9067;0,00900315
3696,8711;0,009228
3697,8352;0,00939481
3698,7996;0,00949369
3699,7637;0,00953997
3700,7280;0,00957654
3701,6921;0,00964849
3702,6565;0,00976586
3703,6206;0,00989893
3704,5850;0,0100094
3705,5491;0,0100691
3706,5134;0,0100425
3707,4775;0,00985765
3708,4419;0,00940554
3709,4060;0,00860952
3710,3704;0,0075516
3711,3345;0,0065005
3712,2988;0,00572752
3713,2629;0,00533937
3714,2273;0,005316
3715,1914;0,00560451
3716,1558;0,0061508
3717,1199;0,00689376
3718,0842;0,00776011
3719,0483;0,00867163
3720,0127;0,00956112
3720,9768;0,0103864
3721,9412;0,0111305
3722,9053;0,0117854
3723,8696;0,0123338
3724,8337;0,0127446
3725,7981;0,0129884
3726,7622;0,0130603
3727,7266;0,0129856
3728,6907;0,0128022
3729,6550;0,0125371
3730,6191;0,0121949
3731,5835;0,0117629
3732,5476;0,0112302
3733,5120;0,0106097
3734,4761;0,00993881
3735,4404;0,00925099
3736,4045;0,00856559
3737,3689;0,00792326
3738,3330;0,00739686
3739,2974;0,00704809
3740,2615;0,00687481
3741,2258;0,0067846
3742,1899;0,00661433
3743,1543;0,00622443
3744,1184;0,00562723
3745,0828;0,00498208
3746,0469;0,00443085
3747,0112;0,003999
3747,9753;0,00362593
3748,9397;0,00323968
3749,9038;0,0028488
3750,8682;0,00256162
3751,8323;0,00244302
3752,7966;0,00243077
3753,7607;0,00244564
3754,7251;0,00246094
3755,6892;0,00247069
3756,6536;0,00246493
3757,6177;0,00244301
3758,5820;0,00242656
3759,5461;0,00244116
3760,5105;0,002492
3761,4746;0,00256656
3762,4390;0,00264855
3763,4031;0,00272172
3764,3674;0,00276917
3765,3315;0,00277595
3766,2959;0,00273422
3767,2600;0,00264811
3768,2244;0,00253743
3769,1885;0,00243614
3770,1528;0,00237886
3771,1169;0,00238197
3772,0813;0,00243717
3773,0454;0,00252255
3774,0098;0,00261382
3774,9739;0,00268617
3775,9382;0,00271605
3776,9023;0,00269408
3777,8667;0,00264018
3778,8308;0,00259414
3779,7952;0,00258083
3780,7593;0,00259126
3781,7236;0,00259981
3782,6877;0,0025894
3783,6521;0,00256126
3784,6162;0,00253047
3785,5806;0,00251381
3786,5447;0,0025189
3787,5090;0,00254249
3788,4731;0,00257803
3789,4375;0,00262274
3790,4016;0,00267671
3791,3660;0,00273627
3792,3301;0,00279017
3793,2944;0,00282485
3794,2585;0,00283652
3795,2229;0,00283743
3796,1870;0,00284488
3797,1514;0,00285906
3798,1155;0,00285198
3799,0798;0,00278468
3800,0439;0,00264803
3801,0083;0,00248635
3801,9724;0,00236077
3802,9368;0,00229298
3803,9009;0,00226234
3804,8652;0,00223993
3805,8293;0,00221433
3806,7937;0,0022011
3807,7578;0,00222847
3808,7222;0,00231043
3809,6863;0,0024433
3810,6506;0,00261701
3811,6147;0,00280862
3812,5791;0,00297088
3813,5432;0,0030477
3814,5076;0,00301749
3815,4717;0,00291579
3816,4360;0,00279548
3817,4001;0,00267328
3818,3645;0,00253133
3819,3286;0,00236222
3820,2930;0,00220189
3821,2571;0,00210418
3822,2214;0,00208203
3823,1855;0,00210456
3824,1499;0,00214405
3825,1140;0,00219662
3826,0784;0,00226964
3827,0425;0,00236683
3828,0068;0,00248252
3828,9709;0,00260278
3829,9353;0,00271174
3830,8994;0,00279924
3831,8638;0,00286379
3832,8279;0,00290634
3833,7922;0,00291851
3834,7563;0,00287572
3835,7207;0,00274806
3836,6848;0,00253092
3837,6492;0,00227219
3838,6133;0,00205491
3839,5776;0,00194094
3840,5417;0,00193936
3841,5061;0,00202475
3842,4702;0,00216442
3843,4346;0,00232923
3844,3987;0,00249755
3845,3630;0,00266214
3846,3271;0,00283546
3847,2915;0,00304209
3848,2556;0,0032945
3849,2200;0,00355964
3850,1841;0,00373481
3851,1484;0,00367775
3852,1125;0,00334977
3853,0769;0,00295085
3854,0410;0,00271072
3855,0054;0,0026191
3855,9695;0,00258213
3856,9338;0,00258218
3857,8979;0,00263536
3858,8623;0,002732
3859,8264;0,00282822
3860,7908;0,00287298
3861,7549;0,00284967
3862,7192;0,00279818
3863,6833;0,00278371
3864,6477;0,00283807
3865,6118;0,00293898
3866,5762;0,00303389
3867,5403;0,00306912
3868,5046;0,00301185
3869,4688;0,00286911
3870,4331;0,0026907
3871,3972;0,00254197
3872,3616;0,00246686
3873,3257;0,00247496
3874,2900;0,0025532
3875,2542;0,00267896
3876,2185;0,00282406
3877,1826;0,00295617
3878,1470;0,0030464
3879,1111;0,00308362
3880,0754;0,00308155
3881,0396;0,00306523
3882,0039;0,00304863
3882,9680;0,00302864
3883,9324;0,00299827
3884,8965;0,0029595
3885,8608;0,00292133
3886,8250;0,0028882
3887,7893;0,00285394
3888,7534;0,00280577
3889,7178;0,00273737
3890,6819;0,00266772
3891,6462;0,00264244
3892,6104;0,00269862
3893,5747;0,00283398
3894,5388;0,00301951
3895,5032;0,00322176
3896,4673;0,00340527
3897,4316;0,00353333
3898,3958;0,00358153
3899,3601;0,0035495
3900,3242;0,00345283
3901,2886;0,00330637
3902,2527;0,00312566
3903,2170;0,00293924
3904,1812;0,00278287
3905,1455;0,0026785
3906,1096;0,00262644
3907,0740;0,00261546
3908,0381;0,00263324
3909,0024;0,00267047
3909,9666;0,00272271
3910,9309;0,00279038
3911,8950;0,00287447
3912,8594;0,00296898
3913,8235;0,00305672
3914,7878;0,00311456
3915,7520;0,00312789
3916,7163;0,00310412
3917,6804;0,0030694
3918,6448;0,00304833
3919,6089;0,00304732
3920,5732;0,00305575
3921,5374;0,00305634
3922,5017;0,00303653
3923,4658;0,00299742
3924,4302;0,00295429
3925,3943;0,00292558
3926,3586;0,00292022
3927,3228;0,00293395
3928,2871;0,00295345
3929,2512;0,00296372
3930,2156;0,00295697
3931,1797;0,00293753
3932,1440;0,00291653
3933,1082;0,00290198
3934,0725;0,0028966
3935,0366;0,0029026
3936,0010;0,00292352
3936,9651;0,00296052
3937,9294;0,00300794
3938,8936;0,00305263
3939,8579;0,00307921
3940,8220;0,0030795
3941,7864;0,00305992
3942,7505;0,00303921
3943,7148;0,00303627
3944,6790;0,003058
3945,6433;0,00309481
3946,6074;0,00312495
3947,5718;0,00312537
3948,5359;0,00308484
3949,5002;0,00301135
3950,4644;0,00292759
3951,4287;0,00285829
3952,3928;0,002819
3953,3572;0,0028124
3954,3213;0,00283115
3955,2856;0,00286394
3956,2498;0,00290101
3957,2141;0,0029364
3958,1782;0,00296669
3959,1426;0,00298867
3960,1067;0,00299863
3961,0710;0,00299456
3962,0352;0,00297901
3962,9995;0,00295981
3963,9636;0,00294692
3964,9280;0,00294673
3965,8921;0,00295822
3966,8564;0,00297301
3967,8206;0,0029803
3968,7849;0,00297373
3969,7490;0,00295588
3970,7134;0,00293691
3971,6775;0,00292833
3972,6418;0,00293579
3973,6060;0,00295575
3974,5703;0,00297756
3975,5344;0,00298974
3976,4988;0,00298604
3977,4629;0,00296796
3978,4272;0,00294294
3979,3914;0,00292004
3980,3557;0,0029059
3981,3198;0,0029025
3982,2842;0,00290728
3983,2483;0,00291522
3984,2126;0,00292191
3985,1768;0,00292608
3986,1411;0,00293015
3987,1052;0,00293839
3988,0696;0,00295387
3989,0337;0,00297528
3989,9980;0,00299655
3990,9622;0,00300906
3991,9265;0,00300597
3992,8906;0,00298584
3993,8550;0,00295367
3994,8191;0,00291869
3995,7834;0,00289032
3996,7476;0,00287446
3997,7119;0,00287201
3998,6760;0,0028798
3999,6404;0,00289282
4000,6045;0,00275325

##### Extended Information
[Comments]
Sample name
Comment
Username
Division
Organization;UNIVERSIDAD INDUSTRIAL DE SANTANDER

[Detailed Information]
Creation date;29/01/2025 10:50 a.m.

Data array type;Linear data array
Horizontal axis;Wavenumber [cm-1]
Vertical axis;Abs
Start;399,193 cm-1
End;4000,6 cm-1
Data interval;0,964233 cm-1
Data points;3736    

[Measurement Information]
Model name;FT/IR-4X1typeA
Serial No.;A035162111

Accessory;ATR PRO 4X
Accessory S/N;A021162126
Incident angle;45 deg

Measurement date;29/01/2025 10:50 a.m.

Light source;Standard
Detector;TGS
Accumulation;Auto (73)
Resolution;4 cm-1
Zero filling;On
Apodization;Cosine
Gain;Auto (8)
Aperture;Auto (7 mm)
Scan speed;Auto (2 mm/sec)
Filter;Auto (12800 Hz)

