TITLE;
DATA TYPE;INFRARED SPECTRUM
ORIGIN;JASCO
OWNER;
DATE;25/01/29
TIME;10:53:12
SPECTROMETER/DATA SYSTEM;
LOCALE;9226
RESOLUTION;
DELTAX;0,964233
XUNITS;1/CM
YUNITS;ABSORBANCE
FIRSTX;  399,1927
LASTX; 4000,6047
NPOINTS;    3736
FIRSTY;     0,10604
MAXY;     0,13623
MINY;     0,00050
XYDATA
399,1927;0,106044
400,1569;0,105485
401,1211;0,10603
402,0854;0,107107
403,0496;0,10823
404,0138;0,109056
404,9781;0,10937
405,9423;0,109108
406,9065;0,108387
407,8708;0,107476
408,8350;0,10669
409,7992;0,106283
410,7635;0,106377
411,7277;0,10695
412,6919;0,107856
413,6562;0,108896
414,6204;0,109858
415,5846;0,110519
416,5489;0,110623
417,5131;0,109963
418,4773;0,108677
419,4416;0,107451
420,4058;0,107033
421,3700;0,107587
422,3343;0,10879
423,2985;0,110229
424,2627;0,111572
425,2270;0,112592
426,1912;0,113181
427,1554;0,113373
428,1197;0,113319
429,0839;0,113236
430,0481;0,113335
431,0124;0,113751
431,9766;0,114478
432,9408;0,115349
433,9051;0,116108
434,8693;0,116539
435,8335;0,1166
436,7978;0,116446
437,7620;0,116326
438,7262;0,116418
439,6905;0,116733
440,6547;0,11714
441,6189;0,117457
442,5832;0,117565
443,5474;0,11747
444,5116;0,117266
445,4759;0,117048
446,4401;0,11685
447,4043;0,116664
448,3686;0,116501
449,3328;0,116431
450,2970;0,116549
451,2613;0,116904
452,2255;0,117437
453,1897;0,117984
454,1540;0,118342
455,1182;0,118359
456,0824;0,118012
457,0467;0,11744
458,0109;0,116908
458,9751;0,116656
459,9394;0,116756
460,9036;0,117105
461,8678;0,117536
462,8321;0,117917
463,7963;0,118179
464,7605;0,118315
465,7248;0,118357
466,6890;0,11835
467,6532;0,118323
468,6175;0,118278
469,5817;0,118189
470,5459;0,118021
471,5102;0,117764
472,4744;0,117447
473,4386;0,11714
474,4029;0,116905
475,3671;0,116766
476,3313;0,116704
477,2956;0,116691
478,2598;0,116701
479,2240;0,116729
480,1883;0,116777
481,1525;0,116842
482,1167;0,11691
483,0810;0,116964
484,0452;0,117
485,0094;0,117034
485,9737;0,117094
486,9379;0,117196
487,9021;0,117326
488,8664;0,117446
489,8306;0,117508
490,7948;0,117476
491,7591;0,117342
492,7233;0,11713
493,6875;0,116887
494,6518;0,116658
495,6160;0,116477
496,5802;0,116359
497,5445;0,116304
498,5087;0,116305
499,4729;0,116352
500,4372;0,116436
501,4014;0,116543
502,3656;0,116645
503,3299;0,116703
504,2941;0,116684
505,2583;0,116581
506,2226;0,116433
507,1868;0,116317
508,1510;0,116321
509,1153;0,116498
510,0795;0,116833
511,0437;0,117249
512,0080;0,117642
512,9722;0,117925
513,9365;0,118056
514,9007;0,118042
515,8649;0,117918
516,8292;0,117734
517,7934;0,117544
518,7576;0,117389
519,7219;0,1173
520,6861;0,11728
521,6503;0,117314
522,6146;0,117363
523,5788;0,117382
524,5430;0,117327
525,5073;0,117179
526,4715;0,116959
527,4357;0,116716
528,4000;0,116506
529,3642;0,116361
530,3284;0,116283
531,2927;0,116242
532,2569;0,116197
533,2211;0,116109
534,1854;0,115957
535,1496;0,115754
536,1138;0,115538
537,0781;0,115351
538,0423;0,115214
539,0065;0,115124
539,9708;0,115067
540,9350;0,115042
541,8992;0,115071
542,8635;0,115186
543,8277;0,115399
544,7919;0,115678
545,7562;0,115954
546,7204;0,116164
547,6846;0,116292
548,6489;0,116379
549,6131;0,116497
550,5773;0,116696
551,5416;0,116976
552,5058;0,117296
553,4700;0,117607
554,4343;0,117878
555,3985;0,11809
556,3627;0,118216
557,3270;0,11819
558,2912;0,117929
559,2554;0,117365
560,2197;0,116494
561,1839;0,115387
562,1481;0,114165
563,1124;0,112952
564,0766;0,111827
565,0408;0,110819
566,0051;0,109932
566,9693;0,10917
567,9335;0,108548
568,8978;0,108083
569,8620;0,107761
570,8262;0,107539
571,7905;0,107358
572,7547;0,107173
573,7189;0,106973
574,6832;0,106776
575,6474;0,106607
576,6116;0,106483
577,5759;0,106397
578,5401;0,106328
579,5043;0,106255
580,4686;0,106166
581,4328;0,106062
582,3970;0,105952
583,3613;0,105853
584,3255;0,105782
585,2897;0,105748
586,2540;0,105746
587,2182;0,105755
588,1824;0,105749
589,1467;0,105717
590,1109;0,105666
591,0751;0,105619
592,0394;0,105594
593,0036;0,105586
593,9678;0,105565
594,9321;0,1055
595,8963;0,10537
596,8605;0,105175
597,8248;0,10493
598,7890;0,104652
599,7532;0,104362
600,7175;0,104078
601,6817;0,103818
602,6459;0,10359
603,6102;0,103388
604,5744;0,103192
605,5386;0,102987
606,5029;0,102768
607,4671;0,102536
608,4313;0,102283
609,3956;0,101992
610,3598;0,101661
611,3240;0,101336
612,2883;0,101121
613,2525;0,101133
614,2167;0,101412
615,1810;0,101842
616,1452;0,102147
617,1094;0,102012
618,0737;0,101259
619,0379;0,099977
620,0021;0,0984664
620,9664;0,0970721
621,9306;0,096018
622,8948;0,0953455
623,8591;0,0949541
624,8233;0,0946153
625,7875;0,0943644
626,7518;0,094151
627,7160;0,0939671
628,6802;0,0937946
629,6445;0,0936091
630,6087;0,0933858
631,5729;0,093132
632,5372;0,0928837
633,5014;0,0926851
634,4656;0,0925644
635,4299;0,092523
636,3941;0,0925463
637,3583;0,0926209
638,3226;0,092741
639,2868;0,0928991
640,2510;0,0930755
641,2153;0,0932421
642,1795;0,0933818
643,1437;0,0935072
644,1080;0,0936568
645,0722;0,093866
646,0364;0,0941328
647,0007;0,0944046
647,9649;0,0945996
648,9291;0,0946539
649,8934;0,094565
650,8576;0,0943999
651,8218;0,0942605
652,7861;0,0942339
653,7503;0,094356
654,7145;0,0945986
655,6788;0,0948835
656,6430;0,0951217
657,6072;0,0952591
658,5715;0,0952951
659,5357;0,0952514
660,4999;0,0951061
661,4642;0,0947438
662,4284;0,0939574
663,3926;0,0925364
664,3569;0,0904598
665,3211;0,0881833
666,2853;0,086774
667,2496;0,0873359
668,2138;0,0895175
669,1780;0,0914417
670,1423;0,0922073
671,1065;0,0922074
672,0707;0,0917145
673,0350;0,0907771
673,9992;0,0895794
674,9634;0,0884301
675,9277;0,0875473
676,8919;0,086922
677,8561;0,0863857
678,8204;0,085774
679,7846;0,0850285
680,7488;0,084178
681,7131;0,0832872
682,6773;0,0824009
683,6415;0,0815467
684,6058;0,0807457
685,5700;0,0800232
686,5342;0,0793993
687,4985;0,0788753
688,4627;0,078443
689,4269;0,0780588
690,3912;0,0776865
691,3554;0,0773065
692,3196;0,0769128
693,2839;0,0765055
694,2481;0,076086
695,2123;0,0756573
696,1766;0,0752232
697,1408;0,0747868
698,1050;0,074349
699,0693;0,0739084
700,0335;0,0734645
700,9977;0,0730206
701,9620;0,0725851
702,9262;0,0721678
703,8904;0,0717473
704,8547;0,0713289
705,8189;0,0709053
706,7831;0,0704643
707,7474;0,0699947
708,7116;0,0694944
709,6758;0,068969
710,6401;0,0684237
711,6043;0,0678567
712,5685;0,0672643
713,5328;0,0666601
714,4970;0,06609
715,4612;0,0640246
716,4255;0,0640472
717,3897;0,0643247
718,3539;0,0646389
719,3182;0,0646671
720,2824;0,0641447
721,2466;0,0630294
722,2109;0,0615362
723,1751;0,0600093
724,1393;0,0587367
725,1036;0,0578362
726,0678;0,0572541
727,0320;0,0568465
727,9963;0,0564767
728,9605;0,0560769
729,9247;0,0556486
730,8890;0,0552247
731,8532;0,0548322
732,8174;0,0544781
733,7817;0,0541572
734,7459;0,0538625
735,7101;0,0535874
736,6744;0,0533237
737,6386;0,0530601
738,6028;0,0527875
739,5671;0,0525034
740,5313;0,052212
741,4955;0,0519189
742,4598;0,0516256
743,4240;0,0513299
744,3882;0,0510306
745,3525;0,0507315
746,3167;0,05044
747,2809;0,0501612
748,2452;0,0498927
749,2094;0,0496241
750,1736;0,0493448
751,1379;0,049051
752,1021;0,0487496
753,0663;0,0484552
754,0306;0,0481811
754,9948;0,0479327
755,9590;0,0477056
756,9233;0,0474893
757,8875;0,0472733
758,8517;0,0470517
759,8160;0,046822
760,7802;0,0465834
761,7444;0,0463353
762,7087;0,0460788
763,6729;0,0458204
764,6371;0,045572
765,6014;0,0453462
766,5656;0,0451495
767,5298;0,0449781
768,4941;0,0448202
769,4583;0,0446638
770,4225;0,0445036
771,3868;0,0443413
772,3510;0,0441799
773,3152;0,0440172
774,2795;0,0438434
775,2437;0,0436465
776,2079;0,0434208
777,1722;0,0431721
778,1364;0,0429156
779,1006;0,0426681
780,0649;0,0424401
781,0291;0,0422321
781,9933;0,0420368
782,9576;0,0418453
783,9218;0,0416524
784,8860;0,0414594
785,8503;0,0412722
786,8145;0,0410978
787,7787;0,0409391
788,7430;0,0407926
789,7072;0,0406491
790,6714;0,0404971
791,6357;0,0403286
792,5999;0,0401424
793,5641;0,0399441
794,5284;0,0397438
795,4926;0,039552
796,4568;0,0393767
797,4211;0,0392224
798,3853;0,0390904
799,3495;0,0389792
800,3138;0,0388852
801,2780;0,0388042
802,2422;0,0387329
803,2065;0,0386699
804,1707;0,0386139
805,1349;0,0385617
806,0992;0,0385063
807,0634;0,0384389
808,0276;0,0383536
808,9919;0,0382526
809,9561;0,0381467
810,9203;0,0380503
811,8846;0,0379732
812,8488;0,0379153
813,8130;0,0378669
814,7773;0,0378169
815,7415;0,0377609
816,7057;0,0377054
817,6700;0,0376635
818,6342;0,0376466
819,5984;0,0376558
820,5627;0,0376812
821,5269;0,0377074
822,4911;0,037722
823,4554;0,0377212
824,4196;0,0377084
825,3839;0,0376888
826,3481;0,0376632
827,3123;0,0376271
828,2766;0,0375749
829,2408;0,037506
830,2050;0,0374276
831,1693;0,037352
832,1335;0,0372894
833,0977;0,0372409
834,0620;0,0371957
835,0262;0,0371346
835,9904;0,0370393
836,9547;0,0369008
837,9189;0,036725
838,8831;0,0365311
839,8474;0,0363438
840,8116;0,0361835
841,7758;0,0360588
842,7401;0,0359656
843,7043;0,0358916
844,6685;0,0358245
845,6328;0,0357572
846,5970;0,0356874
847,5612;0,0356148
848,5255;0,0355378
849,4897;0,0354547
850,4539;0,0353678
851,4182;0,0352875
852,3824;0,0352296
853,3466;0,0352076
854,3109;0,0352232
855,2751;0,0352622
856,2393;0,0353005
857,2036;0,0353163
858,1678;0,0353021
859,1320;0,0352688
860,0963;0,0352391
861,0605;0,0352359
862,0247;0,0352707
862,9890;0,0353404
863,9532;0,0354318
864,9174;0,0355301
865,8817;0,0356274
866,8459;0,0357252
867,8101;0,0358324
868,7744;0,0359595
869,7386;0,0361115
870,7028;0,0362842
871,6671;0,0364641
872,6313;0,0366331
873,5955;0,0367774
874,5598;0,0368935
875,5240;0,0369922
876,4882;0,0370942
877,4525;0,0372221
878,4167;0,0373928
879,3809;0,0376124
880,3452;0,0378782
881,3094;0,0381841
882,2736;0,0385266
883,2379;0,0389081
884,2021;0,0393347
885,1663;0,0398124
886,1306;0,0403418
887,0948;0,0409153
888,0590;0,0415179
889,0233;0,0421306
889,9875;0,0427346
890,9517;0,0433145
891,9160;0,0438574
892,8802;0,0443514
893,8444;0,0447832
894,8087;0,0451389
895,7729;0,045407
896,7371;0,0455824
897,7014;0,0456668
898,6656;0,0456667
899,6298;0,0455883
900,5941;0,0454358
901,5583;0,0452141
902,5225;0,0449338
903,4868;0,0446163
904,4510;0,0442927
905,4152;0,0439966
906,3795;0,043754
907,3437;0,0435761
908,3079;0,0434581
909,2722;0,0433846
910,2364;0,0433383
911,2007;0,0433085
912,1649;0,0432948
913,1292;0,0433065
914,0934;0,0433582
915,0576;0,0434634
916,0219;0,0436294
916,9861;0,0438536
917,9503;0,0441233
918,9146;0,044419
919,8788;0,0447203
920,8430;0,0450111
921,8073;0,045283
922,7715;0,0455347
923,7357;0,0457685
924,7000;0,045986
925,6642;0,0461866
926,6284;0,0463685
927,5927;0,0465312
928,5569;0,046678
929,5211;0,0468144
930,4854;0,0469462
931,4496;0,0470773
932,4138;0,0472113
933,3781;0,0473556
934,3423;0,0475243
935,3065;0,047735
936,2708;0,0480025
937,2350;0,0483297
938,1992;0,0487054
939,1635;0,04911
940,1277;0,049528
941,0919;0,0499585
942,0562;0,0504176
943,0204;0,0509307
943,9846;0,0515188
944,9489;0,0521869
945,9131;0,0529216
946,8773;0,0536974
947,8416;0,054489
948,8058;0,0552826
949,7700;0,0560807
950,7343;0,0568998
951,6985;0,0577615
952,6627;0,0586826
953,6270;0,0596683
954,5912;0,0607125
955,5554;0,0618036
956,5197;0,0629324
957,4839;0,0640971
958,4481;0,0653025
959,4124;0,066553
960,3766;0,0678474
961,3408;0,0691759
962,3051;0,0705243
963,2693;0,07188
964,2335;0,0732371
965,1978;0,0745971
966,1620;0,0759677
967,1262;0,0773602
968,0905;0,0787889
969,0547;0,0802707
970,0189;0,0818228
970,9832;0,0834604
971,9474;0,0851933
972,9116;0,0870245
973,8759;0,0889528
974,8401;0,0909748
975,8043;0,0930868
976,7686;0,0952817
977,7328;0,0975442
978,6970;0,0998438
979,6613;0,102131
980,6255;0,104339
981,5897;0,106389
982,5540;0,108209
983,5182;0,109752
984,4824;0,111008
985,4467;0,112009
986,4109;0,112821
987,3751;0,113515
988,3394;0,11415
989,3036;0,114759
990,2678;0,115347
991,2321;0,115908
992,1963;0,116434
993,1605;0,116922
994,1248;0,117373
995,0890;0,117787
996,0532;0,118158
997,0175;0,11848
997,9817;0,11875
998,9459;0,118967
999,9102;0,119142
1000,8744;0,11929
1001,8386;0,119439
1002,8029;0,119618
1003,7671;0,119863
1004,7313;0,120209
1005,6956;0,120682
1006,6598;0,121295
1007,6240;0,122047
1008,5883;0,122927
1009,5525;0,123913
1010,5167;0,124979
1011,4810;0,12609
1012,4452;0,127202
1013,4094;0,128274
1014,3737;0,129268
1015,3379;0,130158
1016,3021;0,130935
1017,2664;0,131603
1018,2306;0,132179
1019,1948;0,132684
1020,1591;0,13314
1021,1233;0,133567
1022,0875;0,13398
1023,0518;0,134382
1024,0160;0,13477
1024,9802;0,135133
1025,9445;0,135462
1026,9087;0,135747
1027,8729;0,13598
1028,8372;0,136147
1029,8014;0,136227
1030,7656;0,136183
1031,7299;0,135972
1032,6941;0,135557
1033,6583;0,134916
1034,6226;0,134057
1035,5868;0,133023
1036,5510;0,131888
1037,5153;0,130746
1038,4795;0,12969
1039,4437;0,1288
1040,4080;0,128125
1041,3722;0,127682
1042,3364;0,127455
1043,3007;0,127403
1044,2649;0,127474
1045,2291;0,127614
1046,1934;0,127781
1047,1576;0,12794
1048,1218;0,128066
1049,0861;0,128131
1050,0503;0,128103
1051,0145;0,127945
1051,9788;0,127626
1052,9430;0,127129
1053,9072;0,12646
1054,8715;0,125639
1055,8357;0,124685
1056,7999;0,123597
1057,7642;0,122354
1058,7284;0,120917
1059,6926;0,11926
1060,6569;0,117388
1061,6211;0,11535
1062,5853;0,113226
1063,5496;0,111113
1064,5138;0,109091
1065,4780;0,107215
1066,4423;0,105507
1067,4065;0,103959
1068,3707;0,102546
1069,3350;0,101236
1070,2992;0,0999945
1071,2634;0,0987922
1072,2277;0,0976011
1073,1919;0,0963957
1074,1561;0,0951514
1075,1204;0,0938475
1076,0846;0,0924741
1077,0488;0,0910406
1078,0131;0,0895796
1078,9773;0,0881426
1079,9415;0,0867867
1080,9058;0,0855584
1081,8700;0,0844827
1082,8342;0,0835617
1083,7985;0,0827821
1084,7627;0,082126
1085,7269;0,0815779
1086,6912;0,0811258
1087,6554;0,0807605
1088,6196;0,0804735
1089,5839;0,0802586
1090,5481;0,0801138
1091,5123;0,0800404
1092,4766;0,0800402
1093,4408;0,0801104
1094,4050;0,0802419
1095,3693;0,0804201
1096,3335;0,0806285
1097,2977;0,0808519
1098,2620;0,0810762
1099,2262;0,0812859
1100,1904;0,0814619
1101,1547;0,0815825
1102,1189;0,0816278
1103,0831;0,0815863
1104,0474;0,0814586
1105,0116;0,0812582
1105,9758;0,0810054
1106,9401;0,080718
1107,9043;0,0804007
1108,8685;0,0800373
1109,8328;0,0795906
1110,7970;0,079012
1111,7612;0,0782585
1112,7255;0,0773126
1113,6897;0,0761943
1114,6539;0,0749614
1115,6182;0,073694
1116,5824;0,0724713
1117,5466;0,0713488
1118,5109;0,0703455
1119,4751;0,0694431
1120,4393;0,068597
1121,4036;0,0677512
1122,3678;0,0668538
1123,3320;0,0658668
1124,2963;0,0647709
1125,2605;0,0635662
1126,2247;0,062269
1127,1890;0,060907
1128,1532;0,059513
1129,1174;0,0581183
1130,0817;0,0567472
1131,0459;0,0554152
1132,0101;0,0541309
1132,9744;0,0529011
1133,9386;0,0517375
1134,9028;0,0506603
1135,8671;0,0496974
1136,8313;0,0488787
1137,7955;0,0482281
1138,7598;0,0477573
1139,7240;0,0474634
1140,6882;0,0473309
1141,6525;0,047336
1142,6167;0,0474516
1143,5809;0,0476512
1144,5452;0,047912
1145,5094;0,0482164
1146,4736;0,0485538
1147,4379;0,0489205
1148,4021;0,0493176
1149,3663;0,0497475
1150,3306;0,0502094
1151,2948;0,0506958
1152,2590;0,0511911
1153,2233;0,0516733
1154,1875;0,0521169
1155,1517;0,0524948
1156,1160;0,0527799
1157,0802;0,0529437
1158,0444;0,0529536
1159,0087;0,052771
1159,9729;0,0523525
1160,9371;0,0516554
1161,9014;0,0506485
1162,8656;0,049323
1163,8298;0,0477016
1164,7941;0,0458387
1165,7583;0,0438133
1166,7225;0,041715
1167,6868;0,0396297
1168,6510;0,0376284
1169,6152;0,0357622
1170,5795;0,0340625
1171,5437;0,0325446
1172,5079;0,0312113
1173,4722;0,0300558
1174,4364;0,0290632
1175,4006;0,0282123
1176,3649;0,0274798
1177,3291;0,0268437
1178,2933;0,0262877
1179,2576;0,0258024
1180,2218;0,0253842
1181,1860;0,0250325
1182,1503;0,0247466
1183,1145;0,0245239
1184,0787;0,0243602
1185,0430;0,0242513
1186,0072;0,0241947
1186,9714;0,024191
1187,9357;0,0242437
1188,8999;0,0243584
1189,8641;0,0245406
1190,8284;0,0247927
1191,7926;0,025112
1192,7568;0,0254897
1193,7211;0,0259123
1194,6853;0,0263645
1195,6495;0,0268321
1196,6138;0,0273041
1197,5780;0,0277718
1198,5422;0,0282276
1199,5065;0,0287692
1200,4707;0,0291655
1201,4349;0,0295274
1202,3992;0,0298519
1203,3634;0,0301386
1204,3276;0,0303882
1205,2919;0,0306007
1206,2561;0,0307759
1207,2203;0,030915
1208,1846;0,0310252
1209,1488;0,0311217
1210,1130;0,0312276
1211,0773;0,0313698
1212,0415;0,0315718
1213,0057;0,0318469
1213,9700;0,0321958
1214,9342;0,0326079
1215,8984;0,0330666
1216,8627;0,0335549
1217,8269;0,0340594
1218,7911;0,0345701
1219,7554;0,0350799
1220,7196;0,0355845
1221,6838;0,0360809
1222,6481;0,0365674
1223,6123;0,037042
1224,5765;0,0375018
1225,5408;0,037942
1226,5050;0,0383569
1227,4692;0,038742
1228,4335;0,0390958
1229,3977;0,0394202
1230,3619;0,0397186
1231,3262;0,0399919
1232,2904;0,0402367
1233,2546;0,0404449
1234,2189;0,0406078
1235,1831;0,0407208
1236,1473;0,0407867
1237,1116;0,0408156
1238,0758;0,040821
1239,0400;0,0408146
1240,0043;0,0408022
1240,9685;0,040783
1241,9327;0,0407514
1242,8970;0,0406996
1243,8612;0,0406198
1244,8254;0,0405065
1245,7897;0,0403566
1246,7539;0,0401702
1247,7181;0,0399516
1248,6824;0,0397088
1249,6466;0,0394529
1250,6108;0,0391963
1251,5751;0,0389505
1252,5393;0,0387236
1253,5035;0,0385189
1254,4678;0,0383338
1255,4320;0,0381603
1256,3962;0,0379886
1257,3605;0,0378105
1258,3247;0,0376226
1259,2889;0,0374265
1260,2532;0,0372259
1261,2174;0,0370218
1262,1816;0,0368107
1263,1459;0,0365852
1264,1101;0,0363381
1265,0743;0,0360661
1266,0386;0,0357709
1267,0028;0,0354582
1267,9670;0,0351344
1268,9313;0,0348054
1269,8955;0,0344752
1270,8597;0,0341462
1271,8240;0,0338183
1272,7882;0,0334897
1273,7524;0,0331588
1274,7167;0,0328261
1275,6809;0,0324968
1276,6451;0,0321784
1277,6094;0,0318768
1278,5736;0,0315913
1279,5378;0,0313129
1280,5021;0,0310282
1281,4663;0,0307272
1282,4305;0,0304092
1283,3948;0,0300851
1284,3590;0,0297729
1285,3232;0,0294906
1286,2875;0,0292504
1287,2517;0,0290562
1288,2159;0,0289052
1289,1802;0,0287916
1290,1444;0,0287112
1291,1086;0,0286633
1292,0729;0,0286518
1293,0371;0,0286825
1294,0013;0,0287606
1294,9656;0,0288874
1295,9298;0,0290611
1296,8940;0,0292779
1297,8583;0,0295352
1298,8225;0,0298328
1299,7867;0,0301713
1300,7510;0,0305498
1301,7152;0,0309628
1302,6794;0,0314037
1303,6437;0,0318675
1304,6079;0,0323526
1305,5721;0,0328609
1306,5364;0,0333935
1307,5006;0,0339474
1308,4648;0,0345139
1309,4291;0,0350806
1310,3933;0,0356333
1311,3575;0,0361573
1312,3218;0,0366364
1313,2860;0,0370519
1314,2502;0,0373828
1315,2145;0,0376082
1316,1787;0,0377117
1317,1429;0,0376881
1318,1072;0,0375489
1319,0714;0,037324
1320,0356;0,0370534
1320,9999;0,0367744
1321,9641;0,0365114
1322,9283;0,0362754
1323,8926;0,0360697
1324,8568;0,0358966
1325,8210;0,0357594
1326,7853;0,035661
1327,7495;0,0356003
1328,7137;0,0355706
1329,6780;0,0355608
1330,6422;0,0355579
1331,6064;0,0355489
1332,5707;0,0355231
1333,5349;0,0354694
1334,4991;0,0353742
1335,4634;0,0352188
1336,4276;0,034981
1337,3918;0,0346466
1338,3561;0,0342255
1339,3203;0,0337576
1340,2845;0,0332945
1341,2488;0,0328722
1342,2130;0,0325022
1343,1772;0,0321812
1344,1415;0,0319024
1345,1057;0,0316629
1346,0699;0,031467
1347,0342;0,0313264
1347,9984;0,0312548
1348,9626;0,0312606
1349,9269;0,0313412
1350,8911;0,0314831
1351,8553;0,0316671
1352,8196;0,0318755
1353,7838;0,0320995
1354,7480;0,03234
1355,7123;0,0326029
1356,6765;0,0328913
1357,6407;0,0331992
1358,6050;0,03351
1359,5692;0,0337997
1360,5334;0,0340467
1361,4977;0,0342458
1362,4619;0,0344105
1363,4261;0,0345593
1364,3904;0,0347028
1365,3546;0,0348468
1366,3188;0,0349957
1367,2831;0,0351483
1368,2473;0,035292
1369,2115;0,035402
1370,1758;0,0354453
1371,1400;0,0353885
1372,1042;0,0352093
1373,0685;0,0349134
1374,0327;0,0345442
1374,9969;0,0341628
1375,9612;0,0338052
1376,9254;0,0334589
1377,8896;0,0330809
1378,8539;0,0326322
1379,8181;0,0321056
1380,7823;0,031535
1381,7466;0,0309768
1382,7108;0,0304728
1383,6750;0,0300223
1384,6393;0,0295857
1385,6035;0,0291192
1386,5677;0,0286221
1387,5320;0,0281493
1388,4962;0,0277662
1389,4604;0,0274998
1390,4247;0,0273371
1391,3889;0,027244
1392,3531;0,0271785
1393,3174;0,0271047
1394,2816;0,0270113
1395,2458;0,0269186
1396,2101;0,0268601
1397,1743;0,0268575
1398,1385;0,026912
1399,1028;0,0270107
1400,0670;0,0271366
1401,0313;0,027276
1401,9955;0,0274211
1402,9597;0,0275704
1403,9240;0,0277289
1404,8882;0,0279073
1405,8524;0,0281137
1406,8167;0,0283454
1407,7809;0,0285915
1408,7451;0,0288439
1409,7094;0,029101
1410,6736;0,0293675
1411,6378;0,0296517
1412,6021;0,0299628
1413,5663;0,0303091
1414,5305;0,030692
1415,4948;0,0310962
1416,4590;0,0314855
1417,4232;0,0318199
1418,3875;0,0320802
1419,3517;0,0322606
1420,3159;0,0323503
1421,2802;0,0323504
1422,2444;0,0322872
1423,2086;0,0321944
1424,1729;0,0320923
1425,1371;0,0319802
1426,1013;0,0318361
1427,0656;0,031622
1428,0298;0,0313014
1428,9940;0,0308718
1429,9583;0,0303864
1430,9225;0,0299328
1431,8867;0,0295748
1432,8510;0,0293094
1433,8152;0,0290636
1434,7794;0,0287343
1435,7437;0,0282699
1436,7079;0,0277368
1437,6721;0,0272627
1438,6364;0,0269179
1439,6006;0,0267032
1440,5648;0,0266001
1441,5291;0,0265891
1442,4933;0,0266458
1443,4575;0,0267419
1444,4218;0,0268528
1445,3860;0,0269645
1446,3502;0,0270739
1447,3145;0,0271853
1448,2787;0,0273029
1449,2429;0,0274277
1450,2072;0,0275646
1451,1714;0,0277319
1452,1356;0,0279487
1453,0999;0,0281964
1454,0641;0,028374
1455,0283;0,0282976
1455,9926;0,0278453
1456,9568;0,0272126
1457,9210;0,026775
1458,8853;0,0265925
1459,8495;0,0265059
1460,8137;0,0264288
1461,7780;0,0263229
1462,7422;0,02612
1463,7064;0,0257465
1464,6707;0,0252109
1465,6349;0,0246243
1466,5991;0,0241012
1467,5634;0,0236762
1468,5276;0,0233041
1469,4918;0,0228737
1470,4561;0,0222268
1471,4203;0,0212476
1472,3845;0,020029
1473,3488;0,0188948
1474,3130;0,0180911
1475,2772;0,0175771
1476,2415;0,0171959
1477,2057;0,0168509
1478,1699;0,0165157
1479,1342;0,0161935
1480,0984;0,0158947
1481,0626;0,015631
1482,0269;0,0154151
1482,9911;0,0152562
1483,9553;0,0151522
1484,9196;0,0150806
1485,8838;0,0149939
1486,8480;0,0148391
1487,8123;0,0146165
1488,7765;0,0144327
1489,7407;0,0144181
1490,7050;0,0145748
1491,6692;0,0148092
1492,6334;0,0150596
1493,5977;0,0153102
1494,5619;0,0155489
1495,5261;0,0157629
1496,4904;0,0159771
1497,4546;0,0162586
1498,4188;0,0166313
1499,3831;0,0170367
1500,3473;0,017426
1501,3115;0,0178181
1502,2758;0,0182501
1503,2400;0,0186995
1504,2042;0,0190327
1505,1685;0,0190328
1506,1327;0,018633
1507,0969;0,0181942
1508,0612;0,0180636
1509,0254;0,0180748
1509,9896;0,0180236
1510,9539;0,017912
1511,9181;0,0177855
1512,8823;0,0176374
1513,8466;0,0174217
1514,8108;0,0171063
1515,7750;0,0167129
1516,7393;0,0163037
1517,7035;0,0159247
1518,6677;0,0155662
1519,6320;0,0151878
1520,5962;0,0147805
1521,5604;0,0143957
1522,5247;0,0141009
1523,4889;0,0139256
1524,4531;0,0138609
1525,4174;0,0138853
1526,3816;0,0139759
1527,3458;0,0141119
1528,3101;0,0142773
1529,2743;0,0144599
1530,2385;0,0146407
1531,2028;0,0147914
1532,1670;0,0149001
1533,1312;0,0150001
1534,0955;0,0151493
1535,0597;0,0153786
1536,0239;0,0156699
1536,9882;0,0159379
1537,9524;0,0159955
1538,9166;0,0156057
1539,8809;0,0147939
1540,8451;0,0141586
1541,8093;0,0142178
1542,7736;0,0147058
1543,7378;0,0151947
1544,7020;0,015543
1545,6663;0,0157668
1546,6305;0,0159074
1547,5947;0,0159972
1548,5590;0,0160555
1549,5232;0,0160883
1550,4874;0,0160949
1551,4517;0,016083
1552,4159;0,0160789
1553,3801;0,01612
1554,3444;0,016225
1555,3086;0,0163496
1556,2728;0,0163639
1557,2371;0,0161547
1558,2013;0,0159081
1559,1655;0,0159705
1560,1298;0,0161743
1561,0940;0,0162028
1562,0582;0,0160935
1563,0225;0,016016
1563,9867;0,0160645
1564,9509;0,0162324
1565,9152;0,0164519
1566,8794;0,0166491
1567,8436;0,0168026
1568,8079;0,0169606
1569,7721;0,0171798
1570,7363;0,0174585
1571,7006;0,0177581
1572,6648;0,018046
1573,6290;0,0182951
1574,5933;0,0184888
1575,5575;0,0186667
1576,5217;0,0189198
1577,4860;0,0192709
1578,4502;0,0196484
1579,4144;0,0200089
1580,3787;0,0203711
1581,3429;0,0207597
1582,3071;0,0211739
1583,2714;0,0215969
1584,2356;0,0220171
1585,1998;0,022436
1586,1641;0,0228609
1587,1283;0,0232922
1588,0925;0,0237156
1589,0568;0,0241065
1590,0210;0,0244399
1590,9852;0,0246989
1591,9495;0,0248776
1592,9137;0,0249797
1593,8779;0,0250178
1594,8422;0,02501
1595,8064;0,0249723
1596,7706;0,0249116
1597,7349;0,0248251
1598,6991;0,024708
1599,6633;0,0245628
1600,6276;0,024404
1601,5918;0,0242545
1602,5560;0,0241338
1603,5203;0,0240464
1604,4845;0,0239793
1605,4487;0,0239118
1606,4130;0,0238292
1607,3772;0,0237355
1608,3414;0,023657
1609,3057;0,0236294
1610,2699;0,0236735
1611,2341;0,0237836
1612,1984;0,0239327
1613,1626;0,0240736
1614,1268;0,0241483
1615,0911;0,0241334
1616,0553;0,0240981
1617,0195;0,0241494
1617,9838;0,0242989
1618,9480;0,0244783
1619,9122;0,0246413
1620,8765;0,0247767
1621,8407;0,0248839
1622,8049;0,0249742
1623,7692;0,0250733
1624,7334;0,0251978
1625,6976;0,0253436
1626,6619;0,025505
1627,6261;0,0256883
1628,5903;0,0259055
1629,5546;0,0261646
1630,5188;0,0264639
1631,4830;0,0267798
1632,4473;0,0270381
1633,4115;0,0271049
1634,3757;0,0268744
1635,3400;0,0264586
1636,3042;0,0261714
1637,2684;0,0261527
1638,2327;0,0262801
1639,1969;0,0264355
1640,1611;0,0265966
1641,1254;0,0267761
1642,0896;0,0269631
1643,0538;0,0270896
1644,0181;0,0270276
1644,9823;0,0266693
1645,9465;0,0261024
1646,9108;0,0256437
1647,8750;0,0255429
1648,8392;0,0257873
1649,8035;0,0262099
1650,7677;0,026558
1651,7319;0,0265143
1652,6962;0,0259634
1653,6604;0,0252912
1654,6246;0,0248493
1655,5889;0,02455
1656,5531;0,0242971
1657,5173;0,0241018
1658,4816;0,0239515
1659,4458;0,0237675
1660,4100;0,0234555
1661,3743;0,0230036
1662,3385;0,0225226
1663,3027;0,0221478
1664,2670;0,0219195
1665,2312;0,0217781
1666,1954;0,021609
1667,1597;0,0212781
1668,1239;0,0207018
1669,0881;0,019956
1670,0524;0,0192718
1671,0166;0,0188306
1671,9808;0,0186176
1672,9451;0,0184996
1673,9093;0,0183452
1674,8735;0,0180851
1675,8378;0,0177311
1676,8020;0,0173524
1677,7662;0,017026
1678,7305;0,0168026
1679,6947;0,0166789
1680,6589;0,0165667
1681,6232;0,0162931
1682,5874;0,0157142
1683,5516;0,014934
1684,5159;0,0142672
1685,4801;0,013838
1686,4443;0,013533
1687,4086;0,0132629
1688,3728;0,0130286
1689,3370;0,0128635
1690,3013;0,0127924
1691,2655;0,012811
1692,2297;0,0128759
1693,1940;0,0129081
1694,1582;0,0128195
1695,1224;0,0125665
1696,0867;0,012203
1697,0509;0,0118762
1698,0151;0,0117275
1698,9794;0,0117644
1699,9436;0,0118413
1700,9078;0,0117939
1701,8721;0,0115817
1702,8363;0,0112946
1703,8005;0,0110643
1704,7648;0,0109889
1705,7290;0,0111009
1706,6932;0,0113627
1707,6575;0,0116917
1708,6217;0,0120139
1709,5859;0,0123033
1710,5502;0,0125726
1711,5144;0,0128372
1712,4786;0,0130879
1713,4429;0,0132854
1714,4071;0,0133841
1715,3713;0,0134003
1716,3356;0,0134733
1717,2998;0,0137572
1718,2640;0,0141992
1719,2283;0,0146125
1720,1925;0,014914
1721,1567;0,0151464
1722,1210;0,0153767
1723,0852;0,0156387
1724,0494;0,0159277
1725,0137;0,016218
1725,9779;0,0164838
1726,9421;0,0167144
1727,9064;0,0169172
1728,8706;0,0171037
1729,8348;0,017265
1730,7991;0,0173534
1731,7633;0,0173021
1732,7275;0,0170964
1733,6918;0,0168182
1734,6560;0,0165581
1735,6202;0,016327
1736,5845;0,0161035
1737,5487;0,0158796
1738,5129;0,0156467
1739,4772;0,0153903
1740,4414;0,0151056
1741,4056;0,0148019
1742,3699;0,0144854
1743,3341;0,0141504
1744,2983;0,0137897
1745,2626;0,0134015
1746,2268;0,0129849
1747,1910;0,0125369
1748,1553;0,0120644
1749,1195;0,0115999
1750,0837;0,0111864
1751,0480;0,0108365
1752,0122;0,0105279
1752,9764;0,0102345
1753,9407;0,0099419
1754,9049;0,00964251
1755,8691;0,00933475
1756,8334;0,0090266
1757,7976;0,00872933
1758,7618;0,00844381
1759,7261;0,00815832
1760,6903;0,00786562
1761,6545;0,0075811
1762,6188;0,0073374
1763,5830;0,0071587
1764,5472;0,00704254
1765,5115;0,00696092
1766,4757;0,00687011
1767,4399;0,00672141
1768,4042;0,00647473
1769,3684;0,00611806
1770,3326;0,00569195
1771,2969;0,00529907
1772,2611;0,00505546
1773,2253;0,00499766
1774,1896;0,00506134
1775,1538;0,00515962
1776,1180;0,00524305
1777,0823;0,00529438
1778,0465;0,0053085
1779,0107;0,00529098
1779,9750;0,00526263
1780,9392;0,00524893
1781,9034;0,00526016
1782,8677;0,00528532
1783,8319;0,00530577
1784,7961;0,00531281
1785,7604;0,00531466
1786,7246;0,00532832
1787,6888;0,00536191
1788,6531;0,00539835
1789,6173;0,0053954
1790,5815;0,00531689
1791,5458;0,00518101
1792,5100;0,00505872
1793,4742;0,00499877
1794,4385;0,00498886
1795,4027;0,00499834
1796,3669;0,00501161
1797,3312;0,00502297
1798,2954;0,00502985
1799,2596;0,00503694
1800,2239;0,00505547
1801,1881;0,00508963
1802,1523;0,00512882
1803,1166;0,00515924
1804,0808;0,00517705
1805,0450;0,00518678
1806,0093;0,0051906
1806,9735;0,00518221
1807,9377;0,00515114
1808,9020;0,0050951
1809,8662;0,0050293
1810,8304;0,00498079
1811,7947;0,00497002
1812,7589;0,0049982
1813,7231;0,00505057
1814,6874;0,00510703
1815,6516;0,00515108
1816,6158;0,00517644
1817,5801;0,00518988
1818,5443;0,00520574
1819,5085;0,00523489
1820,4728;0,00527664
1821,4370;0,00531822
1822,4012;0,00534059
1823,3655;0,00532857
1824,3297;0,0052784
1825,2939;0,00519613
1826,2582;0,00509021
1827,2224;0,00496983
1828,1866;0,00485269
1829,1509;0,00477142
1830,1151;0,00475954
1831,0793;0,00482192
1832,0436;0,00492876
1833,0078;0,00504181
1833,9720;0,00513443
1834,9363;0,00519194
1835,9005;0,00521182
1836,8647;0,00520865
1837,8290;0,0052107
1838,7932;0,00524347
1839,7574;0,00531325
1840,7217;0,00539892
1841,6859;0,00545676
1842,6501;0,00544642
1843,6144;0,00536842
1844,5786;0,00526869
1845,5428;0,00519207
1846,5071;0,00514804
1847,4713;0,00512529
1848,4355;0,00511267
1849,3998;0,00510334
1850,3640;0,0050945
1851,3282;0,00508871
1852,2925;0,00509278
1853,2567;0,00511209
1854,2209;0,00514556
1855,1852;0,0051858
1856,1494;0,00522404
1857,1136;0,00525408
1858,0779;0,00527356
1859,0421;0,00528169
1860,0063;0,00527735
1860,9706;0,00526033
1861,9348;0,00523468
1862,8990;0,00520925
1863,8633;0,00519258
1864,8275;0,00518484
1865,7917;0,00517548
1866,7560;0,00515403
1867,7202;0,00512635
1868,6844;0,00511087
1869,6487;0,00511174
1870,6129;0,00511129
1871,5771;0,00509472
1872,5414;0,00506619
1873,5056;0,00504127
1874,4698;0,00503445
1875,4341;0,00505383
1876,3983;0,00509817
1877,3625;0,00515619
1878,3268;0,00520981
1879,2910;0,00524363
1880,2552;0,00525331
1881,2195;0,0052474
1882,1837;0,0052414
1883,1479;0,00524753
1884,1122;0,00526658
1885,0764;0,00528715
1886,0406;0,00529233
1887,0049;0,00527042
1887,9691;0,00522526
1888,9333;0,00517817
1889,8976;0,00515562
1890,8618;0,0051707
1891,8260;0,00521565
1892,7903;0,00526934
1893,7545;0,00530976
1894,7188;0,00532414
1895,6830;0,00531374
1896,6472;0,00529056
1897,6115;0,00526771
1898,5757;0,00525157
1899,5399;0,00524163
1900,5042;0,00523605
1901,4684;0,00523683
1902,4326;0,00524929
1903,3969;0,00527584
1904,3611;0,0053096
1905,3253;0,00533483
1906,2896;0,00533498
1907,2538;0,00530361
1908,2180;0,00525113
1909,1823;0,00520155
1910,1465;0,00517915
1911,1107;0,00519521
1912,0750;0,00524558
1913,0392;0,00531689
1914,0034;0,0053922
1914,9677;0,0054536
1915,9319;0,00548712
1916,8961;0,00549041
1917,8604;0,00547512
1918,8246;0,00545847
1919,7888;0,00545119
1920,7531;0,00545154
1921,7173;0,00544751
1922,6815;0,00542512
1923,6458;0,00537864
1924,6100;0,00531567
1925,5742;0,00525241
1926,5385;0,00520303
1927,5027;0,00517168
1928,4669;0,00515248
1929,4312;0,00513769
1930,3954;0,00512696
1931,3596;0,0051294
1932,3239;0,0051569
1933,2881;0,00521227
1934,2523;0,00528218
1935,2166;0,00534164
1936,1808;0,00536874
1937,1450;0,00536012
1938,1093;0,00533542
1939,0735;0,00532686
1940,0377;0,00536048
1941,0020;0,00543936
1941,9662;0,00553799
1942,9304;0,00561482
1943,8947;0,00563973
1944,8589;0,00561608
1945,8231;0,00557657
1946,7874;0,00555637
1947,7516;0,00556561
1948,7158;0,00558072
1949,6801;0,00555991
1950,6443;0,00547388
1951,6085;0,00533183
1952,5728;0,00518411
1953,5370;0,00509791
1954,5012;0,00511988
1955,4655;0,00524759
1956,4297;0,00542751
1957,3939;0,00558163
1958,3582;0,00564872
1959,3224;0,00561809
1960,2866;0,00553629
1961,2509;0,00547974
1962,2151;0,00550776
1963,1793;0,0056253
1964,1436;0,00577772
1965,1078;0,00587953
1966,0720;0,00586297
1967,0363;0,00572123
1968,0005;0,00551702
1968,9647;0,00534606
1969,9290;0,0052812
1970,8932;0,0053369
1971,8574;0,0054703
1972,8217;0,00560878
1973,7859;0,00568618
1974,7501;0,00567396
1975,7144;0,00559339
1976,6786;0,00550458
1977,6428;0,00547403
1978,6071;0,00553722
1979,5713;0,00567926
1980,5355;0,00584497
1981,4998;0,00596937
1982,4640;0,00600929
1983,4282;0,00596285
1984,3925;0,00586947
1985,3567;0,00579037
1986,3209;0,00577771
1987,2852;0,00584927
1988,2494;0,00598202
1989,2136;0,00612532
1990,1779;0,00622404
1991,1421;0,00624105
1992,1063;0,00617112
1993,0706;0,00604163
1994,0348;0,00590022
1994,9990;0,00579517
1995,9633;0,00575593
1996,9275;0,00578094
1997,8917;0,00583905
1998,8560;0,00588752
1999,8202;0,00589954
2000,7844;0,00588238
2001,7487;0,00586962
2002,7129;0,00589052
2003,6771;0,00594005
2004,6414;0,00597536
2005,6056;0,00594697
2006,5698;0,00584319
2007,5341;0,0057089
2008,4983;0,00561485
2009,4625;0,00560079
2010,4268;0,00564457
2011,3910;0,00568489
2012,3552;0,00567687
2013,3195;0,00563323
2014,2837;0,00561824
2015,2479;0,00569722
2016,2122;0,00587772
2017,1764;0,00608956
2018,1406;0,00622453
2019,1049;0,00620617
2020,0691;0,00603481
2021,0333;0,00577955
2021,9976;0,00553375
2022,9618;0,00536897
2023,9260;0,00531102
2024,8903;0,00534179
2025,8545;0,00541713
2026,8187;0,00548835
2027,7830;0,00551965
2028,7472;0,00549921
2029,7114;0,00544276
2030,6757;0,00538746
2031,6399;0,00537572
2032,6041;0,00543581
2033,5684;0,00556887
2034,5326;0,00575092
2035,4968;0,00594666
2036,4611;0,00612477
2037,4253;0,00626307
2038,3895;0,00634649
2039,3538;0,00636499
2040,3180;0,00631737
2041,2822;0,00621829
2042,2465;0,00609972
2043,2107;0,00600188
2044,1749;0,00595714
2045,1392;0,00597749
2046,1034;0,00605213
2047,0676;0,00615554
2048,0320;0,00626033
2048,9961;0,00634666
2049,9604;0,00640354
2050,9246;0,00642479
2051,8889;0,0064069
2052,8530;0,00635197
2053,8174;0,00627242
2054,7815;0,00619148
2055,7458;0,00613373
2056,7100;0,0061112
2057,6743;0,00611477
2058,6384;0,00611939
2059,6028;0,00610121
2060,5669;0,00605487
2061,5313;0,00599849
2062,4954;0,00596226
2063,4597;0,00596775
2064,4238;0,00601185
2065,3882;0,0060669
2066,3523;0,00609726
2067,3167;0,00608087
2068,2808;0,00602197
2069,2451;0,00594855
2070,2092;0,00589819
2071,1736;0,00589994
2072,1377;0,00596085
2073,1021;0,00606138
2074,0662;0,00616372
2075,0305;0,00622945
2075,9946;0,00623866
2076,9590;0,00620001
2077,9231;0,00614507
2078,8875;0,00610913
2079,8516;0,00610978
2080,8159;0,00613736
2081,7800;0,00616348
2082,7444;0,00616158
2083,7085;0,00612465
2084,6729;0,0060685
2085,6370;0,0060191
2086,6013;0,00599523
2087,5654;0,0059985
2088,5298;0,00601688
2089,4939;0,00603656
2090,4583;0,00605158
2091,4224;0,00606449
2092,3867;0,00607935
2093,3508;0,00609484
2094,3152;0,006104
2095,2793;0,00610074
2096,2437;0,00608715
2097,2078;0,00607493
2098,1721;0,00607889
2099,1362;0,00610738
2100,1006;0,00615475
2101,0647;0,00620607
2102,0291;0,00623624
2102,9932;0,00622553
2103,9575;0,00616867
2104,9216;0,00608055
2105,8860;0,0059934
2106,8501;0,00594447
2107,8145;0,00595892
2108,7786;0,00603663
2109,7429;0,00615107
2110,7070;0,00626186
2111,6714;0,00633374
2112,6355;0,00635121
2113,5999;0,00632122
2114,5640;0,00626496
2115,5283;0,00620592
2116,4924;0,00616189
2117,4568;0,00614317
2118,4209;0,00615362
2119,3853;0,00619071
2120,3494;0,00624354
2121,3137;0,00629244
2122,2778;0,0063143
2123,2422;0,00629335
2124,2063;0,00623203
2125,1707;0,00615451
2126,1348;0,00609856
2127,0991;0,0060989
2128,0632;0,00617054
2129,0276;0,0063012
2129,9917;0,00645665
2130,9561;0,00659564
2131,9202;0,00668624
2132,8845;0,00671632
2133,8486;0,00669435
2134,8130;0,00664232
2135,7771;0,00658625
2136,7415;0,00654954
2137,7056;0,00655014
2138,6699;0,00659831
2139,6340;0,00669263
2140,5984;0,00681719
2141,5625;0,00694627
2142,5269;0,00705812
2143,4910;0,00715051
2144,4553;0,007244
2145,4194;0,00736536
2146,3838;0,00751951
2147,3479;0,00767204
2148,3123;0,0077613
2149,2764;0,00773686
2150,2407;0,00759799
2151,2048;0,00740247
2152,1692;0,00723645
2153,1333;0,00716534
2154,0977;0,00719982
2155,0618;0,00729899
2156,0261;0,00740628
2156,9902;0,0074926
2157,9546;0,00757464
2158,9187;0,00769107
2159,8831;0,00785787
2160,8472;0,00804882
2161,8115;0,0082164
2162,7756;0,00832275
2163,7400;0,0083525
2164,7041;0,00830795
2165,6685;0,00820091
2166,6326;0,00804966
2167,5969;0,00787974
2168,5610;0,00772188
2169,5254;0,00760437
2170,4895;0,00754369
2171,4539;0,00754027
2172,4180;0,00758254
2173,3823;0,00765582
2174,3464;0,00774819
2175,3108;0,00784767
2176,2749;0,00793344
2177,2393;0,00797113
2178,2034;0,00792123
2179,1677;0,00776024
2180,1318;0,00750381
2181,0962;0,00721506
2182,0603;0,00698569
2183,0247;0,00689394
2183,9888;0,00696306
2184,9531;0,00714834
2185,9172;0,00736193
2186,8816;0,00751844
2187,8457;0,00757259
2188,8101;0,00752836
2189,7742;0,00741927
2190,7385;0,00727782
2191,7026;0,00711713
2192,6670;0,00693539
2193,6311;0,00673432
2194,5955;0,00653293
2195,5596;0,00636355
2196,5239;0,00625434
2197,4880;0,00621371
2198,4524;0,00622936
2199,4165;0,00628051
2200,3809;0,0063508
2201,3450;0,00643089
2202,3093;0,00651193
2203,2734;0,00658039
2204,2378;0,00662288
2205,2019;0,00663765
2206,1663;0,00664023
2207,1304;0,00665448
2208,0947;0,00669329
2209,0588;0,0067444
2210,0232;0,00677416
2210,9873;0,00674835
2211,9517;0,00665521
2212,9158;0,00651454
2213,8801;0,00636756
2214,8442;0,00625646
2215,8086;0,00620794
2216,7727;0,00622848
2217,7371;0,00630863
2218,7012;0,00642876
2219,6655;0,00656219
2220,6296;0,00667802
2221,5940;0,00674747
2222,5581;0,00675305
2223,5225;0,00669526
2224,4866;0,00659117
2225,4509;0,00646586
2226,4150;0,00634249
2227,3794;0,00623625
2228,3435;0,00616004
2229,3079;0,00612595
2230,2720;0,00614432
2231,2363;0,00621805
2232,2004;0,00633678
2233,1648;0,00647715
2234,1289;0,00660983
2235,0933;0,00670914
2236,0574;0,00675918
2237,0217;0,00675468
2237,9858;0,00669879
2238,9502;0,00660216
2239,9143;0,00648406
2240,8787;0,00637229
2241,8428;0,00629801
2242,8071;0,00628528
2243,7712;0,00634048
2244,7356;0,00644833
2245,6997;0,00657834
2246,6641;0,00669839
2247,6282;0,00678807
2248,5925;0,00684452
2249,5566;0,00687877
2250,5210;0,00690653
2251,4851;0,00693932
2252,4495;0,00698099
2253,4136;0,00702966
2254,3779;0,00708201
2255,3420;0,00713582
2256,3064;0,0071891
2257,2705;0,00723723
2258,2349;0,00727205
2259,1990;0,00728481
2260,1633;0,00727186
2261,1274;0,00723914
2262,0918;0,00720155
2263,0559;0,00717665
2264,0203;0,00717639
2264,9844;0,00720198
2265,9487;0,00724512
2266,9128;0,00729372
2267,8772;0,00733744
2268,8413;0,00736986
2269,8057;0,00738769
2270,7698;0,00738995
2271,7341;0,00737857
2272,6982;0,00735898
2273,6626;0,00733765
2274,6267;0,0073171
2275,5911;0,00729205
2276,5552;0,00725201
2277,5195;0,00719031
2278,4836;0,00711396
2279,4480;0,00704622
2280,4121;0,00701879
2281,3765;0,00705793
2282,3406;0,00717369
2283,3049;0,00735809
2284,2690;0,00759155
2285,2334;0,00785194
2286,1975;0,00812149
2287,1619;0,00839025
2288,1260;0,0086575
2289,0903;0,00893106
2290,0544;0,00922366
2291,0188;0,00954552
2291,9829;0,0098963
2292,9473;0,0102616
2293,9114;0,0106174
2294,8757;0,01094
2295,8398;0,0112145
2296,8042;0,011435
2297,7683;0,0115976
2298,7327;0,0116938
2299,6968;0,011713
2300,6611;0,0116563
2301,6252;0,0115525
2302,5896;0,0114604
2303,5537;0,0114539
2304,5181;0,0115887
2305,4822;0,0118688
2306,4465;0,0122284
2307,4106;0,0125445
2308,3750;0,0126792
2309,3391;0,0125351
2310,3035;0,0120991
2311,2676;0,0114508
2312,2319;0,0107307
2313,1960;0,0100806
2314,1604;0,00958749
2315,1245;0,00925985
2316,0889;0,00904665
2317,0530;0,00888055
2318,0173;0,00871905
2318,9814;0,00856417
2319,9458;0,0084576
2320,9099;0,00846092
2321,8743;0,00862949
2322,8384;0,00898115
2323,8027;0,00946586
2324,7668;0,009961
2325,7312;0,0103101
2326,6953;0,0103889
2327,6597;0,0101596
2328,6238;0,00968779
2329,5881;0,00911978
2330,5522;0,00863002
2331,5166;0,00835325
2332,4807;0,00832735
2333,4451;0,00848555
2334,4092;0,00871183
2335,3735;0,00892481
2336,3376;0,00913415
2337,3020;0,00943552
2338,2661;0,00994603
2339,2305;0,0107091
2340,1946;0,0116104
2341,1589;0,0123484
2342,1230;0,0125259
2343,0874;0,0119545
2344,0515;0,0110404
2345,0159;0,0106673
2345,9800;0,0114061
2346,9443;0,012983
2347,9084;0,0145798
2348,8728;0,0154484
2349,8369;0,0152967
2350,8013;0,0143534
2351,7654;0,013179
2352,7297;0,0123104
2353,6938;0,0119436
2354,6582;0,0119436
2355,6223;0,0121382
2356,5867;0,0124762
2357,5508;0,0129081
2358,5151;0,0132697
2359,4792;0,0133618
2360,4436;0,0131066
2361,4077;0,0125703
2362,3721;0,0118468
2363,3362;0,0109708
2364,3005;0,00994179
2365,2646;0,0087879
2366,2290;0,00758
2367,1931;0,00639716
2368,1575;0,00529965
2369,1216;0,00433351
2370,0859;0,00354294
2371,0500;0,00296779
2372,0144;0,00263352
2372,9785;0,00255043
2373,9429;0,00272334
2374,9070;0,00315657
2375,8713;0,00384369
2376,8354;0,0047473
2377,7998;0,00578504
2378,7639;0,00683476
2379,7283;0,00775953
2380,6924;0,00844204
2381,6567;0,00881385
2382,6208;0,00886889
2383,5852;0,00865797
2384,5493;0,00826873
2385,5137;0,00779911
2386,4778;0,00733386
2387,4421;0,00693042
2388,4063;0,00661674
2389,3706;0,00639771
2390,3347;0,0062645
2391,2991;0,00620201
2392,2632;0,00619262
2393,2275;0,00621785
2394,1917;0,00626008
2395,1560;0,00630496
2396,1201;0,00634363
2397,0845;0,00637329
2398,0486;0,00639827
2399,0129;0,00642124
2399,9771;0,00644259
2400,9414;0,00646153
2401,9055;0,00647466
2402,8699;0,00647972
2403,8340;0,006476
2404,7983;0,00646511
2405,7625;0,0064512
2406,7268;0,00643978
2407,6909;0,00643827
2408,6553;0,00645395
2409,6194;0,00648901
2410,5837;0,00653954
2411,5479;0,00659501
2412,5122;0,00664224
2413,4763;0,0066713
2414,4407;0,00668065
2415,4048;0,0066774
2416,3691;0,00667293
2417,3333;0,00667639
2418,2976;0,00669
2419,2617;0,00670925
2420,2261;0,00672684
2421,1902;0,00673668
2422,1545;0,00673864
2423,1187;0,00673717
2424,0830;0,00673849
2425,0471;0,00674702
2426,0115;0,00676358
2426,9756;0,00678593
2427,9399;0,00681064
2428,9041;0,00683509
2429,8684;0,00685827
2430,8325;0,00688046
2431,7969;0,0069022
2432,7610;0,00692345
2433,7253;0,00694355
2434,6895;0,00696175
2435,6538;0,0069779
2436,6179;0,00699248
2437,5823;0,00700578
2438,5464;0,00701667
2439,5107;0,00702228
2440,4749;0,00701916
2441,4392;0,00700572
2442,4033;0,00698446
2443,3677;0,00696231
2444,3318;0,00694821
2445,2961;0,0069492
2446,2603;0,00696721
2447,2246;0,00699841
2448,1887;0,00703543
2449,1531;0,00707082
2450,1172;0,00709969
2451,0815;0,00712026
2452,0457;0,00713278
2453,0100;0,00713818
2453,9741;0,00713742
2454,9385;0,00713181
2455,9026;0,00712346
2456,8669;0,0071152
2457,8311;0,00711003
2458,7954;0,00711026
2459,7595;0,00711706
2460,7239;0,00713038
2461,6880;0,00714911
2462,6523;0,00717161
2463,6165;0,00719622
2464,5808;0,00722183
2465,5449;0,0072479
2466,5093;0,00727377
2467,4734;0,00729769
2468,4377;0,00731657
2469,4019;0,00732709
2470,3662;0,00732776
2471,3303;0,00732035
2472,2947;0,00730923
2473,2588;0,0072988
2474,2231;0,00729102
2475,1873;0,00728522
2476,1516;0,00728068
2477,1157;0,0072796
2478,0801;0,0072875
2479,0442;0,00730999
2480,0085;0,00734795
2480,9727;0,00739532
2481,9370;0,00744143
2482,9011;0,00747653
2483,8655;0,0074964
2484,8296;0,00750265
2485,7939;0,0074996
2486,7581;0,00749095
2487,7224;0,00747934
2488,6865;0,00746855
2489,6509;0,00746482
2490,6150;0,00747485
2491,5793;0,00750101
2492,5435;0,007538
2493,5078;0,00757454
2494,4719;0,0075996
2495,4363;0,00760868
2496,4004;0,00760549
2497,3647;0,00759773
2498,3289;0,00759096
2499,2932;0,0075854
2500,2573;0,00757803
2501,2217;0,00756756
2502,1858;0,00755768
2503,1501;0,00755582
2504,1143;0,00756842
2505,0786;0,00759661
2506,0427;0,00763542
2507,0071;0,00767658
2507,9712;0,00771248
2508,9355;0,0077386
2509,8997;0,00775361
2510,8640;0,00775813
2511,8281;0,0077538
2512,7925;0,00774318
2513,7566;0,00773005
2514,7209;0,00771925
2515,6851;0,00771557
2516,6494;0,00772229
2517,6135;0,00773981
2518,5779;0,00776517
2519,5420;0,00779263
2520,5063;0,00781552
2521,4705;0,0078287
2522,4348;0,00783084
2523,3989;0,00782513
2524,3633;0,00781777
2525,3274;0,0078148
2526,2917;0,00781891
2527,2559;0,00782815
2528,2202;0,0078375
2529,1843;0,00784216
2530,1487;0,00784042
2531,1128;0,00783423
2532,0771;0,00782704
2533,0413;0,00782075
2534,0056;0,00781431
2534,9697;0,00780538
2535,9341;0,00779402
2536,8982;0,00778529
2537,8625;0,00778802
2538,8267;0,00780953
2539,7910;0,00784948
2540,7551;0,00789757
2541,7195;0,00793769
2542,6836;0,00795654
2543,6479;0,00795127
2544,6121;0,00793082
2545,5764;0,00790971
2546,5405;0,00789871
2547,5049;0,00789867
2548,4690;0,0079018
2549,4333;0,00789867
2550,3975;0,00788562
2551,3618;0,00786711
2552,3259;0,00785212
2553,2903;0,00784821
2554,2544;0,00785768
2555,2188;0,00787814
2556,1829;0,00790559
2557,1472;0,00793677
2558,1113;0,00796888
2559,0757;0,00799788
2560,0398;0,008018
2561,0042;0,00802364
2561,9683;0,0080127
2562,9326;0,00798859
2563,8967;0,00795936
2564,8611;0,00793447
2565,8252;0,00792111
2566,7896;0,00792207
2567,7537;0,00793566
2568,7180;0,00795689
2569,6821;0,00797955
2570,6465;0,00799827
2571,6106;0,00801044
2572,5750;0,00801711
2573,5391;0,00802209
2574,5034;0,00802953
2575,4675;0,00804133
2576,4319;0,00805594
2577,3960;0,00806952
2578,3604;0,00807829
2579,3245;0,00808044
2580,2888;0,00807618
2581,2529;0,00806677
2582,2173;0,00805353
2583,1814;0,00803821
2584,1458;0,00802387
2585,1099;0,00801512
2586,0742;0,00801685
2587,0383;0,00803185
2588,0027;0,00805907
2588,9668;0,00809378
2589,9312;0,00812943
2590,8953;0,00816029
2591,8596;0,00818338
2592,8237;0,00819894
2593,7881;0,00820954
2594,7522;0,00821838
2595,7166;0,00822746
2596,6807;0,00823636
2597,6450;0,00824239
2598,6091;0,00824211
2599,5735;0,00823364
2600,5376;0,00821846
2601,5020;0,00820141
2602,4661;0,00818896
2603,4304;0,00818652
2604,3945;0,00819631
2605,3589;0,00821682
2606,3230;0,00824386
2607,2874;0,00827253
2608,2515;0,00829937
2609,2158;0,00832366
2610,1799;0,00834717
2611,1443;0,00837249
2612,1084;0,00840048
2613,0728;0,00842868
2614,0369;0,00845206
2615,0012;0,00846628
2615,9653;0,0084711
2616,9297;0,00847143
2617,8938;0,00847444
2618,8582;0,00848453
2619,8223;0,00849981
2620,7866;0,00851311
2621,7507;0,00851697
2622,7151;0,00850923
2623,6792;0,00849509
2624,6436;0,00848418
2625,6077;0,00848503
2626,5720;0,00850066
2627,5361;0,00852805
2628,5005;0,00856088
2629,4646;0,00859313
2630,4290;0,00862123
2631,3931;0,0086441
2632,3574;0,00866209
2633,3215;0,00867609
2634,2859;0,00868698
2635,2500;0,00869545
2636,2144;0,00870183
2637,1785;0,00870638
2638,1428;0,00870993
2639,1069;0,00871452
2640,0713;0,00872322
2641,0354;0,00873869
2641,9998;0,00876137
2642,9639;0,00878863
2643,9282;0,00881581
2644,8923;0,0088387
2645,8567;0,00885584
2646,8208;0,00886909
2647,7852;0,00888227
2648,7493;0,00889878
2649,7136;0,00891966
2650,6777;0,00894312
2651,6421;0,00896542
2652,6062;0,00898269
2653,5706;0,00899271
2654,5347;0,00899614
2655,4990;0,00899666
2656,4631;0,00899971
2657,4275;0,00901026
2658,3916;0,00903053
2659,3560;0,00905886
2660,3201;0,00909052
2661,2844;0,00911992
2662,2485;0,00914324
2663,2129;0,00915992
2664,1770;0,0091723
2665,1414;0,00918393
2666,1055;0,00919746
2667,0698;0,00921327
2668,0339;0,0092295
2668,9983;0,00924327
2669,9624;0,0092526
2670,9268;0,00925791
2671,8909;0,00926224
2672,8552;0,00927
2673,8193;0,00928461
2674,7837;0,00930638
2675,7478;0,00933208
2676,7122;0,00935645
2677,6763;0,00937517
2678,6406;0,0093873
2679,6047;0,00939579
2680,5691;0,00940577
2681,5332;0,00942173
2682,4976;0,0094454
2683,4617;0,00947537
2684,4260;0,00950838
2685,3901;0,00954097
2686,3545;0,00957064
2687,3186;0,00959599
2688,2830;0,00961655
2689,2471;0,00963271
2690,2114;0,00964579
2691,1755;0,00965797
2692,1399;0,00967146
2693,1040;0,00968753
2694,0684;0,00970595
2695,0325;0,00972542
2695,9968;0,00974474
2696,9609;0,00976377
2697,9253;0,00978336
2698,8894;0,00980456
2699,8538;0,00982782
2700,8179;0,00985323
2701,7822;0,0098813
2702,7463;0,00991335
2703,7107;0,00995038
2704,6748;0,00999111
2705,6392;0,0100309
2706,6033;0,010063
2707,5676;0,0100825
2708,5317;0,0100899
2709,4961;0,0100918
2710,4602;0,0100979
2711,4246;0,0101151
2712,3887;0,0101442
2713,3530;0,0101793
2714,3171;0,010212
2715,2815;0,0102365
2716,2456;0,0102524
2717,2100;0,010264
2718,1741;0,0102773
2719,1384;0,0102962
2720,1025;0,010321
2721,0669;0,0103486
2722,0310;0,0103747
2722,9954;0,0103953
2723,9595;0,0104087
2724,9238;0,0104158
2725,8879;0,0104199
2726,8523;0,010425
2727,8164;0,0104347
2728,7808;0,0104506
2729,7449;0,0104729
2730,7092;0,0105002
2731,6733;0,0105306
2732,6377;0,0105615
2733,6018;0,0105903
2734,5662;0,010614
2735,5303;0,0106313
2736,4946;0,010643
2737,4587;0,0106525
2738,4231;0,0106641
2739,3872;0,0106808
2740,3516;0,0107026
2741,3157;0,0107266
2742,2800;0,0107487
2743,2441;0,010766
2744,2085;0,0107783
2745,1726;0,010788
2746,1370;0,0107983
2747,1011;0,0108116
2748,0654;0,0108287
2749,0295;0,0108484
2749,9939;0,0108688
2750,9580;0,0108881
2751,9224;0,0109057
2752,8865;0,0109223
2753,8508;0,0109398
2754,8149;0,0109596
2755,7793;0,0109827
2756,7434;0,0110087
2757,7078;0,0110367
2758,6719;0,0110651
2759,6362;0,0110922
2760,6003;0,0111162
2761,5647;0,0111354
2762,5288;0,0111498
2763,4932;0,0111616
2764,4573;0,0111757
2765,4216;0,0111977
2766,3857;0,0112314
2767,3501;0,0112764
2768,3142;0,0113276
2769,2786;0,011377
2770,2427;0,0114168
2771,2070;0,0114428
2772,1711;0,0114557
2773,1355;0,0114613
2774,0996;0,0114674
2775,0640;0,0114818
2776,0281;0,011509
2776,9924;0,011549
2777,9565;0,0115981
2778,9209;0,0116501
2779,8850;0,0116999
2780,8494;0,011745
2781,8135;0,0117861
2782,7778;0,0118257
2783,7419;0,0118663
2784,7063;0,011908
2785,6704;0,0119491
2786,6348;0,0119872
2787,5989;0,0120212
2788,5632;0,0120529
2789,5273;0,0120862
2790,4917;0,0121254
2791,4558;0,0121728
2792,4202;0,0122273
2793,3843;0,0122845
2794,3486;0,0123392
2795,3127;0,012388
2796,2771;0,0124308
2797,2412;0,0124706
2798,2056;0,0125125
2799,1697;0,0125607
2800,1340;0,012617
2801,0981;0,0126811
2802,0625;0,012751
2803,0266;0,0128238
2803,9910;0,0128967
2804,9551;0,0129669
2805,9194;0,0130321
2806,8835;0,0130915
2807,8479;0,0131473
2808,8120;0,0132036
2809,7764;0,013266
2810,7405;0,0133382
2811,7048;0,0134207
2812,6689;0,013511
2813,6333;0,0136052
2814,5974;0,0137002
2815,5618;0,0137948
2816,5259;0,0138884
2817,4902;0,013981
2818,4543;0,0140719
2819,4187;0,0141615
2820,3828;0,0142521
2821,3472;0,0143474
2822,3113;0,0144515
2823,2756;0,0145659
2824,2397;0,0146889
2825,2041;0,0148166
2826,1682;0,0149461
2827,1326;0,0150775
2828,0967;0,0152139
2829,0610;0,0153596
2830,0251;0,0155171
2830,9895;0,0156848
2831,9536;0,0158573
2832,9180;0,0160284
2833,8821;0,0161936
2834,8464;0,0163524
2835,8105;0,0165094
2836,7749;0,0166725
2837,7390;0,0168509
2838,7034;0,0170527
2839,6675;0,0172832
2840,6318;0,0175443
2841,5959;0,0178344
2842,5603;0,0181488
2843,5244;0,0184801
2844,4888;0,0188188
2845,4529;0,0191538
2846,4172;0,0194728
2847,3813;0,019764
2848,3457;0,0200168
2849,3098;0,0202231
2850,2742;0,0203789
2851,2383;0,0204854
2852,2026;0,0205482
2853,1667;0,0205764
2854,1311;0,0205802
2855,0952;0,0205686
2856,0596;0,0205492
2857,0237;0,020529
2857,9880;0,0205156
2858,9521;0,0205178
2859,9165;0,0205429
2860,8806;0,0205941
2861,8450;0,0206688
2862,8091;0,0207597
2863,7734;0,0208591
2864,7375;0,0209626
2865,7019;0,0210704
2866,6660;0,0211849
2867,6304;0,0213063
2868,5945;0,0214301
2869,5588;0,0215473
2870,5229;0,0216487
2871,4873;0,0217293
2872,4514;0,0217905
2873,4158;0,021839
2874,3799;0,0218833
2875,3442;0,0219299
2876,3083;0,0219825
2877,2727;0,0220421
2878,2368;0,0221086
2879,2012;0,0221818
2880,1653;0,0222611
2881,1296;0,0223442
2882,0938;0,0224273
2883,0581;0,0225062
2884,0222;0,0225784
2884,9866;0,0226446
2885,9507;0,0227091
2886,9150;0,0227776
2887,8792;0,0228543
2888,8435;0,0229402
2889,8076;0,0230315
2890,7720;0,0231222
2891,7361;0,0232058
2892,7004;0,0232785
2893,6646;0,0233408
2894,6289;0,0233965
2895,5930;0,0234516
2896,5574;0,0235115
2897,5215;0,0235778
2898,4858;0,0236474
2899,4500;0,0237133
2900,4143;0,0237679
2901,3784;0,0238064
2902,3428;0,0238306
2903,3069;0,0238478
2904,2712;0,0238683
2905,2354;0,0239005
2906,1997;0,0239479
2907,1638;0,0240097
2908,1282;0,0240835
2909,0923;0,024169
2910,0566;0,0242689
2911,0208;0,0243865
2911,9851;0,0245208
2912,9492;0,024664
2913,9136;0,0248011
2914,8777;0,0249145
2915,8420;0,0249897
2916,8062;0,0250195
2917,7705;0,0250054
2918,7346;0,0249552
2919,6990;0,0248786
2920,6631;0,024784
2921,6274;0,0246764
2922,5916;0,0245575
2923,5559;0,0244273
2924,5200;0,0242855
2925,4844;0,0241318
2926,4485;0,0239664
2927,4128;0,0237897
2928,3770;0,023603
2929,3413;0,0234085
2930,3054;0,0232107
2931,2698;0,0230153
2932,2339;0,0228282
2933,1982;0,0226526
2934,1624;0,0224875
2935,1267;0,022327
2936,0908;0,022163
2937,0552;0,0219884
2938,0193;0,0218004
2938,9836;0,0216013
2939,9478;0,021397
2940,9121;0,0211931
2941,8762;0,0209929
2942,8406;0,0207958
2943,8047;0,0205999
2944,7690;0,0204043
2945,7332;0,0202101
2946,6975;0,0200202
2947,6616;0,0198373
2948,6260;0,0196622
2949,5901;0,0194942
2950,5544;0,0193329
2951,5186;0,0191795
2952,4829;0,0190365
2953,4470;0,0189062
2954,4114;0,0187885
2955,3755;0,0186801
2956,3398;0,0185754
2957,3040;0,0184694
2958,2683;0,0183591
2959,2324;0,0182443
2960,1968;0,0181261
2961,1609;0,0180061
2962,1252;0,0178858
2963,0894;0,0177661
2964,0537;0,0176472
2965,0178;0,0175285
2965,9822;0,0174081
2966,9463;0,0172836
2967,9106;0,0171538
2968,8748;0,0170195
2969,8391;0,0168834
2970,8032;0,0167485
2971,7676;0,0166165
2972,7317;0,016487
2973,6960;0,0163587
2974,6602;0,016231
2975,6245;0,0161052
2976,5886;0,0159844
2977,5530;0,0158717
2978,5171;0,0157688
2979,4814;0,0156753
2980,4456;0,0155896
2981,4099;0,0155098
2982,3740;0,0154349
2983,3384;0,0153655
2984,3025;0,0153029
2985,2668;0,0152483
2986,2310;0,0152021
2987,1953;0,0151628
2988,1594;0,015128
2989,1238;0,0150957
2990,0879;0,0150651
2991,0522;0,0150378
2992,0164;0,0150164
2992,9807;0,015003
2993,9448;0,0149983
2994,9092;0,0150009
2995,8733;0,0150087
2996,8376;0,0150206
2997,8018;0,0150363
2998,7661;0,0150564
2999,7302;0,0150807
3000,6946;0,0151084
3001,6587;0,0151384
3002,6230;0,0151706
3003,5872;0,0152058
3004,5515;0,0152442
3005,5156;0,0152841
3006,4800;0,0153215
3007,4441;0,0153517
3008,4084;0,0153723
3009,3726;0,0153846
3010,3369;0,0153934
3011,3010;0,0154043
3012,2654;0,0154207
3013,2295;0,0154433
3014,1938;0,0154712
3015,1580;0,0155048
3016,1223;0,0155466
3017,0864;0,0155995
3018,0508;0,0156636
3019,0149;0,0157345
3019,9792;0,0158049
3020,9434;0,0158682
3021,9077;0,0159235
3022,8718;0,0159758
3023,8362;0,0160321
3024,8003;0,0160966
3025,7646;0,0161662
3026,7288;0,0162326
3027,6931;0,016287
3028,6572;0,0163263
3029,6216;0,0163553
3030,5857;0,0163843
3031,5500;0,0164236
3032,5142;0,0164794
3033,4785;0,0165523
3034,4426;0,0166396
3035,4070;0,0167379
3036,3711;0,0168432
3037,3354;0,0169509
3038,2996;0,0170545
3039,2639;0,0171478
3040,2280;0,0172275
3041,1924;0,017295
3042,1565;0,0173557
3043,1208;0,0174157
3044,0850;0,017478
3045,0493;0,0175424
3046,0134;0,0176081
3046,9778;0,0176767
3047,9419;0,0177528
3048,9063;0,0178408
3049,8704;0,0179404
3050,8347;0,0180443
3051,7988;0,0181417
3052,7632;0,0182242
3053,7273;0,0182919
3054,6917;0,0183535
3055,6558;0,0184217
3056,6201;0,0185061
3057,5842;0,018608
3058,5486;0,0187198
3059,5127;0,0188301
3060,4771;0,0189288
3061,4412;0,0190117
3062,4055;0,0190806
3063,3696;0,0191432
3064,3340;0,0192088
3065,2981;0,0192858
3066,2625;0,0193778
3067,2266;0,0194829
3068,1909;0,0195949
3069,1550;0,019707
3070,1194;0,0198154
3071,0835;0,0199196
3072,0479;0,0200211
3073,0120;0,0201193
3073,9763;0,0202109
3074,9404;0,0202917
3075,9048;0,0203605
3076,8689;0,0204216
3077,8333;0,0204835
3078,7974;0,0205546
3079,7617;0,0206384
3080,7258;0,0207326
3081,6902;0,0208314
3082,6543;0,0209298
3083,6187;0,0210256
3084,5828;0,0211187
3085,5471;0,0212095
3086,5112;0,0212976
3087,4756;0,0213824
3088,4397;0,0214646
3089,4041;0,0215459
3090,3682;0,0216283
3091,3325;0,0217127
3092,2966;0,0217979
3093,2610;0,0218823
3094,2251;0,0219647
3095,1895;0,0220451
3096,1536;0,0221245
3097,1179;0,0222042
3098,0820;0,0222867
3099,0464;0,0223753
3100,0105;0,022474
3100,9749;0,0225852
3101,9390;0,0227067
3102,9033;0,0228317
3103,8674;0,0229507
3104,8318;0,0230567
3105,7959;0,0231497
3106,7603;0,0232366
3107,7244;0,0233276
3108,6887;0,0234297
3109,6528;0,0235426
3110,6172;0,0236592
3111,5813;0,0237703
3112,5457;0,0238711
3113,5098;0,0239633
3114,4741;0,0240528
3115,4382;0,0241446
3116,4026;0,0242386
3117,3667;0,0243303
3118,3311;0,0244156
3119,2952;0,0244953
3120,2595;0,0245762
3121,2236;0,0246678
3122,1880;0,0247763
3123,1521;0,0249016
3124,1165;0,0250374
3125,0806;0,025175
3126,0449;0,0253068
3127,0090;0,0254283
3127,9734;0,025538
3128,9375;0,0256377
3129,9019;0,0257322
3130,8660;0,025829
3131,8303;0,0259364
3132,7944;0,0260587
3133,7588;0,0261934
3134,7229;0,0263317
3135,6873;0,0264624
3136,6514;0,0265783
3137,6157;0,0266799
3138,5798;0,0267742
3139,5442;0,0268705
3140,5083;0,0269757
3141,4727;0,0270919
3142,4368;0,027217
3143,4011;0,0273471
3144,3652;0,027479
3145,3296;0,0276101
3146,2937;0,0277383
3147,2581;0,0278616
3148,2222;0,0279787
3149,1865;0,0280896
3150,1506;0,0281967
3151,1150;0,0283043
3152,0791;0,0284167
3153,0435;0,0285368
3154,0076;0,0286641
3154,9719;0,0287948
3155,9360;0,0289236
3156,9004;0,0290466
3157,8645;0,029163
3158,8289;0,0292765
3159,7930;0,0293928
3160,7573;0,0295169
3161,7214;0,0296501
3162,6858;0,0297896
3163,6499;0,0299289
3164,6143;0,030061
3165,5784;0,0301807
3166,5427;0,0302871
3167,5068;0,0303847
3168,4712;0,0304823
3169,4353;0,0306892
3170,3997;0,030815
3171,3638;0,0309589
3172,3281;0,0311142
3173,2922;0,0312679
3174,2566;0,0314073
3175,2207;0,0315255
3176,1851;0,0316255
3177,1492;0,0317184
3178,1135;0,0318178
3179,0776;0,0319322
3180,0420;0,0320618
3181,0061;0,0321998
3181,9705;0,0323375
3182,9346;0,0324693
3183,8989;0,0325946
3184,8630;0,0327158
3185,8274;0,0328361
3186,7915;0,032957
3187,7559;0,0330793
3188,7200;0,0332034
3189,6843;0,0333296
3190,6484;0,0334564
3191,6128;0,0335796
3192,5769;0,033693
3193,5413;0,0337926
3194,5054;0,0338798
3195,4697;0,0339627
3196,4338;0,0340524
3197,3982;0,0341585
3198,3623;0,0342835
3199,3267;0,0344237
3200,2908;0,0345713
3201,2551;0,0347181
3202,2192;0,0348581
3203,1836;0,0349871
3204,1477;0,0351027
3205,1121;0,0352048
3206,0762;0,0352961
3207,0405;0,0353823
3208,0046;0,0354692
3208,9690;0,0355608
3209,9331;0,0356581
3210,8975;0,0357606
3211,8616;0,0358686
3212,8259;0,0359838
3213,7900;0,036107
3214,7544;0,0362352
3215,7185;0,0363602
3216,6829;0,0364719
3217,6470;0,0365649
3218,6113;0,0366418
3219,5754;0,0367138
3220,5398;0,036794
3221,5039;0,0368909
3222,4683;0,0370041
3223,4324;0,0371266
3224,3967;0,0372496
3225,3608;0,0373673
3226,3252;0,0374786
3227,2893;0,0375852
3228,2537;0,0376892
3229,2178;0,0377912
3230,1821;0,0378909
3231,1462;0,0379886
3232,1106;0,0380857
3233,0747;0,0381843
3234,0391;0,038287
3235,0032;0,0383958
3235,9675;0,0385119
3236,9316;0,0386353
3237,8960;0,0387635
3238,8601;0,0388912
3239,8245;0,0390115
3240,7886;0,0391187
3241,7529;0,0392115
3242,7170;0,0392944
3243,6814;0,0393773
3244,6455;0,0394708
3245,6099;0,0395824
3246,5740;0,0397126
3247,5383;0,0398563
3248,5024;0,0400046
3249,4668;0,0401486
3250,4309;0,0402815
3251,3953;0,0404005
3252,3594;0,040507
3253,3237;0,0406068
3254,2878;0,0407081
3255,2522;0,0408185
3256,2163;0,0409425
3257,1807;0,0410791
3258,1448;0,0412223
3259,1091;0,0413629
3260,0732;0,0414925
3261,0376;0,0416069
3262,0017;0,0417083
3262,9661;0,0418045
3263,9302;0,0419057
3264,8945;0,0420192
3265,8586;0,0421459
3266,8230;0,0422788
3267,7871;0,0424053
3268,7515;0,0425125
3269,7156;0,0425922
3270,6799;0,0426434
3271,6440;0,0426731
3272,6084;0,0426929
3273,5725;0,0427151
3274,5369;0,0427497
3275,5010;0,0428014
3276,4653;0,0428694
3277,4294;0,0429484
3278,3938;0,0430296
3279,3579;0,0431036
3280,3223;0,0431626
3281,2864;0,0432022
3282,2507;0,0432232
3283,2148;0,0432307
3284,1792;0,0432322
3285,1433;0,0432351
3286,1077;0,0432439
3287,0718;0,0432594
3288,0361;0,0432788
3289,0002;0,0432972
3289,9646;0,04331
3290,9287;0,0433141
3291,8931;0,0433091
3292,8572;0,0432976
3293,8215;0,0432842
3294,7856;0,0432738
3295,7500;0,0432702
3296,7141;0,0432738
3297,6785;0,0432817
3298,6426;0,0432893
3299,6069;0,0432927
3300,5710;0,0432911
3301,5354;0,0432863
3302,4995;0,0432803
3303,4639;0,0432727
3304,4280;0,0432591
3305,3923;0,0432342
3306,3564;0,0431957
3307,3208;0,0431484
3308,2849;0,043103
3309,2493;0,0430717
3310,2134;0,0430618
3311,1777;0,0430727
3312,1418;0,0430964
3313,1062;0,0431239
3314,0703;0,0431496
3315,0347;0,0431745
3315,9988;0,0432041
3316,9631;0,0432443
3317,9272;0,0432968
3318,8916;0,0433585
3319,8557;0,043423
3320,8201;0,0434844
3321,7842;0,0435402
3322,7485;0,0435922
3323,7126;0,0436445
3324,6770;0,0437007
3325,6411;0,0437618
3326,6055;0,043826
3327,5696;0,0438902
3328,5339;0,0439508
3329,4980;0,0440049
3330,4624;0,0440504
3331,4265;0,0440855
3332,3909;0,0441091
3333,3550;0,0441208
3334,3193;0,0441208
3335,2834;0,0441093
3336,2478;0,044085
3337,2119;0,0440461
3338,1763;0,0439918
3339,1404;0,0439251
3340,1047;0,0438519
3341,0688;0,0437787
3342,0332;0,0437086
3342,9973;0,0436396
3343,9617;0,0435657
3344,9258;0,0434813
3345,8901;0,0433839
3346,8542;0,0432751
3347,8186;0,0431576
3348,7827;0,0430329
3349,7471;0,042901
3350,7112;0,0427634
3351,6755;0,042625
3352,6396;0,0424946
3353,6040;0,0423803
3354,5681;0,0422858
3355,5325;0,042208
3356,4966;0,0421394
3357,4609;0,0420725
3358,4250;0,0420025
3359,3894;0,0419268
3360,3535;0,0418439
3361,3179;0,0417514
3362,2820;0,041648
3363,2463;0,0415352
3364,2104;0,0414185
3365,1748;0,041305
3366,1389;0,0411999
3367,1033;0,0411041
3368,0674;0,0410143
3369,0317;0,0409264
3369,9958;0,0408376
3370,9602;0,0407471
3371,9243;0,0406544
3372,8887;0,0405583
3373,8528;0,0404574
3374,8171;0,0403518
3375,7813;0,0402448
3376,7456;0,0401414
3377,7097;0,0400454
3378,6741;0,0399563
3379,6382;0,0398695
3380,6025;0,0397792
3381,5667;0,0396839
3382,5310;0,0395877
3383,4951;0,0394986
3384,4595;0,0394225
3385,4236;0,0393584
3386,3879;0,039298
3387,3521;0,0392308
3388,3164;0,0391515
3389,2805;0,0390623
3390,2449;0,038972
3391,2090;0,0388889
3392,1733;0,0388155
3393,1375;0,0387459
3394,1018;0,0386707
3395,0659;0,0385839
3396,0303;0,0384867
3396,9944;0,0383864
3397,9587;0,0382908
3398,9229;0,0382031
3399,8872;0,0381203
3400,8513;0,0380355
3401,8157;0,0379417
3402,7798;0,0378352
3403,7441;0,0377165
3404,7083;0,0375892
3405,6726;0,0374585
3406,6367;0,0373292
3407,6011;0,0372049
3408,5652;0,037087
3409,5295;0,0369749
3410,4937;0,036866
3411,4580;0,0367573
3412,4221;0,0366456
3413,3865;0,036528
3414,3506;0,0364017
3415,3149;0,0362645
3416,2791;0,0361151
3417,2434;0,0359555
3418,2075;0,0357923
3419,1719;0,0356351
3420,1360;0,0354928
3421,1003;0,0353686
3422,0645;0,035258
3423,0288;0,0351509
3423,9929;0,0350374
3424,9573;0,034912
3425,9214;0,0347755
3426,8857;0,0346328
3427,8499;0,0344901
3428,8142;0,0343517
3429,7783;0,0342183
3430,7427;0,0340877
3431,7068;0,0339568
3432,6711;0,0338244
3433,6353;0,0336906
3434,5996;0,0335562
3435,5637;0,0334203
3436,5281;0,0332802
3437,4922;0,0331336
3438,4565;0,0329812
3439,4207;0,0328278
3440,3850;0,0326791
3441,3491;0,0325368
3442,3135;0,0323959
3443,2776;0,0322463
3444,2419;0,0320799
3445,2061;0,031897
3446,1704;0,0317083
3447,1345;0,0315283
3448,0989;0,0313662
3449,0630;0,031221
3450,0273;0,0310857
3450,9915;0,0309544
3451,9558;0,0308262
3452,9199;0,0307035
3453,8843;0,0305868
3454,8484;0,0304712
3455,8127;0,0303475
3456,7769;0,030207
3457,7412;0,0300483
3458,7053;0,0298778
3459,6697;0,029707
3460,6338;0,0295454
3461,5981;0,0293954
3462,5623;0,0292519
3463,5266;0,0291061
3464,4907;0,028951
3465,4551;0,0287845
3466,4192;0,0286103
3467,3835;0,0284344
3468,3477;0,0282623
3469,3120;0,0280962
3470,2761;0,0279345
3471,2405;0,0277743
3472,2046;0,0276145
3473,1689;0,0274573
3474,1331;0,0273075
3475,0974;0,0271674
3476,0615;0,0270341
3477,0259;0,0268989
3477,9900;0,0267525
3478,9543;0,0265902
3479,9185;0,0264169
3480,8828;0,0262446
3481,8469;0,0260838
3482,8113;0,0259358
3483,7754;0,0257921
3484,7397;0,0256415
3485,7039;0,0254795
3486,6682;0,0253118
3487,6323;0,0251504
3488,5967;0,0250049
3489,5608;0,024874
3490,5251;0,0247461
3491,4893;0,0246061
3492,4536;0,0244468
3493,4177;0,0242737
3494,3821;0,0241048
3495,3462;0,0239607
3496,3105;0,0238521
3497,2747;0,0237714
3498,2390;0,0236949
3499,2031;0,0235935
3500,1675;0,0234458
3501,1316;0,023249
3502,0959;0,023024
3503,0601;0,0228042
3504,0244;0,0226155
3504,9885;0,0224623
3505,9529;0,0223309
3506,9170;0,0222005
3507,8813;0,0220544
3508,8455;0,0218883
3509,8098;0,0217107
3510,7739;0,0215364
3511,7383;0,0213776
3512,7024;0,0212394
3513,6667;0,0211207
3514,6309;0,0210153
3515,5952;0,0209141
3516,5593;0,0208073
3517,5237;0,020688
3518,4878;0,0205556
3519,4521;0,0204166
3520,4163;0,0202811
3521,3806;0,0201571
3522,3447;0,020044
3523,3091;0,0199298
3524,2732;0,0197961
3525,2375;0,0196292
3526,2017;0,0194305
3527,1660;0,0192174
3528,1301;0,019015
3529,0945;0,0188415
3530,0586;0,0186992
3531,0229;0,0185787
3531,9871;0,0184669
3532,9514;0,0183553
3533,9155;0,0182411
3534,8799;0,0181258
3535,8440;0,0180118
3536,8083;0,0178998
3537,7725;0,0177892
3538,7368;0,0176818
3539,7009;0,0175832
3540,6653;0,0174979
3541,6294;0,0174234
3542,5938;0,0173474
3543,5579;0,0172535
3544,5222;0,0171296
3545,4863;0,0169734
3546,4507;0,0167894
3547,4148;0,0165857
3548,3792;0,0163737
3549,3433;0,0161665
3550,3076;0,015976
3551,2717;0,0158117
3552,2361;0,0156799
3553,2002;0,0155806
3554,1646;0,0155057
3555,1287;0,0154432
3556,0930;0,0153818
3557,0571;0,0153127
3558,0215;0,0152315
3558,9856;0,015143
3559,9500;0,0150641
3560,9141;0,0150162
3561,8784;0,0150113
3562,8425;0,0150354
3563,8069;0,0150424
3564,7710;0,0149735
3565,7354;0,0148021
3566,6995;0,0145634
3567,6638;0,0143151
3568,6279;0,014083
3569,5923;0,0138693
3570,5564;0,0136779
3571,5208;0,0135125
3572,4849;0,0133681
3573,4492;0,0132381
3574,4133;0,0131253
3575,3777;0,0130436
3576,3418;0,013006
3577,3062;0,0130139
3578,2703;0,0130566
3579,2346;0,0131217
3580,1987;0,0132045
3581,1631;0,0133107
3582,1272;0,0134475
3583,0916;0,0136078
3584,0557;0,0137599
3585,0200;0,0138607
3585,9841;0,0138945
3586,9485;0,0138998
3587,9126;0,0139296
3588,8770;0,0139976
3589,8411;0,0140879
3590,8054;0,0141845
3591,7695;0,0142653
3592,7339;0,0142947
3593,6980;0,0142407
3594,6624;0,0141028
3595,6265;0,0139151
3596,5908;0,0137196
3597,5549;0,0135398
3598,5193;0,0133762
3599,4834;0,0132197
3600,4478;0,0130676
3601,4119;0,0129291
3602,3762;0,0128156
3603,3403;0,0127249
3604,3047;0,0126265
3605,2688;0,012459
3606,2332;0,0121525
3607,1973;0,0116703
3608,1616;0,0110398
3609,1257;0,0103427
3610,0901;0,00967948
3611,0542;0,00914195
3612,0186;0,00879961
3612,9827;0,00868274
3613,9470;0,00876623
3614,9111;0,00897511
3615,8755;0,00921869
3616,8396;0,0094372
3617,8040;0,00963711
3618,7681;0,00988287
3619,7324;0,0102268
3620,6965;0,0106457
3621,6609;0,0110734
3622,6250;0,0114741
3623,5894;0,0118491
3624,5535;0,0121866
3625,5178;0,0124148
3626,4819;0,0124148
3627,4463;0,0121181
3628,4104;0,0116108
3629,3748;0,011056
3630,3389;0,0105218
3631,3032;0,00999301
3632,2673;0,00945847
3633,2317;0,00892277
3634,1958;0,00839241
3635,1602;0,00787741
3636,1243;0,00739468
3637,0886;0,00696086
3638,0527;0,00658223
3639,0171;0,00625444
3639,9812;0,00597241
3640,9456;0,0057411
3641,9097;0,00557642
3642,8740;0,00549229
3643,8381;0,00547641
3644,8025;0,00546231
3645,7666;0,00531685
3646,7310;0,00489576
3647,6951;0,00421993
3648,6594;0,00359815
3649,6235;0,00331647
3650,5879;0,00329385
3651,5520;0,0033195
3652,5164;0,0033093
3653,4805;0,00326184
3654,4448;0,0031762
3655,4089;0,00304832
3656,3733;0,00289706
3657,3374;0,00275977
3658,3018;0,00266364
3659,2659;0,00261526
3660,2302;0,00260836
3661,1943;0,00263231
3662,1587;0,0026814
3663,1228;0,00276172
3664,0872;0,00288549
3665,0513;0,00304837
3666,0156;0,00320869
3666,9797;0,00329093
3667,9441;0,00324033
3668,9082;0,00309989
3669,8726;0,00299674
3670,8367;0,00301629
3671,8010;0,00313237
3672,7651;0,00324972
3673,7295;0,00327281
3674,6936;0,0031817
3675,6580;0,00306497
3676,6221;0,00302032
3677,5864;0,00305822
3678,5505;0,00315288
3679,5149;0,00329951
3680,4790;0,0035013
3681,4434;0,00375053
3682,4075;0,00403181
3683,3718;0,00432942
3684,3359;0,00462133
3685,3003;0,00486413
3686,2644;0,00499568
3687,2288;0,00498869
3688,1929;0,00493683
3689,1572;0,00503182
3690,1213;0,00536246
3691,0857;0,00582213
3692,0498;0,0062671
3693,0142;0,0066408
3693,9783;0,0069534
3694,9426;0,00722847
3695,9067;0,00747679
3696,8711;0,0076929
3697,8352;0,00786222
3698,7996;0,0079741
3699,7637;0,00803692
3700,7280;0,00808314
3701,6921;0,00814874
3702,6565;0,00824039
3703,6206;0,0083326
3704,5850;0,00839715
3705,5491;0,00841669
3706,5134;0,00836259
3707,4775;0,00816496
3708,4419;0,00771731
3709,4060;0,00695316
3710,3704;0,0059667
3711,3345;0,00501558
3712,2988;0,00433003
3713,2629;0,0039816
3714,2273;0,00394775
3715,1914;0,00419467
3716,1558;0,00468862
3717,1199;0,00538052
3718,0842;0,00620096
3719,0483;0,00707117
3720,0127;0,00792234
3720,9768;0,00871148
3721,9412;0,00942234
3722,9053;0,0100496
3723,8696;0,0105783
3724,8337;0,0109766
3725,7981;0,0112099
3726,7622;0,0112672
3727,7266;0,0111724
3728,6907;0,0109685
3729,6550;0,0106901
3730,6191;0,0103471
3731,5835;0,00992832
3732,5476;0,00942189
3733,5120;0,00883856
3734,4761;0,00820933
3735,4404;0,00755239
3736,4045;0,00687284
3737,3689;0,00621766
3738,3330;0,00568805
3739,2974;0,00537784
3740,2615;0,00530171
3741,2258;0,00535694
3742,1899;0,00533882
3743,1543;0,00504607
3744,1184;0,00444418
3745,0828;0,00369745
3746,0469;0,00299915
3747,0112;0,0024328
3747,9753;0,00197582
3748,9397;0,00157476
3749,9038;0,00124331
3750,8682;0,00106897
3751,8323;0,00105985
3752,7966;0,00110297
3753,7607;0,00111556
3754,7251;0,00109788
3755,6892;0,00106969
3756,6536;0,00103537
3757,6177;0,00100165
3758,5820;0,000993507
3759,5461;0,00103295
3760,5105;0,00111542
3761,4746;0,00122009
3762,4390;0,00132796
3763,4031;0,00142334
3764,3674;0,00148949
3765,3315;0,00151014
3766,2959;0,00147531
3767,2600;0,00138794
3768,2244;0,00126971
3769,1885;0,00116006
3770,1528;0,00110004
3771,1169;0,00110926
3772,0813;0,00117828
3773,0454;0,00128203
3774,0098;0,00139264
3774,9739;0,00148049
3775,9382;0,00151559
3776,9023;0,00148391
3777,8667;0,00140749
3778,8308;0,0013347
3779,7952;0,00129834
3780,7593;0,00129159
3781,7236;0,00128769
3782,6877;0,0012694
3783,6521;0,00124006
3784,6162;0,00121737
3785,5806;0,00121849
3786,5447;0,00124806
3787,5090;0,00129784
3788,4731;0,00135707
3789,4375;0,0014208
3790,4016;0,00148757
3791,3660;0,00155063
3792,3301;0,00159363
3793,2944;0,00159915
3794,2585;0,00156621
3795,2229;0,0015192
3796,1870;0,0014917
3797,1514;0,00149393
3798,1155;0,00149418
3799,0798;0,00143823
3800,0439;0,00130096
3801,0083;0,00112183
3801,9724;0,000970336
3802,9368;0,000882084
3803,9009;0,000848734
3804,8652;0,000848048
3805,8293;0,000866373
3806,7937;0,000907016
3807,7578;0,000980198
3808,7222;0,00108733
3809,6863;0,00122728
3810,6506;0,00140345
3811,6147;0,00160259
3812,5791;0,00177286
3813,5432;0,00184212
3814,5076;0,00177606
3815,4717;0,00161474
3816,4360;0,0014302
3817,4001;0,00125778
3818,3645;0,001088
3819,3286;0,000912754
3820,2930;0,000762337
3821,2571;0,000681666
3822,2214;0,000674371
3823,1855;0,000707478
3824,1499;0,000760609
3825,1140;0,000838444
3826,0784;0,000949229
3827,0425;0,00108803
3828,0068;0,00123569
3828,9709;0,0013674
3829,9353;0,00146414
3830,8994;0,00152086
3831,8638;0,00154551
3832,8279;0,00154767
3833,7922;0,00152271
3834,7563;0,00144492
3835,7207;0,00128303
3836,6848;0,00103784
3837,6492;0,000770335
3838,6133;0,00057347
3839,5776;0,00050389
3840,5417;0,000553721
3841,5061;0,000682041
3842,4702;0,000848431
3843,4346;0,00102185
3844,3987;0,00118165
3845,3630;0,00132466
3846,3271;0,00147188
3847,2915;0,00166043
3848,2556;0,00191514
3849,2200;0,00220878
3850,1841;0,00243343
3851,1484;0,00243345
3852,1125;0,00216115
3853,0769;0,00181121
3854,0410;0,00158771
3855,0054;0,00145524
3855,9695;0,00133814
3856,9338;0,00126105
3857,8979;0,00126932
3858,8623;0,00135807
3859,8264;0,00146952
3860,7908;0,00153208
3861,7549;0,00151543
3862,7192;0,00146044
3863,6833;0,0014429
3864,6477;0,0015019
3865,6118;0,00161356
3866,5762;0,00171842
3867,5403;0,00175572
3868,5046;0,00168969
3869,4688;0,00153171
3870,4331;0,00134179
3871,3972;0,00119418
3872,3616;0,00113429
3873,3257;0,00116726
3874,2900;0,0012749
3875,2542;0,00143118
3876,2185;0,00160459
3877,1826;0,00175775
3878,1470;0,00185599
3879,1111;0,00188607
3880,0754;0,00186725
3881,0396;0,00183585
3882,0039;0,00181558
3882,9680;0,00180565
3883,9324;0,00179314
3884,8965;0,00176951
3885,8608;0,00173479
3886,8250;0,00169161
3887,7893;0,00163967
3888,7534;0,00157459
3889,7178;0,00149513
3890,6819;0,00142037
3891,6462;0,00139231
3892,6104;0,00144312
3893,5747;0,00156864
3894,5388;0,00174439
3895,5032;0,00194396
3896,4673;0,00213447
3897,4316;0,00227493
3898,3958;0,00233367
3899,3601;0,00230517
3900,3242;0,00220422
3901,2886;0,00204853
3902,2527;0,00185943
3903,2170;0,00167185
3904,1812;0,00152414
3905,1455;0,00143531
3906,1096;0,00140117
3907,0740;0,0014084
3908,0381;0,0014443
3909,0024;0,0014983
3909,9666;0,00156309
3910,9309;0,00163665
3911,8950;0,00171998
3912,8594;0,00180999
3913,8235;0,0018935
3914,7878;0,00195001
3915,7520;0,00196464
3916,7163;0,00194132
3917,6804;0,00190066
3918,6448;0,00186278
3919,6089;0,00183426
3920,5732;0,00181019
3921,5374;0,00178162
3922,5017;0,00174321
3923,4658;0,00169988
3924,4302;0,00166623
3925,3943;0,00165616
3926,3586;0,0016728
3927,3228;0,00170738
3928,2871;0,00174355
3929,2512;0,00176385
3930,2156;0,00175934
3931,1797;0,00173611
3932,1440;0,00170944
3933,1082;0,00169117
3934,0725;0,00168551
3935,0366;0,00169389
3936,0010;0,00171775
3936,9651;0,00175577
3937,9294;0,00180045
3938,8936;0,00183852
3939,8579;0,0018567
3940,8220;0,00185067
3941,7864;0,00183034
3942,7505;0,00181499
3943,7148;0,00182008
3944,6790;0,00184715
3945,6433;0,00188243
3946,6074;0,00190327
3947,5718;0,00188972
3948,5359;0,00183662
3949,5002;0,00175808
3950,4644;0,00167934
3951,4287;0,00162308
3952,3928;0,00160045
3953,3572;0,00161007
3954,3213;0,00164241
3955,2856;0,00168576
3956,2498;0,00173065
3957,2141;0,00177097
3958,1782;0,00180238
3959,1426;0,00182073
3960,1067;0,00182271
3961,0710;0,00180842
3962,0352;0,0017835
3962,9995;0,00175815
3963,9636;0,00174313
3964,9280;0,00174439
3965,8921;0,00176026
3966,8564;0,00178199
3967,8206;0,00179821
3968,7849;0,00180086
3969,7490;0,0017894
3970,7134;0,0017706
3971,6775;0,0017543
3972,6418;0,00174779
3973,6060;0,00175223
3974,5703;0,00176277
3975,5344;0,00177198
3976,4988;0,00177423
3977,4629;0,00176832
3978,4272;0,00175723
3979,3914;0,00174568
3980,3557;0,00173752
3981,3198;0,00173425
3982,2842;0,00173519
3983,2483;0,00173885
3984,2126;0,00174449
3985,1768;0,00175289
3986,1411;0,00176571
3987,1052;0,00178384
3988,0696;0,00180586
3989,0337;0,0018272
3989,9980;0,00184153
3990,9622;0,00184309
3991,9265;0,00182928
3992,8906;0,00180208
3993,8550;0,00176749
3994,8191;0,00173339
3995,7834;0,00170665
3996,7476;0,00169111
3997,7119;0,00168705
3998,6760;0,00169218
3999,6404;0,00170316
4000,6045;0,0015171

##### Extended Information
[Comments]
Sample name
Comment
Username
Division
Organization;UNIVERSIDAD INDUSTRIAL DE SANTANDER

[Detailed Information]
Creation date;29/01/2025 10:53 a.m.

Data array type;Linear data array
Horizontal axis;Wavenumber [cm-1]
Vertical axis;Abs
Start;399,193 cm-1
End;4000,6 cm-1
Data interval;0,964233 cm-1
Data points;3736    

[Measurement Information]
Model name;FT/IR-4X1typeA
Serial No.;A035162111

Accessory;ATR PRO 4X
Accessory S/N;A021162126
Incident angle;45 deg

Measurement date;29/01/2025 10:53 a.m.

Light source;Standard
Detector;TGS
Accumulation;Auto (73)
Resolution;4 cm-1
Zero filling;On
Apodization;Cosine
Gain;Auto (8)
Aperture;Auto (7 mm)
Scan speed;Auto (2 mm/sec)
Filter;Auto (12800 Hz)

