TITLE;
DATA TYPE;INFRARED SPECTRUM
ORIGIN;JASCO
OWNER;
DATE;25/01/29
TIME;10:38:36
SPECTROMETER/DATA SYSTEM;
LOCALE;9226
RESOLUTION;
DELTAX;0,964233
XUNITS;1/CM
YUNITS;ABSORBANCE
FIRSTX;  399,1927
LASTX; 4000,6047
NPOINTS;    3736
FIRSTY;     0,15619
MAXY;     0,20222
MINY;     0,00948
XYDATA
399,1927;0,156195
400,1569;0,155645
401,1211;0,154826
402,0854;0,154012
403,0496;0,153341
404,0138;0,152853
404,9781;0,152523
405,9423;0,152287
406,9065;0,152072
407,8708;0,151836
408,8350;0,151588
409,7992;0,151392
410,7635;0,151337
411,7277;0,151497
412,6919;0,151883
413,6562;0,152444
414,6204;0,153098
415,5846;0,153762
416,5489;0,154361
417,5131;0,154819
418,4773;0,155087
419,4416;0,155223
420,4058;0,155392
421,3700;0,155747
422,3343;0,156345
423,2985;0,15716
424,2627;0,158091
425,2270;0,158973
426,1912;0,159634
427,1554;0,159986
428,1197;0,160095
429,0839;0,160153
430,0481;0,16039
431,0124;0,160945
431,9766;0,161796
432,9408;0,16276
433,9051;0,163599
434,8693;0,164149
435,8335;0,164395
436,7978;0,164442
437,7620;0,164407
438,7262;0,164332
439,6905;0,164185
440,6547;0,163946
441,6189;0,163692
442,5832;0,163595
443,5474;0,163818
444,5116;0,164343
445,4759;0,164925
446,4401;0,16522
447,4043;0,164992
448,3686;0,164244
449,3328;0,163209
450,2970;0,162225
451,2613;0,161554
452,2255;0,161255
453,1897;0,161177
454,1540;0,16109
455,1182;0,160819
456,0824;0,16034
457,0467;0,159778
458,0109;0,159325
458,9751;0,159104
459,9394;0,159113
460,9036;0,159272
461,8678;0,159516
462,8321;0,159821
463,7963;0,160167
464,7605;0,160513
465,7248;0,160788
466,6890;0,160928
467,6532;0,160904
468,6175;0,160723
469,5817;0,160406
470,5459;0,159978
471,5102;0,159494
472,4744;0,159061
473,4386;0,158819
474,4029;0,158862
475,3671;0,159179
476,3313;0,159657
477,2956;0,160138
478,2598;0,160486
479,2240;0,160636
480,1883;0,160613
481,1525;0,160512
482,1167;0,160447
483,0810;0,160516
484,0452;0,160767
485,0094;0,161193
485,9737;0,161736
486,9379;0,16231
487,9021;0,16282
488,8664;0,163183
489,8306;0,163347
490,7948;0,16331
491,7591;0,163125
492,7233;0,162888
493,6875;0,16269
494,6518;0,162588
495,6160;0,162584
496,5802;0,162647
497,5445;0,162737
498,5087;0,162822
499,4729;0,16289
500,4372;0,162944
501,4014;0,162994
502,3656;0,163052
503,3299;0,163125
504,2941;0,163224
505,2583;0,16336
506,2226;0,163552
507,1868;0,163815
508,1510;0,164148
509,1153;0,164527
510,0795;0,164908
511,0437;0,165249
512,0080;0,165531
512,9722;0,165767
513,9365;0,165993
514,9007;0,166255
515,8649;0,166578
516,8292;0,16695
517,7934;0,167317
518,7576;0,167606
519,7219;0,167767
520,6861;0,167794
521,6503;0,167719
522,6146;0,167584
523,5788;0,167427
524,5430;0,167275
525,5073;0,167137
526,4715;0,167011
527,4357;0,166882
528,4000;0,166731
529,3642;0,166537
530,3284;0,166292
531,2927;0,166005
532,2569;0,165703
533,2211;0,165427
534,1854;0,165211
535,1496;0,165066
536,1138;0,164966
537,0781;0,164871
538,0423;0,164748
539,0065;0,164595
539,9708;0,164446
540,9350;0,164353
541,8992;0,164359
542,8635;0,164478
543,8277;0,164693
544,7919;0,164967
545,7562;0,165269
546,7204;0,165588
547,6846;0,165925
548,6489;0,166287
549,6131;0,166663
550,5773;0,167028
551,5416;0,167355
552,5058;0,167641
553,4700;0,167913
554,4343;0,168212
555,3985;0,168552
556,3627;0,168881
557,3270;0,169073
558,2912;0,168964
559,2554;0,168427
560,2197;0,167437
561,1839;0,166092
562,1481;0,164572
563,1124;0,163067
564,0766;0,161704
565,0408;0,160526
566,0051;0,159519
566,9693;0,158666
567,9335;0,15798
568,8978;0,157494
569,8620;0,157219
570,8262;0,157111
571,7905;0,157075
572,7547;0,157002
573,7189;0,156821
574,6832;0,156524
575,6474;0,156162
576,6116;0,155811
577,5759;0,155533
578,5401;0,155347
579,5043;0,155237
580,4686;0,15517
581,4328;0,15512
582,3970;0,155072
583,3613;0,155017
584,3255;0,154952
585,2897;0,154875
586,2540;0,154789
587,2182;0,154702
588,1824;0,154626
589,1467;0,154568
590,1109;0,154529
591,0751;0,1545
592,0394;0,154469
593,0036;0,15442
593,9678;0,154334
594,9321;0,154191
595,8963;0,153967
596,8605;0,15365
597,8248;0,153246
598,7890;0,152796
599,7532;0,15236
600,7175;0,151991
601,6817;0,151706
602,6459;0,151476
603,6102;0,151246
604,5744;0,150972
605,5386;0,150647
606,5029;0,150288
607,4671;0,149914
608,4313;0,149513
609,3956;0,149053
610,3598;0,14853
611,3240;0,148004
612,2883;0,1476
613,2525;0,147437
614,2167;0,14753
615,1810;0,147729
616,1452;0,147752
617,1094;0,147316
618,0737;0,146305
619,0379;0,144845
620,0021;0,143222
620,9664;0,141713
621,9306;0,140463
622,8948;0,139473
623,8591;0,138662
624,8233;0,137882
625,7875;0,137239
626,7518;0,136736
627,7160;0,136369
628,6802;0,136086
629,6445;0,135813
630,6087;0,135483
631,5729;0,135073
632,5372;0,134606
633,5014;0,134128
634,4656;0,13369
635,4299;0,133332
636,3941;0,133078
637,3583;0,132934
638,3226;0,132885
639,2868;0,132885
640,2510;0,132877
641,2153;0,132821
642,1795;0,13272
643,1437;0,132629
644,1080;0,132624
645,0722;0,132748
646,0364;0,132971
647,0007;0,133195
647,9649;0,133299
648,9291;0,133213
649,8934;0,132963
650,8576;0,132661
651,8218;0,13245
652,7861;0,132433
653,7503;0,132634
654,7145;0,132994
655,6788;0,133404
656,6430;0,133755
657,6072;0,133994
658,5715;0,134136
659,5357;0,134221
660,4999;0,134232
661,4642;0,134048
662,4284;0,133448
663,3926;0,132214
664,3569;0,130303
665,3211;0,128096
666,2853;0,12651
667,2496;0,12651
668,2138;0,127856
669,1780;0,129064
670,1423;0,129437
671,1065;0,129247
672,0707;0,128611
673,0350;0,127497
673,9992;0,126041
674,9634;0,12453
675,9277;0,123196
676,8919;0,122078
677,8561;0,121065
678,8204;0,120029
679,7846;0,118926
680,7488;0,117791
681,7131;0,116685
682,6773;0,115645
683,6415;0,11468
684,6058;0,113793
685,5700;0,112994
686,5342;0,112292
687,4985;0,11168
688,4627;0,111138
689,4269;0,110617
690,3912;0,110089
691,3554;0,109549
692,3196;0,109013
693,2839;0,108495
694,2481;0,108
695,2123;0,107525
696,1766;0,107066
697,1408;0,106618
698,1050;0,106175
699,0693;0,105729
700,0335;0,105269
700,9977;0,104788
701,9620;0,104282
702,9262;0,103761
703,8904;0,103214
704,8547;0,102663
705,8189;0,102122
706,7831;0,101593
707,7474;0,101062
708,7116;0,100506
709,6758;0,0999001
710,6401;0,0992227
711,6043;0,0984677
712,5685;0,097653
713,5328;0,0968288
714,4970;0,0960713
715,4612;0,0940106
716,4255;0,0938759
717,3897;0,093983
718,3539;0,0941105
719,3182;0,0939561
720,2824;0,0932838
721,2466;0,0920618
722,2109;0,0904832
723,1751;0,0888501
724,1393;0,0874152
725,1036;0,0862889
726,0678;0,0854406
727,0320;0,0847653
727,9963;0,0841592
728,9605;0,0835661
729,9247;0,0829787
730,8890;0,0824127
731,8532;0,0818821
732,8174;0,08139
733,7817;0,0809336
734,7459;0,080508
735,7101;0,0801074
736,6744;0,0797231
737,6386;0,0793444
738,6028;0,0789627
739,5671;0,0785737
740,5313;0,0781755
741,4955;0,0777654
742,4598;0,0773396
743,4240;0,0768982
744,3882;0,0764508
745,3525;0,0760154
746,3167;0,0756104
747,2809;0,0752422
748,2452;0,0748997
749,2094;0,0745588
750,1736;0,0741964
751,1379;0,0738033
752,1021;0,0733878
753,0663;0,0729686
754,0306;0,0725621
754,9948;0,072174
755,9590;0,0718001
756,9233;0,0714349
757,8875;0,0710787
758,8517;0,0707382
759,8160;0,0704198
760,7802;0,0701209
761,7444;0,06983
762,7087;0,069533
763,6729;0,069224
764,6371;0,0689091
765,6014;0,0686008
766,5656;0,0683062
767,5298;0,0680209
768,4941;0,0677323
769,4583;0,0674321
770,4225;0,0671257
771,3868;0,0668318
772,3510;0,0665701
773,3152;0,0663461
774,2795;0,0661447
775,2437;0,0659369
776,2079;0,0656947
777,1722;0,0654063
778,1364;0,06508
779,1006;0,0647383
780,0649;0,064406
781,0291;0,0640995
781,9933;0,0638223
782,9576;0,063568
783,9218;0,0633256
784,8860;0,0630864
785,8503;0,0628467
786,8145;0,0626072
787,7787;0,0623699
788,7430;0,062134
789,7072;0,0618954
790,6714;0,0616505
791,6357;0,0613999
792,5999;0,0611506
793,5641;0,0609129
794,5284;0,0606934
795,4926;0,060492
796,4568;0,0603032
797,4211;0,0601228
798,3853;0,059953
799,3495;0,0598017
800,3138;0,0596753
801,2780;0,0595703
802,2422;0,059473
803,2065;0,0593662
804,1707;0,0592403
805,1349;0,0590988
806,0992;0,0589557
807,0634;0,058825
808,0276;0,0587117
808,9919;0,0586099
809,9561;0,0585082
810,9203;0,0583993
811,8846;0,0582848
812,8488;0,0581731
813,8130;0,0580738
814,7773;0,0579923
815,7415;0,0579294
816,7057;0,0578841
817,6700;0,0578557
818,6342;0,057843
819,5984;0,0578406
820,5627;0,0578376
821,5269;0,0578207
822,4911;0,0577813
823,4554;0,0577209
824,4196;0,0576503
825,3839;0,0575827
826,3481;0,0575248
827,3123;0,0574738
828,2766;0,0574212
829,2408;0,0573609
830,2050;0,0572931
831,1693;0,0572219
832,1335;0,0571474
833,0977;0,0570605
834,0620;0,0569452
835,0262;0,0567882
835,9904;0,0565879
836,9547;0,0563581
837,9189;0,0561227
838,8831;0,0559052
839,8474;0,0557197
840,8116;0,0555677
841,7758;0,0554411
842,7401;0,0553272
843,7043;0,0552149
844,6685;0,0550983
845,6328;0,0549769
846,5970;0,0548547
847,5612;0,0547368
848,5255;0,0546266
849,4897;0,0545253
850,4539;0,0544329
851,4182;0,0543512
852,3824;0,0542846
853,3466;0,0542376
854,3109;0,0542105
855,2751;0,054196
856,2393;0,0541825
857,2036;0,0541607
858,1678;0,0541315
859,1320;0,0541073
860,0963;0,0541072
861,0605;0,0541455
862,0247;0,0542237
862,9890;0,0543296
863,9532;0,0544439
864,9174;0,0545515
865,8817;0,0546496
866,8459;0,0547487
867,8101;0,0548655
868,7744;0,055014
869,7386;0,0551972
870,7028;0,0554054
871,6671;0,0556208
872,6313;0,0558254
873,5955;0,0560086
874,5598;0,0561716
875,5240;0,0563263
876,4882;0,0564893
877,4525;0,0566755
878,4167;0,0568931
879,3809;0,0571442
880,3452;0,057429
881,3094;0,0577513
882,2736;0,0581219
883,2379;0,0585563
884,2021;0,0590687
885,1663;0,0596652
886,1306;0,0603406
887,0948;0,061079
888,0590;0,0618596
889,0233;0,0626612
889,9875;0,0634649
890,9517;0,0642525
891,9160;0,0650043
892,8802;0,0656972
893,8444;0,0663064
894,8087;0,0668084
895,7729;0,0671842
896,7371;0,067421
897,7014;0,0675133
898,6656;0,067463
899,6298;0,0672803
900,5941;0,0669843
901,5583;0,0666023
902,5225;0,0661657
903,4868;0,0657056
904,4510;0,0652484
905,4152;0,0648141
906,3795;0,0644178
907,3437;0,0640711
908,3079;0,0637833
909,2722;0,0635606
910,2364;0,0634045
911,2007;0,0633121
912,1649;0,0632778
913,1292;0,063297
914,0934;0,063368
915,0576;0,0634924
916,0219;0,0636714
916,9861;0,0639028
917,9503;0,0641787
918,9146;0,0644862
919,8788;0,0648102
920,8430;0,065136
921,8073;0,0654515
922,7715;0,0657482
923,7357;0,0660212
924,7000;0,0662688
925,6642;0,0664925
926,6284;0,0666958
927,5927;0,0668829
928,5569;0,0670575
929,5211;0,067222
930,4854;0,0673788
931,4496;0,067533
932,4138;0,0676944
933,3781;0,0678775
934,3423;0,0680978
935,3065;0,0683675
936,2708;0,0686909
937,2350;0,069064
938,1992;0,0694793
939,1635;0,069932
940,1277;0,0704262
941,0919;0,0709755
942,0562;0,0715978
943,0204;0,072307
943,9846;0,0731063
944,9489;0,0739868
945,9131;0,0749318
946,8773;0,0759245
947,8416;0,0769544
948,8058;0,0780185
949,7700;0,0791204
950,7343;0,0802665
951,6985;0,0814646
952,6627;0,0827234
953,6270;0,0840523
954,5912;0,0854596
955,5554;0,0869495
956,5197;0,0885194
957,4839;0,0901588
958,4481;0,0918526
959,4124;0,0935853
960,3766;0,0953442
961,3408;0,097121
962,3051;0,0989107
963,2693;0,100711
964,2335;0,102523
965,1978;0,104352
966,1620;0,106207
967,1262;0,108104
968,0905;0,110056
969,0547;0,112075
970,0189;0,11417
970,9832;0,116353
971,9474;0,118641
972,9116;0,12106
973,8759;0,12364
974,8401;0,126409
975,8043;0,12938
976,7686;0,132545
977,7328;0,135872
978,6970;0,139301
979,6613;0,142751
980,6255;0,146118
981,5897;0,149291
982,5540;0,152165
983,5182;0,154669
984,4824;0,156779
985,4467;0,158527
986,4109;0,159987
987,3751;0,161249
988,3394;0,162393
989,3036;0,163467
990,2678;0,164486
991,2321;0,165443
992,1963;0,166326
993,1605;0,16713
994,1248;0,16786
995,0890;0,168526
996,0532;0,169135
997,0175;0,169686
997,9817;0,170174
998,9459;0,170601
999,9102;0,170983
1000,8744;0,171356
1001,8386;0,171766
1002,8029;0,172261
1003,7671;0,172878
1004,7313;0,173642
1005,6956;0,174567
1006,6598;0,175664
1007,6240;0,176941
1008,5883;0,178398
1009,5525;0,180022
1010,5167;0,181779
1011,4810;0,183615
1012,4452;0,185469
1013,4094;0,187279
1014,3737;0,188995
1015,3379;0,190585
1016,3021;0,192027
1017,2664;0,193314
1018,2306;0,194449
1019,1948;0,195447
1020,1591;0,196332
1021,1233;0,197135
1022,0875;0,197884
1023,0518;0,198598
1024,0160;0,199286
1024,9802;0,199946
1025,9445;0,200568
1026,9087;0,201137
1027,8729;0,201629
1028,8372;0,202006
1029,8014;0,202215
1030,7656;0,202192
1031,7299;0,201867
1032,6941;0,201185
1033,6583;0,200125
1034,6226;0,19871
1035,5868;0,197013
1036,5510;0,19515
1037,5153;0,193258
1038,4795;0,191478
1039,4437;0,189927
1040,4080;0,188684
1041,3722;0,187781
1042,3364;0,187203
1043,3007;0,186895
1044,2649;0,186784
1045,2291;0,186789
1046,1934;0,186839
1047,1576;0,18688
1048,1218;0,186867
1049,0861;0,186763
1050,0503;0,186525
1051,0145;0,186108
1051,9788;0,185474
1052,9430;0,184604
1053,9072;0,183502
1054,8715;0,182184
1055,8357;0,180663
1056,7999;0,178925
1057,7642;0,176934
1058,7284;0,174644
1059,6926;0,17203
1060,6569;0,169119
1061,6211;0,165995
1062,5853;0,162783
1063,5496;0,159619
1064,5138;0,156614
1065,4780;0,153833
1066,4423;0,151301
1067,4065;0,149007
1068,3707;0,146924
1069,3350;0,145012
1070,2992;0,14323
1071,2634;0,141531
1072,2277;0,139865
1073,1919;0,138182
1074,1561;0,136435
1075,1204;0,13459
1076,0846;0,13264
1077,0488;0,130606
1078,0131;0,128539
1078,9773;0,126515
1079,9415;0,12461
1080,9058;0,122885
1081,8700;0,121372
1082,8342;0,120071
1083,7985;0,118961
1084,7627;0,118015
1085,7269;0,117209
1086,6912;0,116527
1087,6554;0,115959
1088,6196;0,115501
1089,5839;0,115151
1090,5481;0,114909
1091,5123;0,114775
1092,4766;0,114748
1093,4408;0,114822
1094,4050;0,114982
1095,3693;0,115211
1096,3335;0,115489
1097,2977;0,115801
1098,2620;0,11613
1099,2262;0,116459
1100,1904;0,116765
1101,1547;0,117019
1102,1189;0,117191
1103,0831;0,117255
1104,0474;0,117199
1105,0116;0,117028
1105,9758;0,116764
1106,9401;0,116434
1107,9043;0,116055
1108,8685;0,115614
1109,8328;0,115067
1110,7970;0,114347
1111,7612;0,113389
1112,7255;0,112163
1113,6897;0,110694
1114,6539;0,109062
1115,6182;0,107381
1116,5824;0,105764
1117,5466;0,10429
1118,5109;0,102983
1119,4751;0,101818
1120,4393;0,10073
1121,4036;0,0996414
1122,3678;0,0984771
1123,3320;0,097181
1124,2963;0,0957223
1125,2605;0,0940983
1126,2247;0,092331
1127,1890;0,0904604
1128,1532;0,0885332
1129,1174;0,0865925
1130,0817;0,0846701
1131,0459;0,0827865
1132,0101;0,0809564
1132,9744;0,0791973
1133,9386;0,0775362
1134,9028;0,0760097
1135,8671;0,074658
1136,8313;0,0735161
1137,7955;0,0726062
1138,7598;0,0719344
1139,7240;0,071493
1140,6882;0,0712635
1141,6525;0,0712208
1142,6167;0,0713352
1143,5809;0,0715751
1144,5452;0,0719103
1145,5094;0,0723152
1146,4736;0,0727728
1147,4379;0,0732753
1148,4021;0,0738214
1149,3663;0,0744116
1150,3306;0,075043
1151,2948;0,0757046
1152,2590;0,0763762
1153,2233;0,0770292
1154,1875;0,0776294
1155,1517;0,0781406
1156,1160;0,0785255
1157,0802;0,0787459
1158,0444;0,0787587
1159,0087;0,0785132
1159,9729;0,077951
1160,9371;0,0770131
1161,9014;0,0756543
1162,8656;0,07386
1163,8298;0,0716592
1164,7941;0,0691267
1165,7583;0,0663729
1166,7225;0,0635244
1167,6868;0,0607029
1168,6510;0,0580073
1169,6152;0,0555057
1170,5795;0,0532356
1171,5437;0,0512098
1172,5079;0,049425
1173,4722;0,0478681
1174,4364;0,0465209
1175,4006;0,0453625
1176,3649;0,0443704
1177,3291;0,0435236
1178,2933;0,0428031
1179,2576;0,0421931
1180,2218;0,0416799
1181,1860;0,0412517
1182,1503;0,0408986
1183,1145;0,0406137
1184,0787;0,0403941
1185,0430;0,0402408
1186,0072;0,0401575
1186,9714;0,0401491
1187,9357;0,0402211
1188,8999;0,0403785
1189,8641;0,0406253
1190,8284;0,0409622
1191,7926;0,041384
1192,7568;0,0418791
1193,7211;0,0424315
1194,6853;0,0430254
1195,6495;0,0436484
1196,6138;0,0442914
1197,5780;0,0449464
1198,5422;0,0456025
1199,5065;0,0462759
1200,4707;0,0468897
1201,4349;0,0474683
1202,3992;0,0480084
1203,3634;0,0485096
1204,3276;0,0489699
1205,2919;0,0493835
1206,2561;0,0497444
1207,2203;0,0500531
1208,1846;0,0503232
1209,1488;0,0505814
1210,1130;0,0508631
1211,0773;0,051202
1212,0415;0,0516216
1213,0057;0,0521303
1213,9700;0,0527224
1214,9342;0,053383
1215,8984;0,0540941
1216,8627;0,0548382
1217,8269;0,0556002
1218,7911;0,0563664
1219,7554;0,0571245
1220,7196;0,0578635
1221,6838;0,0585754
1222,6481;0,0592555
1223,6123;0,0599023
1224,5765;0,060516
1225,5408;0,0610964
1226,5050;0,0616421
1227,4692;0,0621511
1228,4335;0,0626222
1229,3977;0,0630557
1230,3619;0,0634518
1231,3262;0,0638085
1232,2904;0,0641203
1233,2546;0,0643792
1234,2189;0,0645788
1235,1831;0,0647179
1236,1473;0,0648022
1237,1116;0,064843
1238,0758;0,0648532
1239,0400;0,0648433
1240,0043;0,06482
1240,9685;0,0647847
1241,9327;0,0647342
1242,8970;0,0646603
1243,8612;0,0645508
1244,8254;0,0643926
1245,7897;0,0641759
1246,7539;0,0639
1247,7181;0,0635744
1248,6824;0,0632168
1249,6466;0,0628481
1250,6108;0,0624857
1251,5751;0,0621412
1252,5393;0,0618195
1253,5035;0,0615209
1254,4678;0,0612421
1255,4320;0,0609769
1256,3962;0,0607171
1257,3605;0,0604531
1258,3247;0,0601764
1259,2889;0,0598811
1260,2532;0,0595646
1261,2174;0,0592258
1262,1816;0,0588635
1263,1459;0,0584747
1264,1101;0,0580568
1265,0743;0,0576091
1266,0386;0,0571347
1267,0028;0,0566406
1267,9670;0,0561358
1268,9313;0,0556288
1269,8955;0,0551248
1270,8597;0,0546242
1271,8240;0,0541228
1272,7882;0,0536149
1273,7524;0,0530972
1274,7167;0,0525734
1275,6809;0,0520542
1276,6451;0,0515532
1277,6094;0,0510799
1278,5736;0,0506336
1279,5378;0,0502025
1280,5021;0,0497704
1281,4663;0,049326
1282,4305;0,0488702
1283,3948;0,0484157
1284,3590;0,0479813
1285,3232;0,0475835
1286,2875;0,0472324
1287,2517;0,0469315
1288,2159;0,0466807
1289,1802;0,0464787
1290,1444;0,0463247
1291,1086;0,0462181
1292,0729;0,0461593
1293,0371;0,04615
1294,0013;0,0461941
1294,9656;0,0462969
1295,9298;0,0464634
1296,8940;0,0466967
1297,8583;0,0469973
1298,8225;0,0473638
1299,7867;0,0477927
1300,7510;0,0482784
1301,7152;0,0488124
1302,6794;0,0493862
1303,6437;0,0499935
1304,6079;0,0506317
1305,5721;0,0513004
1306,5364;0,0519988
1307,5006;0,0527221
1308,4648;0,0534611
1309,4291;0,0542031
1310,3933;0,0549333
1311,3575;0,0556336
1312,3218;0,0562809
1313,2860;0,0568471
1314,2502;0,0573025
1315,2145;0,0576211
1316,1787;0,0577852
1317,1429;0,0577908
1318,1072;0,057652
1319,0714;0,0574017
1320,0356;0,0570849
1320,9999;0,0567458
1321,9641;0,0564166
1322,9283;0,0561144
1323,8926;0,0558461
1324,8568;0,0556157
1325,8210;0,0554272
1326,7853;0,0552845
1327,7495;0,0551881
1328,7137;0,0551314
1329,6780;0,0551002
1330,6422;0,0550741
1331,6064;0,0550307
1332,5707;0,0549505
1333,5349;0,054819
1334,4991;0,0546248
1335,4634;0,0543548
1336,4276;0,0539927
1337,3918;0,0535273
1338,3561;0,0529683
1339,3203;0,0523575
1340,2845;0,0517556
1341,2488;0,0512116
1342,2130;0,0507433
1343,1772;0,0503445
1344,1415;0,0500015
1345,1057;0,0497071
1346,0699;0,0494653
1347,0342;0,0492903
1347,9984;0,0491983
1348,9626;0,0492
1349,9269;0,0492941
1350,8911;0,0494675
1351,8553;0,0497006
1352,8196;0,0499745
1353,7838;0,0502779
1354,7480;0,0506087
1355,7123;0,0509689
1356,6765;0,0513576
1357,6407;0,0517669
1358,6050;0,0521823
1359,5692;0,0525873
1360,5334;0,052968
1361,4977;0,0533182
1362,4619;0,0536403
1363,4261;0,053941
1364,3904;0,0542256
1365,3546;0,0544974
1366,3188;0,0547562
1367,2831;0,0549961
1368,2473;0,0552035
1369,2115;0,0553565
1370,1758;0,055427
1371,1400;0,0553845
1372,1042;0,0552036
1373,0685;0,0548789
1374,0327;0,0544397
1374,9969;0,0539431
1375,9612;0,0534361
1376,9254;0,0529219
1377,8896;0,0523638
1378,8539;0,0517198
1379,8181;0,0509802
1380,7823;0,0501822
1381,7466;0,0493896
1382,7108;0,0486496
1383,6750;0,0479628
1384,6393;0,0472904
1385,6035;0,0465947
1386,5677;0,0458867
1387,5320;0,0452379
1388,4962;0,0447266
1389,4604;0,0443773
1390,4247;0,0441573
1391,3889;0,0440134
1392,3531;0,0439002
1393,3174;0,0437949
1394,2816;0,0436995
1395,2458;0,0436336
1396,2101;0,0436154
1397,1743;0,0436495
1398,1385;0,0437291
1399,1028;0,0438457
1400,0670;0,0439928
1401,0313;0,0441654
1401,9955;0,0443587
1402,9597;0,0445698
1403,9240;0,0448002
1404,8882;0,0450552
1405,8524;0,0453392
1406,8167;0,0456504
1407,7809;0,0459829
1408,7451;0,0463344
1409,7094;0,0467101
1410,6736;0,0471202
1411,6378;0,047571
1412,6021;0,0480581
1413,5663;0,0485674
1414,5305;0,049081
1415,4948;0,0495811
1416,4590;0,0500491
1417,4232;0,0504691
1418,3875;0,0508337
1419,3517;0,0511385
1420,3159;0,0513714
1421,2802;0,0515154
1422,2444;0,0515588
1423,2086;0,0515014
1424,1729;0,0513562
1425,1371;0,0511435
1426,1013;0,0508733
1427,0656;0,0505297
1428,0298;0,05008
1428,9940;0,0495111
1429,9583;0,0488647
1430,9225;0,0482252
1431,8867;0,0476576
1432,8510;0,0471576
1433,8152;0,0466535
1434,7794;0,0460573
1435,7437;0,0453475
1436,7079;0,0446283
1437,6721;0,0440609
1438,6364;0,0437194
1439,6006;0,0435656
1440,5648;0,0435299
1441,5291;0,0435649
1442,4933;0,0436506
1443,4575;0,0437814
1444,4218;0,0439536
1445,3860;0,0441596
1446,3502;0,0443892
1447,3145;0,0446354
1448,2787;0,0448952
1449,2429;0,0451667
1450,2072;0,0454459
1451,1714;0,0457278
1452,1356;0,0460029
1453,0999;0,0462444
1454,0641;0,046388
1455,0283;0,0463246
1455,9926;0,0459653
1456,9568;0,0454085
1457,9210;0,0449417
1458,8853;0,0447116
1459,8495;0,0446373
1460,8137;0,044595
1461,7780;0,0444835
1462,7422;0,0442055
1463,7064;0,043686
1464,6707;0,0429411
1465,6349;0,0421044
1466,5991;0,0413243
1467,5634;0,0406464
1468,5276;0,0400068
1469,4918;0,0392792
1470,4561;0,0383147
1471,4203;0,0370102
1472,3845;0,0354391
1473,3488;0,0338966
1474,3130;0,0326637
1475,2772;0,0317718
1476,2415;0,0310931
1477,2057;0,0305146
1478,1699;0,0299855
1479,1342;0,0294945
1480,0984;0,0290463
1481,0626;0,0286518
1482,0269;0,0283252
1482,9911;0,0280787
1483,9553;0,027914
1484,9196;0,0278167
1485,8838;0,0277581
1486,8480;0,0277085
1487,8123;0,0276655
1488,7765;0,0276735
1489,7407;0,0277865
1490,7050;0,0280025
1491,6692;0,0282762
1492,6334;0,0285764
1493,5977;0,0289
1494,5619;0,0292595
1495,5261;0,029678
1496,4904;0,0301883
1497,4546;0,0308069
1498,4188;0,0314926
1499,3831;0,0321646
1500,3473;0,0327702
1501,3115;0,0333062
1502,2758;0,033786
1503,2400;0,0342044
1504,2042;0,0345168
1505,1685;0,0346407
1506,1327;0,0345259
1507,0969;0,0342769
1508,0612;0,034062
1509,0254;0,0338957
1509,9896;0,0337239
1510,9539;0,03353
1511,9181;0,033312
1512,8823;0,033056
1513,8466;0,032738
1514,8108;0,0323437
1515,7750;0,0318864
1516,7393;0,0314028
1517,7035;0,0309238
1518,6677;0,0304528
1519,6320;0,029977
1520,5962;0,0295034
1521,5604;0,0290753
1522,5247;0,0287408
1523,4889;0,0285147
1524,4531;0,028381
1525,4174;0,0283196
1526,3816;0,0283196
1527,3458;0,028375
1528,3101;0,0284768
1529,2743;0,0286139
1530,2385;0,0287788
1531,2028;0,0289752
1532,1670;0,0292224
1533,1312;0,0295425
1534,0955;0,029931
1535,0597;0,0303505
1536,0239;0,0307574
1536,9882;0,0311086
1537,9524;0,0313388
1538,9166;0,031356
1539,8809;0,0311329
1540,8451;0,0308483
1541,8093;0,0307337
1542,7736;0,0307795
1543,7378;0,030863
1544,7020;0,0309259
1545,6663;0,0309668
1546,6305;0,0309991
1547,5947;0,0310309
1548,5590;0,0310592
1549,5232;0,0310743
1550,4874;0,0310712
1551,4517;0,0310601
1552,4159;0,0310647
1553,3801;0,0311059
1554,3444;0,0311809
1555,3086;0,0312459
1556,2728;0,0312076
1557,2371;0,0309687
1558,2013;0,0305992
1559,1655;0,0303818
1560,1298;0,0304125
1561,0940;0,0305449
1562,0582;0,0306912
1563,0225;0,0308489
1563,9867;0,0310275
1564,9509;0,0312206
1565,9152;0,0314113
1566,8794;0,0315911
1567,8436;0,0317805
1568,8079;0,0320229
1569,7721;0,0323417
1570,7363;0,0327105
1571,7006;0,0330818
1572,6648;0,0334247
1573,6290;0,0337297
1574,5933;0,0340065
1575,5575;0,0342903
1576,5217;0,0346258
1577,4860;0,0350175
1578,4502;0,0354288
1579,4144;0,035838
1580,3787;0,0362521
1581,3429;0,0366837
1582,3071;0,0371375
1583,2714;0,0376118
1584,2356;0,038107
1585,1998;0,0386282
1586,1641;0,0391797
1587,1283;0,0397559
1588,0925;0,0403366
1589,0568;0,0408901
1590,0210;0,0413839
1590,9852;0,0417926
1591,9495;0,0420994
1592,9137;0,0422941
1593,8779;0,0423751
1594,8422;0,0423535
1595,8064;0,0422527
1596,7706;0,0421009
1597,7349;0,0419209
1598,6991;0,0417269
1599,6633;0,0415279
1600,6276;0,0413339
1601,5918;0,0411585
1602,5560;0,0410148
1603,5203;0,0409084
1604,4845;0,0408327
1605,4487;0,0407717
1606,4130;0,0407109
1607,3772;0,0406493
1608,3414;0,0406072
1609,3057;0,0406176
1610,2699;0,0407017
1611,2341;0,0408523
1612,1984;0,0410373
1613,1626;0,0412142
1614,1268;0,0413465
1615,0911;0,0414315
1616,0553;0,0415245
1617,0195;0,0416993
1617,9838;0,0419647
1618,9480;0,0422681
1619,9122;0,0425616
1620,8765;0,0428262
1621,8407;0,0430639
1622,8049;0,0432896
1623,7692;0,0435208
1624,7334;0,0437636
1625,6976;0,0440134
1626,6619;0,04427
1627,6261;0,0445439
1628,5903;0,0448471
1629,5546;0,0451794
1630,5188;0,0455253
1631,4830;0,0458552
1632,4473;0,046121
1633,4115;0,0462543
1634,3757;0,0462031
1635,3400;0,046022
1636,3042;0,0458861
1637,2684;0,0459073
1638,2327;0,0460442
1639,1969;0,0462198
1640,1611;0,0463961
1641,1254;0,0465631
1642,0896;0,0467092
1643,0538;0,0467993
1644,0181;0,0467695
1644,9823;0,0465667
1645,9465;0,0462417
1646,9108;0,0459787
1647,8750;0,0459283
1648,8392;0,0460679
1649,8035;0,0462536
1650,7677;0,0462771
1651,7319;0,0458883
1652,6962;0,0449957
1653,6604;0,0439877
1654,6246;0,0433524
1655,5889;0,0430798
1656,5531;0,0429465
1657,5173;0,0428131
1658,4816;0,0426071
1659,4458;0,0422702
1660,4100;0,0417594
1661,3743;0,0410964
1662,3385;0,040398
1663,3027;0,0398072
1664,2670;0,0393816
1665,2312;0,0390708
1666,1954;0,0387611
1667,1597;0,0383205
1668,1239;0,0376563
1669,0881;0,0368023
1670,0524;0,0359391
1671,0166;0,0352435
1671,9808;0,0347344
1672,9451;0,034305
1673,9093;0,0338417
1674,8735;0,0333044
1675,8378;0,0327451
1676,8020;0,0322547
1677,7662;0,0318847
1678,7305;0,031622
1679,6947;0,0314065
1680,6589;0,0311393
1681,6232;0,0306864
1682,5874;0,0299407
1683,5516;0,028983
1684,5159;0,0281091
1685,4801;0,0275173
1686,4443;0,0271474
1687,4086;0,0268652
1688,3728;0,0265946
1689,3370;0,0263212
1690,3013;0,0260624
1691,2655;0,0258379
1692,2297;0,025649
1693,1940;0,0254741
1694,1582;0,0252809
1695,1224;0,0250501
1696,0867;0,0247958
1697,0509;0,0245609
1698,0151;0,0243838
1698,9794;0,0242663
1699,9436;0,0241784
1700,9078;0,0240935
1701,8721;0,0240121
1702,8363;0,0239562
1703,8005;0,0239518
1704,7648;0,024019
1705,7290;0,0241671
1706,6932;0,0243909
1707,6575;0,0246703
1708,6217;0,0249815
1709,5859;0,0253099
1710,5502;0,0256504
1711,5144;0,0259972
1712,4786;0,0263354
1713,4429;0,026641
1714,4071;0,0268933
1715,3713;0,0271026
1716,3356;0,027331
1717,2998;0,0276443
1718,2640;0,0280247
1719,2283;0,0283991
1720,1925;0,0287314
1721,1567;0,0290338
1722,1210;0,0293299
1723,0852;0,0296321
1724,0494;0,0299398
1725,0137;0,0302465
1725,9779;0,0305473
1726,9421;0,0308409
1727,9064;0,0311253
1728,8706;0,0313887
1729,8348;0,0316006
1730,7991;0,031707
1731,7633;0,0316479
1732,7275;0,0314105
1733,6918;0,0310794
1734,6560;0,0307786
1735,6202;0,0305539
1736,5845;0,0303643
1737,5487;0,0301452
1738,5129;0,029847
1739,4772;0,0294517
1740,4414;0,0289818
1741,4056;0,0284852
1742,3699;0,0279975
1743,3341;0,0275197
1744,2983;0,0270322
1745,2626;0,0265165
1746,2268;0,025959
1747,1910;0,025342
1748,1553;0,0246471
1749,1195;0,0238829
1750,0837;0,0231092
1751,0480;0,0224073
1752,0122;0,0218187
1752,9764;0,0213262
1753,9407;0,0208806
1754,9049;0,0204344
1755,8691;0,0199657
1756,8334;0,0194845
1757,7976;0,0190167
1758,7618;0,0185771
1759,7261;0,0181581
1760,6903;0,0177457
1761,6545;0,0173447
1762,6188;0,0169814
1763,5830;0,0166804
1764,5472;0,0164415
1765,5115;0,0162405
1766,4757;0,0160442
1767,4399;0,0158247
1768,4042;0,0155672
1769,3684;0,0152727
1770,3326;0,0149606
1771,2969;0,0146715
1772,2611;0,014454
1773,2253;0,0143316
1774,1896;0,0142859
1775,1538;0,0142776
1776,1180;0,014273
1777,0823;0,0142521
1778,0465;0,0142066
1779,0107;0,0141399
1779,9750;0,0140655
1780,9392;0,0139979
1781,9034;0,0139423
1782,8677;0,0138954
1783,8319;0,0138545
1784,7961;0,0138237
1785,7604;0,0138117
1786,7246;0,0138235
1787,6888;0,0138538
1788,6531;0,0138866
1789,6173;0,0138992
1790,5815;0,0138761
1791,5458;0,0138252
1792,5100;0,0137762
1793,4742;0,01375
1794,4385;0,0137415
1795,4027;0,0137347
1796,3669;0,0137185
1797,3312;0,0136888
1798,2954;0,0136474
1799,2596;0,0136025
1800,2239;0,0135663
1801,1881;0,0135469
1802,1523;0,0135439
1803,1166;0,0135524
1804,0808;0,0135691
1805,0450;0,013592
1806,0093;0,0136163
1806,9735;0,013632
1807,9377;0,0136263
1808,9020;0,0135906
1809,8662;0,0135281
1810,8304;0,0134539
1811,7947;0,0133868
1812,7589;0,0133394
1813,7231;0,013314
1814,6874;0,013307
1815,6516;0,0133136
1816,6158;0,0133307
1817,5801;0,0133575
1818,5443;0,0133932
1819,5085;0,0134349
1820,4728;0,0134772
1821,4370;0,0135141
1822,4012;0,0135394
1823,3655;0,0135489
1824,3297;0,0135411
1825,2939;0,0135161
1826,2582;0,0134742
1827,2224;0,0134171
1828,1866;0,0133527
1829,1509;0,013298
1830,1151;0,0132726
1831,0793;0,013284
1832,0436;0,0133219
1833,0078;0,0133681
1833,9720;0,0134088
1834,9363;0,0134376
1835,9005;0,0134555
1836,8647;0,013469
1837,8290;0,0134844
1838,7932;0,0135024
1839,7574;0,013516
1840,7217;0,0135145
1841,6859;0,013489
1842,6501;0,0134433
1843,6144;0,0133993
1844,5786;0,0133831
1845,5428;0,0133979
1846,5071;0,0134206
1847,4713;0,0134269
1848,4355;0,0134078
1849,3998;0,0133684
1850,3640;0,0133208
1851,3282;0,0132768
1852,2925;0,013244
1853,2567;0,0132246
1854,2209;0,0132188
1855,1852;0,013228
1856,1494;0,0132547
1857,1136;0,013298
1858,0779;0,0133498
1859,0421;0,0133951
1860,0063;0,0134178
1860,9706;0,0134098
1861,9348;0,0133765
1862,8990;0,0133329
1863,8633;0,0132958
1864,8275;0,0132761
1865,7917;0,0132769
1866,7560;0,0132963
1867,7202;0,0133311
1868,6844;0,0133736
1869,6487;0,0134068
1870,6129;0,013412
1871,5771;0,0133822
1872,5414;0,0133257
1873,5056;0,01326
1874,4698;0,0132042
1875,4341;0,0131727
1876,3983;0,0131689
1877,3625;0,0131842
1878,3268;0,0132033
1879,2910;0,0132147
1880,2552;0,0132172
1881,2195;0,0132194
1882,1837;0,0132316
1883,1479;0,0132585
1884,1122;0,0132949
1885,0764;0,0133298
1886,0406;0,0133518
1887,0049;0,0133545
1887,9691;0,013339
1888,9333;0,0133129
1889,8976;0,0132873
1890,8618;0,013272
1891,8260;0,0132732
1892,7903;0,0132932
1893,7545;0,0133305
1894,7188;0,0133782
1895,6830;0,0134242
1896,6472;0,0134537
1897,6115;0,0134561
1898,5757;0,0134304
1899,5399;0,0133864
1900,5042;0,0133411
1901,4684;0,0133107
1902,4326;0,0133033
1903,3969;0,0133142
1904,3611;0,0133291
1905,3253;0,0133337
1906,2896;0,0133222
1907,2538;0,0133006
1908,2180;0,0132823
1909,1823;0,0132786
1910,1465;0,0132913
1911,1107;0,0133136
1912,0750;0,013338
1913,0392;0,0133618
1914,0034;0,0133862
1914,9677;0,0134108
1915,9319;0,0134302
1916,8961;0,0134371
1917,8604;0,0134279
1918,8246;0,013407
1919,7888;0,0133819
1920,7531;0,0133562
1921,7173;0,0133244
1922,6815;0,0132752
1923,6458;0,0132017
1924,6100;0,01311
1925,5742;0,013019
1926,5385;0,0129503
1927,5027;0,0129179
1928,4669;0,0129229
1929,4312;0,012957
1930,3954;0,0130089
1931,3596;0,0130698
1932,3239;0,0131349
1933,2881;0,0131986
1934,2523;0,0132503
1935,2166;0,0132746
1936,1808;0,0132596
1937,1450;0,0132052
1938,1093;0,0131275
1939,0735;0,0130532
1940,0377;0,0130103
1941,0020;0,013017
1941,9662;0,0130737
1942,9304;0,0131622
1943,8947;0,0132554
1944,8589;0,0133304
1945,8231;0,0133745
1946,7874;0,0133807
1947,7516;0,0133417
1948,7158;0,01325
1949,6801;0,0131044
1950,6443;0,0129187
1951,6085;0,0127222
1952,5728;0,0125521
1953,5370;0,0124397
1954,5012;0,012398
1955,4655;0,012417
1956,4297;0,0124697
1957,3939;0,0125262
1958,3582;0,0125682
1959,3224;0,0125962
1960,2866;0,0126254
1961,2509;0,0126683
1962,2151;0,012719
1963,1793;0,0127472
1964,1436;0,0127114
1965,1078;0,0125842
1966,0720;0,0123763
1967,0363;0,0121404
1968,0005;0,0119467
1968,9647;0,0118432
1969,9290;0,0118321
1970,8932;0,0118783
1971,8574;0,0119371
1972,8217;0,0119771
1973,7859;0,0119888
1974,7501;0,0119823
1975,7144;0,0119809
1976,6786;0,0120164
1977,6428;0,012122
1978,6071;0,0123157
1979,5713;0,0125835
1980,5355;0,0128763
1981,4998;0,0131269
1982,4640;0,0132776
1983,4282;0,0133034
1984,3925;0,01322
1985,3567;0,0130753
1986,3209;0,0129292
1987,2852;0,0128342
1988,2494;0,0128249
1989,2136;0,0129133
1990,1779;0,0130841
1991,1421;0,0132913
1992,1063;0,0134676
1993,0706;0,0135533
1994,0348;0,0135271
1994,9990;0,0134153
1995,9633;0,0132719
1996,9275;0,0131458
1997,8917;0,013057
1998,8560;0,0129962
1999,8202;0,0129441
2000,7844;0,012894
2001,7487;0,0128592
2002,7129;0,0128607
2003,6771;0,012909
2004,6414;0,0129985
2005,6056;0,0131165
2006,5698;0,0132542
2007,5341;0,0134025
2008,4983;0,0135349
2009,4625;0,0135991
2010,4268;0,0135378
2011,3910;0,0133306
2012,3552;0,0130243
2013,3195;0,0127254
2014,2837;0,0125514
2015,2479;0,0125679
2016,2122;0,0127507
2017,1764;0,0130012
2018,1406;0,0132086
2019,1049;0,0133123
2020,0691;0,0133206
2021,0333;0,0132811
2021,9976;0,013238
2022,9618;0,0132081
2023,9260;0,0131852
2024,8903;0,0131608
2025,8545;0,013139
2026,8187;0,0131352
2027,7830;0,0131613
2028,7472;0,0132148
2029,7114;0,0132821
2030,6757;0,0133534
2031,6399;0,0134377
2032,6041;0,0135615
2033,5684;0,0137496
2034,5326;0,014
2035,4968;0,0142723
2036,4611;0,0145034
2037,4253;0,0146384
2038,3895;0,0146588
2039,3538;0,0145896
2040,3180;0,014483
2041,2822;0,0143897
2042,2465;0,014335
2043,2107;0,014316
2044,1749;0,0143182
2045,1392;0,0143362
2046,1034;0,0143822
2047,0676;0,0144745
2048,0320;0,0146173
2048,9961;0,0147898
2049,9604;0,0149553
2050,9246;0,0150793
2051,8889;0,0151438
2052,8530;0,0151495
2053,8174;0,0151095
2054,7815;0,0150419
2055,7458;0,014963
2056,7100;0,0148846
2057,6743;0,0148133
2058,6384;0,0147529
2059,6028;0,0147069
2060,5669;0,0146809
2061,5313;0,0146817
2062,4954;0,0147142
2063,4597;0,0147765
2064,4238;0,0148564
2065,3882;0,0149342
2066,3523;0,0149896
2067,3167;0,0150108
2068,2808;0,015
2069,2451;0,0149719
2070,2092;0,0149476
2071,1736;0,0149449
2072,1377;0,0149706
2073,1021;0,0150162
2074,0662;0,0150614
2075,0305;0,015084
2075,9946;0,0150719
2076,9590;0,0150312
2077,9231;0,0149838
2078,8875;0,0149547
2079,8516;0,0149555
2080,8159;0,0149761
2081,7800;0,0149894
2082,7444;0,0149687
2083,7085;0,0149069
2084,6729;0,0148227
2085,6370;0,0147517
2086,6013;0,0147257
2087,5654;0,0147541
2088,5298;0,0148196
2089,4939;0,0148891
2090,4583;0,0149332
2091,4224;0,0149405
2092,3867;0,0149187
2093,3508;0,0148847
2094,3152;0,0148519
2095,2793;0,0148238
2096,2437;0,0147981
2097,2078;0,0147755
2098,1721;0,0147652
2099,1362;0,0147805
2100,1006;0,0148288
2101,0647;0,0149036
2102,0291;0,0149838
2102,9932;0,0150447
2103,9575;0,0150708
2104,9216;0,0150643
2105,8860;0,0150431
2106,8501;0,0150297
2107,8145;0,0150394
2108,7786;0,0150729
2109,7429;0,015118
2110,7070;0,0151567
2111,6714;0,0151739
2112,6355;0,0151627
2113,5999;0,0151263
2114,5640;0,015077
2115,5283;0,0150323
2116,4924;0,0150104
2117,4568;0,0150236
2118,4209;0,0150719
2119,3853;0,0151412
2120,3494;0,0152068
2121,3137;0,0152438
2122,2778;0,0152378
2123,2422;0,0151927
2124,2063;0,0151291
2125,1707;0,0150746
2126,1348;0,0150508
2127,0991;0,0150633
2128,0632;0,0150991
2129,0276;0,0151337
2129,9917;0,0151433
2130,9561;0,0151177
2131,9202;0,0150666
2132,8845;0,0150165
2133,8486;0,0149965
2134,8130;0,0150218
2135,7771;0,0150844
2136,7415;0,0151595
2137,7056;0,0152236
2138,6699;0,0152707
2139,6340;0,0153125
2140,5984;0,0153644
2141,5625;0,0154288
2142,5269;0,0154907
2143,4910;0,0155301
2144,4553;0,0155426
2145,4194;0,0155502
2146,3838;0,0155898
2147,3479;0,015687
2148,3123;0,015833
2149,2764;0,0159833
2150,2407;0,0160783
2151,2048;0,0160727
2152,1692;0,0159544
2153,1333;0,0157479
2154,0977;0,0155059
2155,0618;0,0153023
2156,0261;0,0152238
2156,9902;0,0153498
2157,9546;0,0157098
2158,9187;0,0162397
2159,8831;0,0167917
2160,8472;0,0172082
2161,8115;0,0174026
2162,7756;0,0173832
2163,7400;0,017223
2164,7041;0,0170099
2165,6685;0,0168067
2166,6326;0,0166344
2167,5969;0,0164833
2168,5610;0,0163377
2169,5254;0,0161976
2170,4895;0,0160828
2171,4539;0,0160205
2172,4180;0,0160243
2173,3823;0,0160806
2174,3464;0,0161496
2175,3108;0,0161838
2176,2749;0,0161522
2177,2393;0,0160559
2178,2034;0,0159245
2179,1677;0,015798
2180,1318;0,015706
2181,0962;0,0156582
2182,0603;0,0156492
2183,0247;0,0156719
2183,9888;0,0157265
2184,9531;0,0158169
2185,9172;0,0159367
2186,8816;0,0160603
2187,8457;0,0161455
2188,8101;0,016151
2189,7742;0,0160577
2190,7385;0,0158803
2191,7026;0,0156637
2192,6670;0,0154646
2193,6311;0,0153285
2194,5955;0,0152729
2195,5596;0,0152834
2196,5239;0,0153246
2197,4880;0,0153588
2198,4524;0,0153638
2199,4165;0,01534
2200,3809;0,0153044
2201,3450;0,0152752
2202,3093;0,0152607
2203,2734;0,0152588
2204,2378;0,0152668
2205,2019;0,0152926
2206,1663;0,0153548
2207,1304;0,0154694
2208,0947;0,0156317
2209,0588;0,0158078
2210,0232;0,0159433
2210,9873;0,0159864
2211,9517;0,0159115
2212,9158;0,0157311
2213,8801;0,0154914
2214,8442;0,0152569
2215,8086;0,0150912
2216,7727;0,0150415
2217,7371;0,0151246
2218,7012;0,0153197
2219,6655;0,0155685
2220,6296;0,0157898
2221,5940;0,0159071
2222,5581;0,0158786
2223,5225;0,0157148
2224,4866;0,0154733
2225,4509;0,0152326
2226,4150;0,0150588
2227,3794;0,0149817
2228,3435;0,0149958
2229,3079;0,0150733
2230,2720;0,0151836
2231,2363;0,0153056
2232,2004;0,0154285
2233,1648;0,0155462
2234,1289;0,0156505
2235,0933;0,0157298
2236,0574;0,015772
2237,0217;0,0157688
2237,9858;0,0157193
2238,9502;0,0156321
2239,9143;0,0155259
2240,8787;0,0154284
2241,8428;0,0153705
2242,8071;0,0153766
2243,7712;0,0154546
2244,7356;0,0155886
2245,6997;0,0157434
2246,6641;0,0158781
2247,6282;0,0159639
2248,5925;0,0159969
2249,5566;0,0159978
2250,5210;0,0159991
2251,4851;0,0160262
2252,4495;0,016085
2253,4136;0,0161624
2254,3779;0,0162384
2255,3420;0,0163012
2256,3064;0,0163544
2257,2705;0,0164097
2258,2349;0,0164745
2259,1990;0,0165417
2260,1633;0,0165925
2261,1274;0,0166085
2262,0918;0,0165848
2263,0559;0,0165349
2264,0203;0,016484
2264,9844;0,0164563
2265,9487;0,0164655
2266,9128;0,0165113
2267,8772;0,0165824
2268,8413;0,0166616
2269,8057;0,0167291
2270,7698;0,0167675
2271,7341;0,0167673
2272,6982;0,0167319
2273,6626;0,0166767
2274,6267;0,0166216
2275,5911;0,0165793
2276,5552;0,0165485
2277,5195;0,0165165
2278,4836;0,0164714
2279,4480;0,0164131
2280,4121;0,0163579
2281,3765;0,0163324
2282,3406;0,0163627
2283,3049;0,0164641
2284,2690;0,0166373
2285,2334;0,0168698
2286,1975;0,0171403
2287,1619;0,0174252
2288,1260;0,0177059
2289,0903;0,0179736
2290,0544;0,0182293
2291,0188;0,0184785
2291,9829;0,0187237
2292,9473;0,0189598
2293,9114;0,0191766
2294,8757;0,0193649
2295,8398;0,0195221
2296,8042;0,0196499
2297,7683;0,0197471
2298,7327;0,0198032
2299,6968;0,0198014
2300,6611;0,019732
2301,6252;0,0196092
2302,5896;0,0194764
2303,5537;0,0193961
2304,5181;0,0194227
2305,4822;0,0195724
2306,4465;0,019804
2307,4106;0,0200245
2308,3750;0,02012
2309,3391;0,0200016
2310,3035;0,0196436
2311,2676;0,0190984
2312,2319;0,0184753
2313,1960;0,0178938
2314,1604;0,0174347
2315,1245;0,0171152
2316,0889;0,0169008
2317,0530;0,0167422
2318,0173;0,0166124
2318,9814;0,0165246
2319,9458;0,0165246
2320,9099;0,0166641
2321,8743;0,0169713
2322,8384;0,0174265
2323,8027;0,0179525
2324,7668;0,0184266
2325,7312;0,0187218
2326,6953;0,0187599
2327,6597;0,0185458
2328,6238;0,0181655
2329,5881;0,0177534
2330,5522;0,0174448
2331,5166;0,0173296
2332,4807;0,0174206
2333,4451;0,0176548
2334,4092;0,0179369
2335,3735;0,0182013
2336,3376;0,018455
2337,3020;0,0187732
2338,2661;0,0192489
2339,2305;0,0199163
2340,1946;0,0206793
2341,1589;0,0212816
2342,1230;0,0213808
2343,0874;0,0208118
2344,0515;0,0199287
2345,0159;0,0195097
2345,9800;0,0200635
2346,9443;0,021353
2347,9084;0,0226554
2348,8728;0,0233108
2349,8369;0,0230711
2350,8013;0,0221615
2351,7654;0,0211122
2352,7297;0,0204301
2353,6938;0,020296
2354,6582;0,0205548
2355,6223;0,0209827
2356,5867;0,0214599
2357,5508;0,0218975
2358,5151;0,0221516
2359,4792;0,0220907
2360,4436;0,021709
2361,4077;0,0211107
2362,3721;0,0203884
2363,3362;0,0195573
2364,3005;0,0186021
2365,2646;0,0175482
2366,2290;0,0164666
2367,1931;0,0154246
2368,1575;0,0144538
2369,1216;0,0135647
2370,0859;0,0127788
2371,0500;0,0121403
2372,0144;0,0117025
2372,9785;0,0115104
2373,9429;0,0115914
2374,9070;0,0119532
2375,8713;0,012579
2376,8354;0,0134206
2377,7998;0,0143936
2378,7639;0,0153855
2379,7283;0,0162754
2380,6924;0,0169599
2381,6567;0,0173767
2382,6208;0,0175162
2383,5852;0,0174185
2384,5493;0,0171573
2385,5137;0,0168185
2386,4778;0,0164786
2387,4421;0,0161913
2388,4063;0,0159827
2389,3706;0,015855
2390,3347;0,0157946
2391,2991;0,0157811
2392,2632;0,015794
2393,2275;0,0158183
2394,1917;0,0158466
2395,1560;0,0158778
2396,1201;0,0159133
2397,0845;0,0159526
2398,0486;0,0159928
2399,0129;0,0160255
2399,9771;0,016042
2400,9414;0,0160406
2401,9055;0,0160261
2402,8699;0,0160089
2403,8340;0,0159992
2404,7983;0,0160019
2405,7625;0,0160158
2406,7268;0,016036
2407,6909;0,0160596
2408,6553;0,016088
2409,6194;0,0161228
2410,5837;0,0161636
2411,5479;0,0162045
2412,5122;0,0162373
2413,4763;0,0162561
2414,4407;0,016263
2415,4048;0,0162667
2416,3691;0,0162773
2417,3333;0,0162994
2418,2976;0,0163295
2419,2617;0,0163588
2420,2261;0,0163796
2421,1902;0,0163886
2422,1545;0,0163885
2423,1187;0,0163844
2424,0830;0,0163806
2425,0471;0,0163803
2426,0115;0,0163859
2426,9756;0,0164004
2427,9399;0,0164256
2428,9041;0,0164601
2429,8684;0,0164991
2430,8325;0,0165362
2431,7969;0,0165669
2432,7610;0,0165913
2433,7253;0,0166125
2434,6895;0,016634
2435,6538;0,0166572
2436,6179;0,0166809
2437,5823;0,0167029
2438,5464;0,0167212
2439,5107;0,0167349
2440,4749;0,0167432
2441,4392;0,0167459
2442,4033;0,0167445
2443,3677;0,0167432
2444,3318;0,0167475
2445,2961;0,0167617
2446,2603;0,0167852
2447,2246;0,0168119
2448,1887;0,0168338
2449,1531;0,0168451
2450,1172;0,0168463
2451,0815;0,0168436
2452,0457;0,0168458
2453,0100;0,0168592
2453,9741;0,0168846
2454,9385;0,0169178
2455,9026;0,0169517
2456,8669;0,0169793
2457,8311;0,0169961
2458,7954;0,0170005
2459,7595;0,016994
2460,7239;0,0169804
2461,6880;0,0169654
2462,6523;0,0169555
2463,6165;0,0169566
2464,5808;0,0169719
2465,5449;0,0169998
2466,5093;0,0170346
2467,4734;0,0170682
2468,4377;0,0170938
2469,4019;0,0171089
2470,3662;0,0171156
2471,3303;0,0171188
2472,2947;0,0171222
2473,2588;0,0171255
2474,2231;0,0171255
2475,1873;0,0171191
2476,1516;0,0171069
2477,1157;0,0170952
2478,0801;0,017093
2479,0442;0,0171079
2480,0085;0,0171412
2480,9727;0,0171876
2481,9370;0,0172374
2482,9011;0,0172813
2483,8655;0,0173136
2484,8296;0,017333
2485,7939;0,0173411
2486,7581;0,0173403
2487,7224;0,0173339
2488,6865;0,0173261
2489,6509;0,0173228
2490,6150;0,0173297
2491,5793;0,0173495
2492,5435;0,0173795
2493,5078;0,0174121
2494,4719;0,017439
2495,4363;0,0174555
2496,4004;0,0174631
2497,3647;0,0174676
2498,3289;0,0174743
2499,2932;0,0174838
2500,2573;0,0174917
2501,2217;0,0174926
2502,1858;0,0174856
2503,1501;0,0174766
2504,1143;0,0174757
2505,0786;0,0174917
2506,0427;0,0175263
2507,0071;0,017572
2507,9712;0,0176164
2508,9355;0,0176477
2509,8997;0,0176597
2510,8640;0,0176532
2511,8281;0,0176341
2512,7925;0,0176098
2513,7566;0,017588
2514,7209;0,0175753
2515,6851;0,0175768
2516,6494;0,0175952
2517,6135;0,0176288
2518,5779;0,0176716
2519,5420;0,0177141
2520,5063;0,0177473
2521,4705;0,0177649
2522,4348;0,0177657
2523,3989;0,0177529
2524,3633;0,017733
2525,3274;0,0177133
2526,2917;0,0177004
2527,2559;0,017698
2528,2202;0,017706
2529,1843;0,0177199
2530,1487;0,0177332
2531,1128;0,0177404
2532,0771;0,0177395
2533,0413;0,0177328
2534,0056;0,0177244
2534,9697;0,0177179
2535,9341;0,0177149
2536,8982;0,0177158
2537,8625;0,0177216
2538,8267;0,0177338
2539,7910;0,0177539
2540,7551;0,0177813
2541,7195;0,0178127
2542,6836;0,0178435
2543,6479;0,0178693
2544,6121;0,0178873
2545,5764;0,0178968
2546,5405;0,0178983
2547,5049;0,0178932
2548,4690;0,0178848
2549,4333;0,0178773
2550,3975;0,017874
2551,3618;0,0178759
2552,3259;0,0178797
2553,2903;0,0178803
2554,2544;0,0178742
2555,2188;0,0178639
2556,1829;0,0178572
2557,1472;0,0178637
2558,1113;0,0178887
2559,0757;0,0179287
2560,0398;0,0179723
2561,0042;0,0180051
2561,9683;0,0180169
2562,9326;0,0180065
2563,8967;0,0179812
2564,8611;0,0179535
2565,8252;0,0179348
2566,7896;0,0179321
2567,7537;0,0179458
2568,7180;0,0179713
2569,6821;0,0180014
2570,6465;0,0180292
2571,6106;0,01805
2572,5750;0,0180625
2573,5391;0,0180688
2574,5034;0,0180733
2575,4675;0,0180807
2576,4319;0,0180934
2577,3960;0,0181103
2578,3604;0,0181271
2579,3245;0,0181385
2580,2888;0,0181414
2581,2529;0,0181368
2582,2173;0,0181302
2583,1814;0,0181286
2584,1458;0,0181369
2585,1099;0,0181544
2586,0742;0,0181757
2587,0383;0,0181931
2588,0027;0,0182017
2588,9668;0,0182024
2589,9312;0,0182006
2590,8953;0,018203
2591,8596;0,018213
2592,8237;0,0182293
2593,7881;0,0182483
2594,7522;0,0182675
2595,7166;0,0182874
2596,6807;0,01831
2597,6450;0,0183356
2598,6091;0,0183602
2599,5735;0,0183773
2600,5376;0,0183817
2601,5020;0,0183731
2602,4661;0,0183573
2603,4304;0,0183426
2604,3945;0,0183369
2605,3589;0,0183444
2606,3230;0,0183662
2607,2874;0,0184013
2608,2515;0,0184468
2609,2158;0,0184983
2610,1799;0,0185497
2611,1443;0,0185943
2612,1084;0,0186278
2613,0728;0,0186497
2614,0369;0,0186634
2615,0012;0,0186739
2615,9653;0,0186844
2616,9297;0,0186953
2617,8938;0,0187049
2618,8582;0,0187118
2619,8223;0,018717
2620,7866;0,0187242
2621,7507;0,0187372
2622,7151;0,0187581
2623,6792;0,0187854
2624,6436;0,0188148
2625,6077;0,0188412
2626,5720;0,0188622
2627,5361;0,018879
2628,5005;0,018896
2629,4646;0,0189177
2630,4290;0,0189455
2631,3931;0,0189763
2632,3574;0,0190045
2633,3215;0,0190248
2634,2859;0,0190357
2635,2500;0,0190404
2636,2144;0,0190445
2637,1785;0,0190529
2638,1428;0,0190678
2639,1069;0,0190886
2640,0713;0,0191137
2641,0354;0,0191416
2641,9998;0,0191715
2642,9639;0,0192023
2643,9282;0,0192316
2644,8923;0,0192561
2645,8567;0,0192736
2646,8208;0,0192849
2647,7852;0,0192942
2648,7493;0,0193076
2649,7136;0,0193294
2650,6777;0,0193599
2651,6421;0,0193943
2652,6062;0,0194252
2653,5706;0,0194461
2654,5347;0,019455
2655,4990;0,0194558
2656,4631;0,0194563
2657,4275;0,0194643
2658,3916;0,019484
2659,3560;0,0195139
2660,3201;0,019548
2661,2844;0,0195788
2662,2485;0,0196005
2663,2129;0,0196121
2664,1770;0,0196166
2665,1414;0,0196196
2666,1055;0,0196262
2667,0698;0,0196387
2668,0339;0,0196563
2668,9983;0,0196758
2669,9624;0,0196945
2670,9268;0,0197116
2671,8909;0,0197287
2672,8552;0,0197484
2673,8193;0,0197724
2674,7837;0,0197994
2675,7478;0,019826
2676,7122;0,0198484
2677,6763;0,019865
2678,6406;0,0198777
2679,6047;0,0198907
2680,5691;0,0199084
2681,5332;0,0199331
2682,4976;0,0199638
2683,4617;0,0199979
2684,4260;0,0200324
2685,3901;0,0200653
2686,3545;0,0200959
2687,3186;0,0201244
2688,2830;0,0201517
2689,2471;0,0201785
2690,2114;0,0202059
2691,1755;0,0202344
2692,1399;0,0202632
2693,1040;0,02029
2694,0684;0,0203124
2695,0325;0,0203299
2695,9968;0,0203455
2696,9609;0,0203649
2697,9253;0,0203933
2698,8894;0,0204322
2699,8538;0,0204777
2700,8179;0,0205227
2701,7822;0,0205614
2702,7463;0,0205926
2703,7107;0,0206195
2704,6748;0,0206468
2705,6392;0,0206767
2706,6033;0,0207072
2707,5676;0,0207344
2708,5317;0,020756
2709,4961;0,020773
2710,4602;0,0207898
2711,4246;0,0208102
2712,3887;0,0208356
2713,3530;0,0208646
2714,3171;0,0208948
2715,2815;0,0209247
2716,2456;0,0209546
2717,2100;0,0209853
2718,1741;0,0210169
2719,1384;0,0210486
2720,1025;0,0210791
2721,0669;0,0211076
2722,0310;0,0211341
2722,9954;0,0211585
2723,9595;0,0211807
2724,9238;0,0212007
2725,8879;0,0212193
2726,8523;0,0212386
2727,8164;0,0212606
2728,7808;0,0212869
2729,7449;0,0213169
2730,7092;0,0213485
2731,6733;0,0213791
2732,6377;0,0214068
2733,6018;0,021431
2734,5662;0,0214523
2735,5303;0,021472
2736,4946;0,0214911
2737,4587;0,0215103
2738,4231;0,0215295
2739,3872;0,0215484
2740,3516;0,0215668
2741,3157;0,0215851
2742,2800;0,0216039
2743,2441;0,0216239
2744,2085;0,0216456
2745,1726;0,0216684
2746,1370;0,0216917
2747,1011;0,0217151
2748,0654;0,0217394
2749,0295;0,0217655
2749,9939;0,0217942
2750,9580;0,0218255
2751,9224;0,0218584
2752,8865;0,0218912
2753,8508;0,0219224
2754,8149;0,0219511
2755,7793;0,0219773
2756,7434;0,0220018
2757,7078;0,0220263
2758,6719;0,0220526
2759,6362;0,0220815
2760,6003;0,0221122
2761,5647;0,0221427
2762,5288;0,0221705
2763,4932;0,0221953
2764,4573;0,0222196
2765,4216;0,022248
2766,3857;0,0222849
2767,3501;0,0223317
2768,3142;0,022386
2769,2786;0,022442
2770,2427;0,0224934
2771,2070;0,0225358
2772,1711;0,0225688
2773,1355;0,0225957
2774,0996;0,0226223
2775,0640;0,0226541
2776,0281;0,0226949
2776,9924;0,0227441
2777,9565;0,0227981
2778,9209;0,0228512
2779,8850;0,0228992
2780,8494;0,0229412
2781,8135;0,0229802
2782,7778;0,0230214
2783,7419;0,0230693
2784,7063;0,0231251
2785,6704;0,0231862
2786,6348;0,0232474
2787,5989;0,023304
2788,5632;0,0233538
2789,5273;0,0233986
2790,4917;0,0234436
2791,4558;0,0234945
2792,4202;0,0235554
2793,3843;0,0236261
2794,3486;0,0237029
2795,3127;0,0237799
2796,2771;0,0238526
2797,2412;0,0239198
2798,2056;0,0239844
2799,1697;0,0240512
2800,1340;0,0241244
2801,0981;0,0242054
2802,0625;0,0242928
2803,0266;0,0243835
2803,9910;0,0244748
2804,9551;0,0245647
2805,9194;0,0246522
2806,8835;0,0247369
2807,8479;0,0248198
2808,8120;0,024903
2809,7764;0,0249903
2810,7405;0,0250855
2811,7048;0,0251905
2812,6689;0,0253051
2813,6333;0,0254264
2814,5974;0,0255516
2815,5618;0,0256786
2816,5259;0,0258067
2817,4902;0,0259358
2818,4543;0,0260655
2819,4187;0,0261951
2820,3828;0,0263246
2821,3472;0,0264555
2822,3113;0,0265905
2823,2756;0,0267329
2824,2397;0,0268851
2825,2041;0,0270485
2826,1682;0,0272236
2827,1326;0,0274108
2828,0967;0,0276101
2829,0610;0,0278213
2830,0251;0,0280425
2830,9895;0,0282714
2831,9536;0,0285052
2832,9180;0,0287421
2833,8821;0,0289819
2834,8464;0,029226
2835,8105;0,0294778
2836,7749;0,0297418
2837,7390;0,0300249
2838,7034;0,030335
2839,6675;0,0306814
2840,6318;0,0310726
2841,5959;0,0315144
2842,5603;0,0320077
2843,5244;0,0325465
2844,4888;0,0331162
2845,4529;0,0336943
2846,4172;0,0342517
2847,3813;0,0347568
2848,3457;0,0351808
2849,3098;0,0355036
2850,2742;0,0357171
2851,2383;0,0358272
2852,2026;0,0358506
2853,1667;0,0358097
2854,1311;0,0357275
2855,0952;0,0356236
2856,0596;0,0355125
2857,0237;0,0354055
2857,9880;0,0353123
2858,9521;0,0352415
2859,9165;0,0351999
2860,8806;0,0351907
2861,8450;0,0352135
2862,8091;0,0352658
2863,7734;0,0353447
2864,7375;0,035449
2865,7019;0,0355772
2866,6660;0,0357251
2867,6304;0,0358837
2868,5945;0,03604
2869,5588;0,0361806
2870,5229;0,0362969
2871,4873;0,0363876
2872,4514;0,0364582
2873,4158;0,0365178
2874,3799;0,0365744
2875,3442;0,036633
2876,3083;0,0366949
2877,2727;0,0367599
2878,2368;0,0368282
2879,2012;0,0369005
2880,1653;0,0369783
2881,1296;0,0370628
2882,0938;0,0371546
2883,0581;0,0372533
2884,0222;0,0373586
2884,9866;0,0374707
2885,9507;0,0375899
2886,9150;0,0377163
2887,8792;0,0378488
2888,8435;0,0379846
2889,8076;0,0381193
2890,7720;0,0382485
2891,7361;0,0383692
2892,7004;0,0384813
2893,6646;0,038588
2894,6289;0,0386938
2895,5930;0,0388034
2896,5574;0,0389192
2897,5215;0,0390402
2898,4858;0,0391621
2899,4500;0,039279
2900,4143;0,0393855
2901,3784;0,0394797
2902,3428;0,0395645
2903,3069;0,0396474
2904,2712;0,0397383
2905,2354;0,0398464
2906,1997;0,0399772
2907,1638;0,0401335
2908,1282;0,040317
2909,0923;0,0405303
2910,0566;0,0407769
2911,0208;0,0410574
2911,9851;0,0413651
2912,9492;0,0416835
2913,9136;0,0419879
2914,8777;0,0422511
2915,8420;0,0424508
2916,8062;0,0425743
2917,7705;0,0426197
2918,7346;0,042593
2919,6990;0,0425042
2920,6631;0,0423642
2921,6274;0,0421837
2922,5916;0,0419727
2923,5559;0,04174
2924,5200;0,0414918
2925,4844;0,0412313
2926,4485;0,0409579
2927,4128;0,0406692
2928,3770;0,0403634
2929,3413;0,0400415
2930,3054;0,0397085
2931,2698;0,0393722
2932,2339;0,0390409
2933,1982;0,0387204
2934,1624;0,0384124
2935,1267;0,0381147
2936,0908;0,0378233
2937,0552;0,0375344
2938,0193;0,0372459
2938,9836;0,036957
2939,9478;0,0366667
2940,9121;0,0363736
2941,8762;0,0360761
2942,8406;0,0357746
2943,8047;0,035473
2944,7690;0,0351785
2945,7332;0,0348992
2946,6975;0,0346412
2947,6616;0,0344061
2948,6260;0,0341921
2949,5901;0,0339961
2950,5544;0,0338156
2951,5186;0,0336501
2952,4829;0,0334982
2953,4470;0,0333564
2954,4114;0,0332177
2955,3755;0,0330738
2956,3398;0,0329186
2957,3040;0,0327508
2958,2683;0,0325739
2959,2324;0,0323932
2960,1968;0,0322127
2961,1609;0,0320326
2962,1252;0,0318498
2963,0894;0,0316603
2964,0537;0,0314616
2965,0178;0,0312538
2965,9822;0,031039
2966,9463;0,0308199
2967,9106;0,0305983
2968,8748;0,0303745
2969,8391;0,0301491
2970,8032;0,0299231
2971,7676;0,0296998
2972,7317;0,0294836
2973,6960;0,029279
2974,6602;0,0290879
2975,6245;0,0289093
2976,5886;0,0287403
2977,5530;0,028578
2978,5171;0,0284222
2979,4814;0,0282755
2980,4456;0,0281413
2981,4099;0,0280211
2982,3740;0,0279127
2983,3384;0,0278122
2984,3025;0,0277161
2985,2668;0,0276243
2986,2310;0,0275397
2987,1953;0,027466
2988,1594;0,027405
2989,1238;0,0273564
2990,0879;0,0273189
2991,0522;0,0272923
2992,0164;0,027277
2992,9807;0,0272726
2993,9448;0,0272758
2994,9092;0,0272806
2995,8733;0,0272818
2996,8376;0,0272787
2997,8018;0,027276
2998,7661;0,0272819
2999,7302;0,0273022
3000,6946;0,0273374
3001,6587;0,027382
3002,6230;0,0274292
3003,5872;0,0274746
3004,5515;0,0275183
3005,5156;0,0275626
3006,4800;0,0276088
3007,4441;0,0276542
3008,4084;0,0276937
3009,3726;0,0277233
3010,3369;0,0277428
3011,3010;0,0277562
3012,2654;0,0277693
3013,2295;0,0277862
3014,1938;0,0278083
3015,1580;0,0278355
3016,1223;0,0278688
3017,0864;0,0279105
3018,0508;0,0279631
3019,0149;0,0280266
3019,9792;0,0280977
3020,9434;0,0281714
3021,9077;0,028244
3022,8718;0,0283151
3023,8362;0,0283874
3024,8003;0,0284633
3025,7646;0,028543
3026,7288;0,0286235
3027,6931;0,0287011
3028,6572;0,0287737
3029,6216;0,0288423
3030,5857;0,0289105
3031,5500;0,0289824
3032,5142;0,029061
3033,4785;0,0291481
3034,4426;0,0292439
3035,4070;0,0293477
3036,3711;0,0294572
3037,3354;0,0295687
3038,2996;0,0296772
3039,2639;0,0297782
3040,2280;0,0298694
3041,1924;0,0299516
3042,1565;0,0300286
3043,1208;0,0301056
3044,0850;0,0301875
3045,0493;0,0302776
3046,0134;0,0303772
3046,9778;0,0304856
3047,9419;0,030601
3048,9063;0,0307211
3049,8704;0,0308431
3050,8347;0,0309638
3051,7988;0,0310801
3052,7632;0,0311891
3053,7273;0,0312896
3054,6917;0,0313837
3055,6558;0,0314768
3056,6201;0,031576
3057,5842;0,0316865
3058,5486;0,031809
3059,5127;0,0319391
3060,4771;0,0320694
3061,4412;0,0321934
3062,4055;0,0323084
3063,3696;0,0324166
3064,3340;0,0325222
3065,2981;0,0326288
3066,2625;0,0327372
3067,2266;0,0328458
3068,1909;0,032953
3069,1550;0,03306
3070,1194;0,0331702
3071,0835;0,0332872
3072,0479;0,0334111
3073,0120;0,0335373
3073,9763;0,0336581
3074,9404;0,0337672
3075,9048;0,0338637
3076,8689;0,0339533
3077,8333;0,0340449
3078,7974;0,034146
3079,7617;0,0342583
3080,7258;0,0343779
3081,6902;0,0344979
3082,6543;0,0346136
3083,6187;0,0347233
3084,5828;0,0348284
3085,5471;0,0349304
3086,5112;0,0350297
3087,4756;0,0351266
3088,4397;0,035223
3089,4041;0,0353229
3090,3682;0,035431
3091,3325;0,0355495
3092,2966;0,0356767
3093,2610;0,035807
3094,2251;0,0359335
3095,1895;0,0360518
3096,1536;0,0361607
3097,1179;0,0362626
3098,0820;0,036361
3099,0464;0,0364601
3100,0105;0,0365638
3100,9749;0,0366759
3101,9390;0,0367987
3102,9033;0,0369312
3103,8674;0,0370687
3104,8318;0,0372044
3105,7959;0,0373327
3106,7603;0,037453
3107,7244;0,03757
3108,6887;0,0376914
3109,6528;0,0378232
3110,6172;0,0379657
3111,5813;0,038114
3112,5457;0,0382608
3113,5098;0,0384004
3114,4741;0,0385305
3115,4382;0,0386518
3116,4026;0,0387661
3117,3667;0,038875
3118,3311;0,0389801
3119,2952;0,0390849
3120,2595;0,0391945
3121,2236;0,0393146
3122,1880;0,0394491
3123,1521;0,0395976
3124,1165;0,0397558
3125,0806;0,0399171
3126,0449;0,0400748
3127,0090;0,0402244
3127,9734;0,0403644
3128,9375;0,0404964
3129,9019;0,0406249
3130,8660;0,0407558
3131,8303;0,0408946
3132,7944;0,0410442
3133,7588;0,0412033
3134,7229;0,0413674
3135,6873;0,0415299
3136,6514;0,0416859
3137,6157;0,0418332
3138,5798;0,0419731
3139,5442;0,0421091
3140,5083;0,0422455
3141,4727;0,0423857
3142,4368;0,0425319
3143,4011;0,0426853
3144,3652;0,0428467
3145,3296;0,0430161
3146,2937;0,0431925
3147,2581;0,0433734
3148,2222;0,0435539
3149,1865;0,0437284
3150,1506;0,043892
3151,1150;0,0440435
3152,0791;0,044186
3153,0435;0,0443264
3154,0076;0,0444717
3154,9719;0,0446265
3155,9360;0,0447903
3156,9004;0,0449594
3157,8645;0,0451292
3158,8289;0,045297
3159,7930;0,0454633
3160,7573;0,0456308
3161,7214;0,0458013
3162,6858;0,0459745
3163,6499;0,0461472
3164,6143;0,046315
3165,5784;0,0464748
3166,5427;0,0466268
3167,5068;0,0467751
3168,4712;0,0469264
3169,4353;0,0471206
3170,3997;0,0472953
3171,3638;0,0474819
3172,3281;0,0476747
3173,2922;0,047865
3174,2566;0,0480456
3175,2207;0,048214
3176,1851;0,0483732
3177,1492;0,0485305
3178,1135;0,0486934
3179,0776;0,0488649
3180,0420;0,0490425
3181,0061;0,0492192
3181,9705;0,0493883
3182,9346;0,0495471
3183,8989;0,0496984
3184,8630;0,0498489
3185,8274;0,0500054
3186,7915;0,0501713
3187,7559;0,0503454
3188,7200;0,0505233
3189,6843;0,0506993
3190,6484;0,0508686
3191,6128;0,0510279
3192,5769;0,0511763
3193,5413;0,0513165
3194,5054;0,0514541
3195,4697;0,051597
3196,4338;0,0517517
3197,3982;0,0519196
3198,3623;0,0520955
3199,3267;0,0522703
3200,2908;0,052436
3201,2551;0,0525903
3202,2192;0,0527372
3203,1836;0,052884
3204,1477;0,0530365
3205,1121;0,0531955
3206,0762;0,0533574
3207,0405;0,0535166
3208,0046;0,0536691
3208,9690;0,0538142
3209,9331;0,0539551
3210,8975;0,0540975
3211,8616;0,0542478
3212,8259;0,0544108
3213,7900;0,0545864
3214,7544;0,0547684
3215,7185;0,054946
3216,6829;0,0551078
3217,6470;0,0552479
3218,6113;0,0553694
3219,5754;0,0554832
3220,5398;0,0556025
3221,5039;0,055736
3222,4683;0,0558842
3223,4324;0,0560416
3224,3967;0,0562014
3225,3608;0,0563597
3226,3252;0,0565168
3227,2893;0,0566747
3228,2537;0,056834
3229,2178;0,0569926
3230,1821;0,0571471
3231,1462;0,0572959
3232,1106;0,0574402
3233,0747;0,0575839
3234,0391;0,0577306
3235,0032;0,0578831
3235,9675;0,0580421
3236,9316;0,058208
3237,8960;0,0583813
3238,8601;0,058561
3239,8245;0,0587435
3240,7886;0,058922
3241,7529;0,0590887
3242,7170;0,0592387
3243,6814;0,059374
3244,6455;0,0595043
3245,6099;0,0596435
3246,5740;0,0598032
3247,5383;0,0599879
3248,5024;0,0601933
3249,4668;0,060409
3250,4309;0,0606228
3251,3953;0,0608251
3252,3594;0,0610108
3253,3237;0,0611806
3254,2878;0,06134
3255,2522;0,0614973
3256,2163;0,0616612
3257,1807;0,061837
3258,1448;0,0620249
3259,1091;0,0622201
3260,0732;0,0624148
3261,0376;0,062603
3262,0017;0,0627835
3262,9661;0,0629601
3263,9302;0,0631392
3264,8945;0,0633248
3265,8586;0,0635157
3266,8230;0,0637048
3267,7871;0,0638814
3268,7515;0,064035
3269,7156;0,0641594
3270,6799;0,0642544
3271,6440;0,0643258
3272,6084;0,064384
3273,5725;0,0644407
3274,5369;0,0645062
3275,5010;0,0645864
3276,4653;0,0646817
3277,4294;0,0647868
3278,3938;0,0648922
3279,3579;0,064986
3280,3223;0,0650576
3281,2864;0,0651012
3282,2507;0,0651193
3283,2148;0,0651231
3284,1792;0,065129
3285,1433;0,0651512
3286,1077;0,0651948
3287,0718;0,0652531
3288,0361;0,0653113
3289,0002;0,0653541
3289,9646;0,0653734
3290,9287;0,0653711
3291,8931;0,0653566
3292,8572;0,0653401
3293,8215;0,0653281
3294,7856;0,0653222
3295,7500;0,0653206
3296,7141;0,0653216
3297,6785;0,0653238
3298,6426;0,0653268
3299,6069;0,0653304
3300,5710;0,0653343
3301,5354;0,0653377
3302,4995;0,0653383
3303,4639;0,0653317
3304,4280;0,0653113
3305,3923;0,0652721
3306,3564;0,0652144
3307,3208;0,0651468
3308,2849;0,0650845
3309,2493;0,0650422
3310,2134;0,0650274
3311,1777;0,0650369
3312,1418;0,0650597
3313,1062;0,0650843
3314,0703;0,0651052
3315,0347;0,0651255
3315,9988;0,0651539
3316,9631;0,0651987
3317,9272;0,065263
3318,8916;0,0653435
3319,8557;0,0654325
3320,8201;0,0655218
3321,7842;0,0656062
3322,7485;0,0656844
3323,7126;0,0657582
3324,6770;0,0658309
3325,6411;0,0659052
3326,6055;0,0659827
3327,5696;0,0660632
3328,5339;0,0661445
3329,4980;0,066223
3330,4624;0,0662944
3331,4265;0,0663542
3332,3909;0,0663986
3333,3550;0,0664255
3334,3193;0,0664335
3335,2834;0,0664214
3336,2478;0,0663879
3337,2119;0,0663319
3338,1763;0,0662543
3339,1404;0,0661589
3340,1047;0,0660522
3341,0688;0,0659408
3342,0332;0,0658297
3342,9973;0,0657199
3343,9617;0,0656087
3344,9258;0,065492
3345,8901;0,0653663
3346,8542;0,06523
3347,8186;0,0650833
3348,7827;0,064927
3349,7471;0,0647625
3350,7112;0,0645918
3351,6755;0,0644183
3352,6396;0,0642471
3353,6040;0,0640832
3354,5681;0,0639297
3355,5325;0,0637863
3356,4966;0,0636499
3357,4609;0,0635165
3358,4250;0,0633839
3359,3894;0,0632523
3360,3535;0,0631229
3361,3179;0,0629964
3362,2820;0,062871
3363,2463;0,0627434
3364,2104;0,0626107
3365,1748;0,0624723
3366,1389;0,0623302
3367,1033;0,0621872
3368,0674;0,0620444
3369,0317;0,0619006
3369,9958;0,0617538
3370,9602;0,061603
3371,9243;0,0614498
3372,8887;0,0612981
3373,8528;0,0611515
3374,8171;0,0610112
3375,7813;0,060875
3376,7456;0,0607381
3377,7097;0,0605962
3378,6741;0,060447
3379,6382;0,0602915
3380,6025;0,0601339
3381,5667;0,0599802
3382,5310;0,0598364
3383,4951;0,0597066
3384,4595;0,0595913
3385,4236;0,0594876
3386,3879;0,05939
3387,3521;0,0592931
3388,3164;0,0591933
3389,2805;0,0590887
3390,2449;0,0589782
3391,2090;0,0588607
3392,1733;0,0587348
3393,1375;0,058601
3394,1018;0,0584624
3395,0659;0,0583251
3396,0303;0,0581953
3396,9944;0,058076
3397,9587;0,0579642
3398,9229;0,057852
3399,8872;0,0577297
3400,8513;0,05759
3401,8157;0,0574309
3402,7798;0,0572562
3403,7441;0,057073
3404,7083;0,056889
3405,6726;0,0567104
3406,6367;0,0565402
3407,6011;0,0563783
3408,5652;0,0562216
3409,5295;0,0560652
3410,4937;0,0559041
3411,4580;0,0557355
3412,4221;0,0555606
3413,3865;0,0553834
3414,3506;0,0552076
3415,3149;0,0550334
3416,2791;0,054855
3417,2434;0,0546638
3418,2075;0,0544534
3419,1719;0,0542256
3420,1360;0,0539917
3421,1003;0,0537677
3422,0645;0,0535659
3423,0288;0,0533885
3423,9929;0,0532267
3424,9573;0,0530668
3425,9214;0,0528971
3426,8857;0,0527132
3427,8499;0,0525184
3428,8142;0,0523204
3429,7783;0,0521259
3430,7427;0,0519369
3431,7068;0,0517511
3432,6711;0,0515639
3433,6353;0,0513722
3434,5996;0,0511752
3435,5637;0,0509741
3436,5281;0,05077
3437,4922;0,0505635
3438,4565;0,0503554
3439,4207;0,050148
3440,3850;0,049944
3441,3491;0,0497443
3442,3135;0,0495452
3443,2776;0,0493383
3444,2419;0,0491154
3445,2061;0,0488748
3446,1704;0,0486246
3447,1345;0,0483803
3448,0989;0,0481551
3449,0630;0,0479524
3450,0273;0,0477646
3450,9915;0,0475795
3451,9558;0,0473878
3452,9199;0,0471876
3453,8843;0,0469833
3454,8484;0,0467807
3455,8127;0,0465819
3456,7769;0,0463838
3457,7412;0,0461816
3458,7053;0,0459728
3459,6697;0,0457597
3460,6338;0,0455483
3461,5981;0,0453437
3462,5623;0,0451463
3463,5266;0,044951
3464,4907;0,0447499
3465,4551;0,0445367
3466,4192;0,0443106
3467,3835;0,044076
3468,3477;0,0438393
3469,3120;0,043605
3470,2761;0,0433738
3471,2405;0,0431445
3472,2046;0,042918
3473,1689;0,0427
3474,1331;0,0424989
3475,0974;0,0423192
3476,0615;0,0421551
3477,0259;0,0419902
3477,9900;0,0418052
3478,9543;0,0415888
3479,9185;0,041346
3480,8828;0,0410969
3481,8469;0,0408646
3482,8113;0,0406596
3483,7754;0,0404735
3484,7397;0,0402858
3485,7039;0,0400786
3486,6682;0,0398487
3487,6323;0,0396095
3488,5967;0,0393818
3489,5608;0,03918
3490,5251;0,0390032
3491,4893;0,0388371
3492,4536;0,0386641
3493,4177;0,0384747
3494,3821;0,0382724
3495,3462;0,038072
3496,3105;0,0378889
3497,2747;0,0377288
3498,2390;0,0375826
3499,2031;0,0374301
3500,1675;0,0372501
3501,1316;0,0370316
3502,0959;0,0367823
3503,0601;0,036526
3504,0244;0,0362883
3504,9885;0,0360808
3505,9529;0,0358972
3506,9170;0,0357191
3507,8813;0,0355277
3508,8455;0,0353138
3509,8098;0,0350823
3510,7739;0,0348478
3511,7383;0,0346247
3512,7024;0,0344207
3513,6667;0,0342351
3514,6309;0,0340632
3515,5952;0,0338994
3516,5593;0,03374
3517,5237;0,0335827
3518,4878;0,0334266
3519,4521;0,0332712
3520,4163;0,0331165
3521,3806;0,0329629
3522,3447;0,0328098
3523,3091;0,0326535
3524,2732;0,0324858
3525,2375;0,0322966
3526,2017;0,0320791
3527,1660;0,0318358
3528,1301;0,0315797
3529,0945;0,0313299
3530,0586;0,0311024
3531,0229;0,0309035
3531,9871;0,0307285
3532,9514;0,0305665
3533,9155;0,0304057
3534,8799;0,0302392
3535,8440;0,0300676
3536,8083;0,0298982
3537,7725;0,0297409
3538,7368;0,0296036
3539,7009;0,0294877
3540,6653;0,029387
3541,6294;0,0292861
3542,5938;0,0291649
3543,5579;0,0290059
3544,5222;0,0288048
3545,4863;0,0285748
3546,4507;0,0283373
3547,4148;0,0281078
3548,3792;0,0278883
3549,3433;0,0276716
3550,3076;0,0274504
3551,2717;0,0272265
3552,2361;0,0270129
3553,2002;0,0268272
3554,1646;0,0266789
3555,1287;0,026563
3556,0930;0,0264641
3557,0571;0,0263644
3558,0215;0,0262536
3558,9856;0,0261343
3559,9500;0,0260211
3560,9141;0,0259313
3561,8784;0,0258704
3562,8425;0,0258227
3563,8069;0,0257503
3564,7710;0,0256065
3565,7354;0,0253679
3566,6995;0,0250642
3567,6638;0,0247624
3568,6279;0,0245114
3569,5923;0,0243167
3570,5564;0,0241582
3571,5208;0,0240109
3572,4849;0,0238568
3573,4492;0,0236919
3574,4133;0,0235283
3575,3777;0,023387
3576,3418;0,0232849
3577,3062;0,0232255
3578,2703;0,0232014
3579,2346;0,023203
3580,1987;0,0232246
3581,1631;0,0232642
3582,1272;0,023318
3583,0916;0,0233735
3584,0557;0,0234085
3585,0200;0,0234004
3585,9841;0,0233486
3586,9485;0,0232892
3587,9126;0,0232717
3588,8770;0,0233159
3589,8411;0,0234044
3590,8054;0,0235036
3591,7695;0,0235763
3592,7339;0,0235875
3593,6980;0,0235179
3594,6624;0,023379
3595,6265;0,0232089
3596,5908;0,0230448
3597,5549;0,0228983
3598,5193;0,0227544
3599,4834;0,0225909
3600,4478;0,0224006
3601,4119;0,022198
3602,3762;0,0220043
3603,3403;0,0218247
3604,3047;0,0216349
3605,2688;0,0213842
3606,2332;0,0210186
3607,1973;0,0205164
3608,1616;0,0199148
3609,1257;0,0192986
3610,0901;0,0187584
3611,0542;0,0183588
3612,0186;0,0181295
3612,9827;0,0180638
3613,9470;0,0181214
3614,9111;0,0182408
3615,8755;0,0183658
3616,8396;0,0184734
3617,8040;0,0185887
3618,7681;0,018769
3619,7324;0,0190496
3620,6965;0,0194017
3621,6609;0,0197569
3622,6250;0,0200608
3623,5894;0,020289
3624,5535;0,0204264
3625,5178;0,0204427
3626,4819;0,0202936
3627,4463;0,0199625
3628,4104;0,0195121
3629,3748;0,0190504
3630,3389;0,0186292
3631,3032;0,0182293
3632,2673;0,0178161
3633,2317;0,0173716
3634,1958;0,0168991
3635,1602;0,01642
3636,1243;0,0159637
3637,0886;0,0155517
3638,0527;0,015189
3639,0171;0,0148684
3639,9812;0,0145833
3640,9456;0,0143358
3641,9097;0,0141346
3642,8740;0,0139844
3643,8381;0,0138757
3644,8025;0,013776
3645,7666;0,0136278
3646,7310;0,013368
3647,6951;0,0129912
3648,6594;0,0126071
3649,6235;0,0123444
3650,5879;0,0122033
3651,5520;0,0121089
3652,5164;0,012012
3653,4805;0,0118952
3654,4448;0,0117528
3655,4089;0,0115915
3656,3733;0,0114343
3657,3374;0,0113081
3658,3018;0,0112246
3659,2659;0,011178
3660,2302;0,0111562
3661,1943;0,0111506
3662,1587;0,0111588
3663,1228;0,0111828
3664,0872;0,0112253
3665,0513;0,0112824
3666,0156;0,0113411
3666,9797;0,0113812
3667,9441;0,0113901
3668,9082;0,01138
3669,8726;0,0113801
3670,8367;0,0114041
3671,8010;0,0114398
3672,7651;0,0114655
3673,7295;0,0114673
3674,6936;0,0114538
3675,6580;0,0114537
3676,6221;0,0114815
3677,5864;0,0115239
3678,5505;0,0115716
3679,5149;0,0116352
3680,4790;0,0117317
3681,4434;0,0118689
3682,4075;0,0120401
3683,3718;0,0122261
3684,3359;0,0124017
3685,3003;0,0125432
3686,2644;0,0126404
3687,2288;0,0127177
3688,1929;0,0128477
3689,1572;0,0131055
3690,1213;0,0134785
3691,0857;0,0138712
3692,0498;0,014207
3693,0142;0,0144723
3693,9783;0,0146882
3694,9426;0,0148746
3695,9067;0,015036
3696,8711;0,0151642
3697,8352;0,0152495
3698,7996;0,0152949
3699,7637;0,0153228
3700,7280;0,0153682
3701,6921;0,0154538
3702,6565;0,0155684
3703,6206;0,0156745
3704,5850;0,015738
3705,5491;0,0157418
3706,5134;0,0156727
3707,4775;0,0154986
3708,4419;0,0151579
3709,4060;0,0145905
3710,3704;0,0138204
3711,3345;0,0130088
3712,2988;0,0123645
3713,2629;0,0120058
3714,2273;0,0119438
3715,1914;0,012142
3716,1558;0,0125545
3717,1199;0,0131328
3718,0842;0,013821
3719,0483;0,0145565
3720,0127;0,0152801
3720,9768;0,0159515
3721,9412;0,0165558
3722,9053;0,017091
3723,8696;0,0175471
3724,8337;0,0178964
3725,7981;0,0181057
3726,7622;0,0181599
3727,7266;0,018072
3728,6907;0,0178722
3729,6550;0,0175925
3730,6191;0,017257
3731,5835;0,016882
3732,5476;0,016477
3733,5120;0,0160442
3734,4761;0,0155778
3735,4404;0,0150746
3736,4045;0,0145528
3737,3689;0,0140557
3738,3330;0,0136289
3739,2974;0,0132947
3740,2615;0,0130377
3741,2258;0,0128033
3742,1899;0,0125162
3743,1543;0,012129
3744,1184;0,0116793
3745,0828;0,0112645
3746,0469;0,0109445
3747,0112;0,010704
3747,9753;0,0104913
3748,9397;0,0102656
3749,9038;0,0100379
3750,8682;0,00987108
3751,8323;0,00980301
3752,7966;0,00980059
3753,7607;0,00981435
3754,7251;0,0098202
3755,6892;0,00981037
3756,6536;0,00978178
3757,6177;0,00973933
3758,5820;0,00969966
3759,5461;0,00968118
3760,5105;0,00969108
3761,4746;0,00972496
3762,4390;0,00977333
3763,4031;0,00982433
3764,3674;0,00986387
3765,3315;0,00987765
3766,2959;0,00985621
3767,2600;0,00980096
3768,2244;0,00972752
3769,1885;0,00966186
3770,1528;0,00962763
3771,1169;0,00963248
3772,0813;0,00966577
3773,0454;0,009709
3774,0098;0,00974631
3774,9739;0,00976782
3775,9382;0,00976976
3776,9023;0,00975678
3777,8667;0,00974321
3778,8308;0,00974499
3779,7952;0,00976589
3780,7593;0,00979487
3781,7236;0,00981709
3782,6877;0,00982396
3783,6521;0,00981486
3784,6162;0,00979441
3785,5806;0,00976915
3786,5447;0,00974543
3787,5090;0,00972861
3788,4731;0,009723
3789,4375;0,00973089
3790,4016;0,00975089
3791,3660;0,00977731
3792,3301;0,0098024
3793,2944;0,00982145
3794,2585;0,0098376
3795,2229;0,00986096
3796,1870;0,00989973
3797,1514;0,00994956
3798,1155;0,00999099
3799,0798;0,00999948
3800,0439;0,00996355
3801,0083;0,00989614
3801,9724;0,00982185
3802,9368;0,00975356
3803,9009;0,00968832
3804,8652;0,0096211
3805,8293;0,00955777
3806,7937;0,00951846
3807,7578;0,00952427
3808,7222;0,00957815
3809,6863;0,00966501
3810,6506;0,00976609
3811,6147;0,00986436
3812,5791;0,0099422
3813,5432;0,00998603
3814,5076;0,0099984
3815,4717;0,00999841
3816,4360;0,00999948
3817,4001;0,00999054
3818,3645;0,00994536
3819,3286;0,00984942
3820,2930;0,00972152
3821,2571;0,00960632
3822,2214;0,00953757
3823,1855;0,00951764
3824,1499;0,00953262
3825,1140;0,00957058
3826,0784;0,00962574
3827,0425;0,0096955
3828,0068;0,00977676
3828,9709;0,00986341
3829,9353;0,0099462
3830,8994;0,010015
3831,8638;0,0100614
3832,8279;0,0100795
3833,7922;0,0100641
3834,7563;0,0100092
3835,7207;0,00991124
3836,6848;0,00977898
3837,6492;0,00964036
3838,6133;0,00953234
3839,5776;0,00947809
3840,5417;0,00947803
3841,5061;0,00952114
3842,4702;0,00959692
3843,4346;0,00969719
3844,3987;0,00981346
3845,3630;0,00993685
3846,3271;0,010061
3847,2915;0,0101822
3848,2556;0,0102935
3849,2200;0,0103733
3850,1841;0,0103786
3851,1484;0,0102629
3852,1125;0,0100431
3853,0769;0,00984561
3854,0410;0,00978202
3855,0054;0,00981927
3855,9695;0,0098787
3856,9338;0,00993034
3857,8979;0,00997538
3858,8623;0,0100141
3859,8264;0,0100372
3860,7908;0,0100341
3861,7549;0,0100076
3862,7192;0,00998015
3863,6833;0,0099796
3864,6477;0,0100154
3865,6118;0,0100726
3866,5762;0,0101242
3867,5403;0,010144
3868,5046;0,0101171
3869,4688;0,0100481
3870,4331;0,00996198
3871,3972;0,0098913
3872,3616;0,0098567
3873,3257;0,00986033
3874,2900;0,00989288
3875,2542;0,00994258
3876,2185;0,00999875
3877,1826;0,010052
3878,1470;0,0100945
3879,1111;0,0101228
3880,0754;0,010138
3881,0396;0,0101427
3882,0039;0,0101379
3882,9680;0,0101234
3883,9324;0,0101013
3884,8965;0,0100762
3885,8608;0,0100509
3886,8250;0,0100229
3887,7893;0,00998665
3888,7534;0,00993973
3889,7178;0,00988969
3890,6819;0,00985815
3891,6462;0,00987235
3892,6104;0,00994245
3893,5747;0,0100513
3894,5388;0,0101707
3895,5032;0,0102778
3896,4673;0,0103576
3897,4316;0,0104001
3898,3958;0,0104027
3899,3601;0,0103724
3900,3242;0,0103188
3901,2886;0,0102474
3902,2527;0,0101617
3903,2170;0,0100723
3904,1812;0,00999584
3905,1455;0,00994479
3906,1096;0,00992091
3907,0740;0,00991843
3908,0381;0,00993005
3909,0024;0,00995068
3909,9666;0,00997873
3910,9309;0,0100152
3911,8950;0,0100603
3912,8594;0,0101097
3913,8235;0,0101532
3914,7878;0,0101794
3915,7520;0,0101835
3916,7163;0,0101734
3917,6804;0,0101663
3918,6448;0,0101755
3919,6089;0,0102013
3920,5732;0,0102322
3921,5374;0,0102538
3922,5017;0,0102565
3923,4658;0,0102416
3924,4302;0,0102204
3925,3943;0,0102072
3926,3586;0,0102096
3927,3228;0,0102253
3928,2871;0,0102444
3929,2512;0,0102555
3930,2156;0,0102515
3931,1797;0,0102339
3932,1440;0,0102109
3933,1082;0,010191
3934,0725;0,0101787
3935,0366;0,0101749
3936,0010;0,0101792
3936,9651;0,0101912
3937,9294;0,0102092
3938,8936;0,0102295
3939,8579;0,0102469
3940,8220;0,0102568
3941,7864;0,0102591
3942,7505;0,0102593
3943,7148;0,0102648
3944,6790;0,0102801
3945,6433;0,0103018
3946,6074;0,0103195
3947,5718;0,0103205
3948,5359;0,0102985
3949,5002;0,0102595
3950,4644;0,0102187
3951,4287;0,0101913
3952,3928;0,0101842
3953,3572;0,0101935
3954,3213;0,0102095
3955,2856;0,0102239
3956,2498;0,0102348
3957,2141;0,0102458
3958,1782;0,0102611
3959,1426;0,0102794
3960,1067;0,0102927
3961,0710;0,0102917
3962,0352;0,0102727
3962,9995;0,0102429
3963,9636;0,0102162
3964,9280;0,0102055
3965,8921;0,0102145
3966,8564;0,0102359
3967,8206;0,0102561
3968,7849;0,0102638
3969,7490;0,0102564
3970,7134;0,0102415
3971,6775;0,0102305
3972,6418;0,0102317
3973,6060;0,010245
3974,5703;0,010263
3975,5344;0,010276
3976,4988;0,0102784
3977,4629;0,0102707
3978,4272;0,0102586
3979,3914;0,0102484
3980,3557;0,0102441
3981,3198;0,0102455
3982,2842;0,0102499
3983,2483;0,0102543
3984,2126;0,0102573
3985,1768;0,0102594
3986,1411;0,0102624
3987,1052;0,0102678
3988,0696;0,0102758
3989,0337;0,0102857
3989,9980;0,0102964
3990,9622;0,0103067
3991,9265;0,0103155
3992,8906;0,0103213
3993,8550;0,0103225
3994,8191;0,0103181
3995,7834;0,0103088
3996,7476;0,010297
3997,7119;0,0102858
3998,6760;0,0102781
3999,6404;0,0102749
4000,6045;0,0102266

##### Extended Information
[Comments]
Sample name
Comment
Username
Division
Organization;UNIVERSIDAD INDUSTRIAL DE SANTANDER

[Detailed Information]
Creation date;29/01/2025 10:38 a.m.

Data array type;Linear data array
Horizontal axis;Wavenumber [cm-1]
Vertical axis;Abs
Start;399,193 cm-1
End;4000,6 cm-1
Data interval;0,964233 cm-1
Data points;3736    

[Measurement Information]
Model name;FT/IR-4X1typeA
Serial No.;A035162111

Accessory;ATR PRO 4X
Accessory S/N;A021162126
Incident angle;45 deg

Measurement date;29/01/2025 10:38 a.m.

Light source;Standard
Detector;TGS
Accumulation;Auto (76)
Resolution;4 cm-1
Zero filling;On
Apodization;Cosine
Gain;Auto (8)
Aperture;Auto (7 mm)
Scan speed;Auto (2 mm/sec)
Filter;Auto (12800 Hz)

