TITLE;
DATA TYPE;INFRARED SPECTRUM
ORIGIN;JASCO
OWNER;
DATE;25/01/29
TIME;13:34:59
SPECTROMETER/DATA SYSTEM;
LOCALE;9226
RESOLUTION;
DELTAX;0,964233
XUNITS;1/CM
YUNITS;ABSORBANCE
FIRSTX;  399,1927
LASTX; 4000,6047
NPOINTS;    3736
FIRSTY;     0,13982
MAXY;     0,17829
MINY;     0,00540
XYDATA
399,1927;0,13982
400,1569;0,13859
401,1211;0,137257
402,0854;0,136131
403,0496;0,135409
404,0138;0,13521
404,9781;0,135555
405,9423;0,136319
406,9065;0,137242
407,8708;0,138033
408,8350;0,138491
409,7992;0,138564
410,7635;0,138329
411,7277;0,137918
412,6919;0,137456
413,6562;0,137019
414,6204;0,136654
415,5846;0,136414
416,5489;0,136402
417,5131;0,136756
418,4773;0,137523
419,4416;0,138499
420,4058;0,139329
421,3700;0,139809
422,3343;0,139953
423,2985;0,139859
424,2627;0,13962
425,2270;0,139338
426,1912;0,139131
427,1554;0,139126
428,1197;0,139409
429,0839;0,139991
430,0481;0,140797
431,0124;0,141685
431,9766;0,142496
432,9408;0,143111
433,9051;0,143488
434,8693;0,143649
435,8335;0,14365
436,7978;0,143545
437,7620;0,143366
438,7262;0,143119
439,6905;0,142793
440,6547;0,142388
441,6189;0,141938
442,5832;0,141525
443,5474;0,141257
444,5116;0,141206
445,4759;0,141356
446,4401;0,141609
447,4043;0,141842
448,3686;0,141969
449,3328;0,141959
450,2970;0,141828
451,2613;0,141609
452,2255;0,141337
453,1897;0,141049
454,1540;0,1408
455,1182;0,14067
456,0824;0,140733
457,0467;0,141002
458,0109;0,141381
458,9751;0,141698
459,9394;0,141819
460,9036;0,14173
461,8678;0,14152
462,8321;0,141307
463,7963;0,141184
464,7605;0,141189
465,7248;0,141297
466,6890;0,141428
467,6532;0,141475
468,6175;0,141345
469,5817;0,141
470,5459;0,140496
471,5102;0,139996
472,4744;0,139721
473,4386;0,139833
474,4029;0,140334
475,3671;0,141083
476,3313;0,141882
477,2956;0,142563
478,2598;0,143014
479,2240;0,143183
480,1883;0,143072
481,1525;0,142731
482,1167;0,142264
483,0810;0,141818
484,0452;0,14155
485,0094;0,141564
485,9737;0,141854
486,9379;0,142308
487,9021;0,142771
488,8664;0,143111
489,8306;0,14327
490,7948;0,143272
491,7591;0,1432
492,7233;0,143153
493,6875;0,143187
494,6518;0,143298
495,6160;0,143436
496,5802;0,143546
497,5445;0,1436
498,5087;0,1436
499,4729;0,143563
500,4372;0,143508
501,4014;0,143445
502,3656;0,143387
503,3299;0,143361
504,2941;0,143406
505,2583;0,143557
506,2226;0,143819
507,1868;0,144152
508,1510;0,144487
509,1153;0,144757
510,0795;0,144934
511,0437;0,145036
512,0080;0,145114
512,9722;0,145221
513,9365;0,145393
514,9007;0,145648
515,8649;0,145988
516,8292;0,146384
517,7934;0,146773
518,7576;0,147059
519,7219;0,147147
520,6861;0,14699
521,6503;0,146615
522,6146;0,146114
523,5788;0,145622
524,5430;0,145277
525,5073;0,145163
526,4715;0,14526
527,4357;0,145441
528,4000;0,145545
529,3642;0,145463
530,3284;0,145177
531,2927;0,144749
532,2569;0,144277
533,2211;0,143853
534,1854;0,143529
535,1496;0,143309
536,1138;0,143171
537,0781;0,143093
538,0423;0,143061
539,0065;0,143074
539,9708;0,143135
540,9350;0,143246
541,8992;0,143409
542,8635;0,143618
543,8277;0,143858
544,7919;0,1441
545,7562;0,144314
546,7204;0,144485
547,6846;0,144638
548,6489;0,144825
549,6131;0,145106
550,5773;0,145504
551,5416;0,145998
552,5058;0,146522
553,4700;0,147005
554,4343;0,147384
555,3985;0,147619
556,3627;0,147671
557,3270;0,147499
558,2912;0,147063
559,2554;0,146347
560,2197;0,145382
561,1839;0,144245
562,1481;0,14304
563,1124;0,141867
564,0766;0,140796
565,0408;0,13986
566,0051;0,139067
566,9693;0,138409
567,9335;0,13787
568,8978;0,137425
569,8620;0,137043
570,8262;0,136698
571,7905;0,136375
572,7547;0,136077
573,7189;0,135816
574,6832;0,135607
575,6474;0,135456
576,6116;0,135354
577,5759;0,135281
578,5401;0,135205
579,5043;0,135094
580,4686;0,134924
581,4328;0,134694
582,3970;0,134431
583,3613;0,134191
584,3255;0,134028
585,2897;0,13397
586,2540;0,133999
587,2182;0,134059
588,1824;0,134088
589,1467;0,134045
590,1109;0,133935
591,0751;0,133795
592,0394;0,133672
593,0036;0,133588
593,9678;0,133528
594,9321;0,133448
595,8963;0,133302
596,8605;0,133067
597,8248;0,132749
598,7890;0,132384
599,7532;0,132017
600,7175;0,131688
601,6817;0,131417
602,6459;0,131198
603,6102;0,13101
604,5744;0,130829
605,5386;0,13063
606,5029;0,130394
607,4671;0,130108
608,4313;0,129758
609,3956;0,129341
610,3598;0,128862
611,3240;0,128339
612,2883;0,127799
613,2525;0,127265
614,2167;0,126747
615,1810;0,126235
616,1452;0,125704
617,1094;0,125128
618,0737;0,12449
619,0379;0,123791
620,0021;0,123045
620,9664;0,12227
621,9306;0,121478
622,8948;0,120685
623,8591;0,119912
624,8233;0,119191
625,7875;0,118536
626,7518;0,117958
627,7160;0,117446
628,6802;0,116979
629,6445;0,11653
630,6087;0,116081
631,5729;0,115626
632,5372;0,11517
633,5014;0,11472
634,4656;0,114281
635,4299;0,113852
636,3941;0,113428
637,3583;0,113005
638,3226;0,112581
639,2868;0,112162
640,2510;0,111758
641,2153;0,111379
642,1795;0,11103
643,1437;0,110707
644,1080;0,110396
645,0722;0,110081
646,0364;0,109752
647,0007;0,109411
647,9649;0,109077
648,9291;0,108781
649,8934;0,108553
650,8576;0,108416
651,8218;0,108373
652,7861;0,108414
653,7503;0,108525
654,7145;0,108692
655,6788;0,108904
656,6430;0,109154
657,6072;0,109425
658,5715;0,10968
659,5357;0,109865
660,4999;0,10993
661,4642;0,109866
662,4284;0,109727
663,3926;0,109599
664,3569;0,109544
665,3211;0,109544
666,2853;0,109453
667,2496;0,108999
668,2138;0,107981
669,1780;0,106572
670,1423;0,10516
671,1065;0,103916
672,0707;0,10279
673,0350;0,101681
673,9992;0,100518
674,9634;0,0992943
675,9277;0,0980662
676,8919;0,096917
677,8561;0,0958976
678,8204;0,0950074
679,7846;0,0942224
680,7488;0,0935241
681,7131;0,0929012
682,6773;0,0923382
683,6415;0,091812
684,6058;0,0913073
685,5700;0,0908316
686,5342;0,0904133
687,4985;0,0900812
688,4627;0,0898402
689,4269;0,0896674
690,3912;0,0895243
691,3554;0,089378
692,3196;0,0892134
693,2839;0,0890307
694,2481;0,0888346
695,2123;0,0886255
696,1766;0,0883998
697,1408;0,0881552
698,1050;0,0878956
699,0693;0,0876298
700,0335;0,0873649
700,9977;0,0870992
701,9620;0,0868215
702,9262;0,0865164
703,8904;0,0861747
704,8547;0,0857959
705,8189;0,0853896
706,7831;0,0849691
707,7474;0,0845438
708,7116;0,0841137
709,6758;0,0836717
710,6401;0,0832086
711,6043;0,0827201
712,5685;0,0822103
713,5328;0,0816887
714,4970;0,0811642
715,4612;0,0807476
716,4255;0,080183
717,3897;0,0795783
718,3539;0,0789263
719,3182;0,0782367
720,2824;0,0775343
721,2466;0,076846
722,2109;0,0761853
723,1751;0,075549
724,1393;0,0749251
725,1036;0,0743055
726,0678;0,0736907
727,0320;0,0730858
727,9963;0,0724925
728,9605;0,0719066
729,9247;0,0713247
730,8890;0,0707539
731,8532;0,0702131
732,8174;0,0697244
733,7817;0,0692974
734,7459;0,0689212
735,7101;0,0685696
736,6744;0,0682169
737,6386;0,0678519
738,6028;0,0674819
739,5671;0,0671242
740,5313;0,0667933
741,4955;0,0664928
742,4598;0,0662137
743,4240;0,06594
744,3882;0,0656551
745,3525;0,0653462
746,3167;0,0650078
747,2809;0,064643
748,2452;0,0642629
749,2094;0,063883
750,1736;0,0635169
751,1379;0,0631712
752,1021;0,0628438
753,0663;0,0625264
754,0306;0,0622107
754,9948;0,0618925
755,9590;0,0615736
756,9233;0,0612598
757,8875;0,0609568
758,8517;0,0606677
759,8160;0,0603915
760,7802;0,0601245
761,7444;0,0598628
762,7087;0,059604
763,6729;0,0593469
764,6371;0,05909
765,6014;0,0588304
766,5656;0,058565
767,5298;0,0582941
768,4941;0,0580248
769,4583;0,0577701
770,4225;0,0575435
771,3868;0,057349
772,3510;0,0571759
773,3152;0,0570003
774,2795;0,0567964
775,2437;0,0565496
776,2079;0,0562656
777,1722;0,0559674
778,1364;0,0556836
779,1006;0,0554337
780,0649;0,0552197
781,0291;0,0550267
781,9933;0,0548333
782,9576;0,0546227
783,9218;0,0543909
784,8860;0,0541465
785,8503;0,0539052
786,8145;0,0536816
787,7787;0,0534833
788,7430;0,0533091
789,7072;0,053152
790,6714;0,0530038
791,6357;0,052859
792,5999;0,0527155
793,5641;0,0525718
794,5284;0,0524248
795,4926;0,0522691
796,4568;0,0521007
797,4211;0,0519215
798,3853;0,0517408
799,3495;0,0515718
800,3138;0,0514249
801,2780;0,0513011
802,2422;0,0511923
803,2065;0,0510867
804,1707;0,0509768
805,1349;0,0508639
806,0992;0,0507568
807,0634;0,0506646
808,0276;0,050591
808,9919;0,0505312
809,9561;0,0504751
810,9203;0,0504141
811,8846;0,0503467
812,8488;0,0502792
813,8130;0,0502224
814,7773;0,0501848
815,7415;0,0501674
816,7057;0,050163
817,6700;0,0501608
818,6342;0,0501532
819,5984;0,05014
820,5627;0,050127
821,5269;0,0501196
822,4911;0,0501168
823,4554;0,0501092
824,4196;0,0500838
825,3839;0,0500325
826,3481;0,0499576
827,3123;0,0498715
828,2766;0,0497886
829,2408;0,0497171
830,2050;0,0496532
831,1693;0,0495845
832,1335;0,0494972
833,0977;0,0493846
834,0620;0,0492498
835,0262;0,0491027
835,9904;0,0489536
836,9547;0,0488084
837,9189;0,0486669
838,8831;0,0485259
839,8474;0,0483829
840,8116;0,0482375
841,7758;0,0480921
842,7401;0,0479507
843,7043;0,0478181
844,6685;0,0476998
845,6328;0,0476002
846,5970;0,0475212
847,5612;0,0474605
848,5255;0,0474127
849,4897;0,0473721
850,4539;0,0473361
851,4182;0,0473056
852,3824;0,0472814
853,3466;0,0472603
854,3109;0,047234
855,2751;0,0471939
856,2393;0,0471377
857,2036;0,0470743
858,1678;0,0470218
859,1320;0,0469985
860,0963;0,0470143
861,0605;0,0470653
862,0247;0,0471366
862,9890;0,0472107
863,9532;0,0472761
864,9174;0,0473331
865,8817;0,047393
866,8459;0,0474738
867,8101;0,0475914
868,7744;0,0477536
869,7386;0,0479556
870,7028;0,0481825
871,6671;0,0484161
872,6313;0,0486431
873,5955;0,0488605
874,5598;0,0490742
875,5240;0,0492936
876,4882;0,0495262
877,4525;0,0497754
878,4167;0,0500433
879,3809;0,0503362
880,3452;0,0506655
881,3094;0,0510459
882,2736;0,0514895
883,2379;0,0520025
884,2021;0,0525847
885,1663;0,053231
886,1306;0,0539339
887,0948;0,0546831
888,0590;0,0554644
889,0233;0,0562594
889,9875;0,0570473
890,9517;0,0578077
891,9160;0,0585228
892,8802;0,0591772
893,8444;0,0597555
894,8087;0,0602406
895,7729;0,0606137
896,7371;0,0608564
897,7014;0,0609552
898,6656;0,0609061
899,6298;0,0607178
900,5941;0,0604116
901,5583;0,060018
902,5225;0,0595702
903,4868;0,0590984
904,4510;0,0586257
905,4152;0,0581694
906,3795;0,0577441
907,3437;0,0573646
908,3079;0,0570452
909,2722;0,0567962
910,2364;0,0566199
911,2007;0,0565107
912,1649;0,0564585
913,1292;0,0564556
914,0934;0,0565
915,0576;0,0565951
916,0219;0,0567451
916,9861;0,0569501
917,9503;0,0572027
918,9146;0,0574891
919,8788;0,057793
920,8430;0,0581005
921,8073;0,0584038
922,7715;0,0587027
923,7357;0,0590016
924,7000;0,0593056
925,6642;0,0596144
926,6284;0,0599203
927,5927;0,0602105
928,5569;0,0604735
929,5211;0,0607057
930,4854;0,0609148
931,4496;0,0611163
932,4138;0,0613276
933,3781;0,0615616
934,3423;0,0618261
935,3065;0,0621272
936,2708;0,0624733
937,2350;0,0628768
938,1992;0,0633505
939,1635;0,0639025
940,1277;0,0645329
941,0919;0,0652349
942,0562;0,0659997
943,0204;0,0668215
943,9846;0,0676981
944,9489;0,0686288
945,9131;0,0696106
946,8773;0,0706372
947,8416;0,0717022
948,8058;0,0728039
949,7700;0,0739493
950,7343;0,0751514
951,6985;0,0764233
952,6627;0,0777701
953,6270;0,0791846
954,5912;0,0806501
955,5554;0,0821483
956,5197;0,0836678
957,4839;0,0852088
958,4481;0,0867801
959,4124;0,0883918
960,3766;0,090047
961,3408;0,0917381
962,3051;0,0934485
963,2693;0,0951595
964,2335;0,0968567
965,1978;0,0985352
966,1620;0,100201
967,1262;0,101871
968,0905;0,103569
969,0547;0,105326
970,0189;0,107173
970,9832;0,109136
971,9474;0,111234
972,9116;0,113473
973,8759;0,115849
974,8401;0,118351
975,8043;0,120969
976,7686;0,123689
977,7328;0,126493
978,6970;0,129349
979,6613;0,1322
980,6255;0,134967
981,5897;0,137555
982,5540;0,139879
983,5182;0,141886
984,4824;0,14357
985,4467;0,144972
986,4109;0,146165
987,3751;0,147222
988,3394;0,148197
989,3036;0,149114
990,2678;0,149973
991,2321;0,150763
992,1963;0,151474
993,1605;0,152108
994,1248;0,15267
995,0890;0,153169
996,0532;0,153609
997,0175;0,153997
997,9817;0,154342
998,9459;0,154662
999,9102;0,154982
1000,8744;0,155329
1001,8386;0,155733
1002,8029;0,156215
1003,7671;0,156792
1004,7313;0,157475
1005,6956;0,158269
1006,6598;0,159183
1007,6240;0,160219
1008,5883;0,161377
1009,5525;0,162647
1010,5167;0,164004
1011,4810;0,16541
1012,4452;0,166822
1013,4094;0,168198
1014,3737;0,169503
1015,3379;0,170714
1016,3021;0,171818
1017,2664;0,172808
1018,2306;0,173681
1019,1948;0,174439
1020,1591;0,175091
1021,1233;0,175655
1022,0875;0,176151
1023,0518;0,176601
1024,0160;0,177015
1024,9802;0,177393
1025,9445;0,177724
1026,9087;0,177995
1027,8729;0,178189
1028,8372;0,178286
1029,8014;0,178261
1030,7656;0,178072
1031,7299;0,177673
1032,6941;0,177017
1033,6583;0,176081
1034,6226;0,174884
1035,5868;0,173486
1036,5510;0,171985
1037,5153;0,170492
1038,4795;0,169109
1039,4437;0,167915
1040,4080;0,166958
1041,3722;0,166256
1042,3364;0,165801
1043,3007;0,165563
1044,2649;0,165491
1045,2291;0,165524
1046,1934;0,165594
1047,1576;0,165643
1048,1218;0,165623
1049,0861;0,165498
1050,0503;0,165242
1051,0145;0,164831
1051,9788;0,164246
1052,9430;0,163477
1053,9072;0,162527
1054,8715;0,161404
1055,8357;0,160117
1056,7999;0,158658
1057,7642;0,157
1058,7284;0,155113
1059,6926;0,152978
1060,6569;0,150616
1061,6211;0,148093
1062,5853;0,14551
1063,5496;0,142979
1064,5138;0,140591
1065,4780;0,138397
1066,4423;0,136405
1067,4065;0,134591
1068,3707;0,132917
1069,3350;0,131344
1070,2992;0,129838
1071,2634;0,128366
1072,2277;0,126898
1073,1919;0,125403
1074,1561;0,123855
1075,1204;0,122242
1076,0846;0,120569
1077,0488;0,118864
1078,0131;0,11717
1078,9773;0,115536
1079,9415;0,114012
1080,9058;0,112633
1081,8700;0,111421
1082,8342;0,11038
1083,7985;0,109505
1084,7627;0,108777
1085,7269;0,108176
1086,6912;0,10768
1087,6554;0,107272
1088,6196;0,106941
1089,5839;0,106686
1090,5481;0,106506
1091,5123;0,106406
1092,4766;0,106386
1093,4408;0,106439
1094,4050;0,106555
1095,3693;0,10672
1096,3335;0,10692
1097,2977;0,107142
1098,2620;0,107371
1099,2262;0,107588
1100,1904;0,107769
1101,1547;0,107891
1102,1189;0,10793
1103,0831;0,107872
1104,0474;0,10772
1105,0116;0,107488
1105,9758;0,107201
1106,9401;0,106878
1107,9043;0,10652
1108,8685;0,106107
1109,8328;0,105591
1110,7970;0,104913
1111,7612;0,104025
1112,7255;0,102908
1113,6897;0,101586
1114,6539;0,10013
1115,6182;0,0986353
1116,5824;0,0972012
1117,5466;0,0958978
1118,5109;0,0947487
1119,4751;0,0937245
1120,4393;0,0927548
1121,4036;0,091751
1122,3678;0,090634
1123,3320;0,0893546
1124,2963;0,0879016
1125,2605;0,0862962
1126,2247;0,0845773
1127,1890;0,082787
1128,1532;0,0809615
1129,1174;0,0791289
1130,0817;0,0773113
1131,0459;0,0755285
1132,0101;0,0738
1132,9744;0,0721463
1133,9386;0,070591
1134,9028;0,0691614
1135,8671;0,0678885
1136,8313;0,0668036
1137,7955;0,0659325
1138,7598;0,0652905
1139,7240;0,064879
1140,6882;0,0646861
1141,6525;0,064689
1142,6167;0,0648575
1143,5809;0,0651573
1144,5452;0,0655534
1145,5094;0,0660145
1146,4736;0,0665174
1147,4379;0,0670501
1148,4021;0,06761
1149,3663;0,0681997
1150,3306;0,0688181
1151,2948;0,0694551
1152,2590;0,070089
1153,2233;0,0706898
1154,1875;0,0712242
1155,1517;0,0716595
1156,1160;0,0719637
1157,0802;0,0721019
1158,0444;0,0720321
1159,0087;0,0717041
1159,9729;0,0710637
1160,9371;0,0700626
1161,9014;0,0686718
1162,8656;0,0668932
1163,8298;0,0647659
1164,7941;0,062364
1165,7583;0,0597856
1166,7225;0,0571382
1167,6868;0,0545225
1168,6510;0,0520209
1169,6152;0,0496912
1170,5795;0,0475662
1171,5437;0,0456579
1172,5079;0,0439638
1173,4722;0,0424725
1174,4364;0,0411682
1175,4006;0,040034
1176,3649;0,0390532
1177,3291;0,0382108
1178,2933;0,0374927
1179,2576;0,0368859
1180,2218;0,0363773
1181,1860;0,035954
1182,1503;0,0356051
1183,1145;0,035323
1184,0787;0,035105
1185,0430;0,034953
1186,0072;0,0348719
1186,9714;0,0348675
1187,9357;0,0349443
1188,8999;0,0351045
1189,8641;0,035347
1190,8284;0,035668
1191,7926;0,0360608
1192,7568;0,0365173
1193,7211;0,0370289
1194,6853;0,037587
1195,6495;0,0381825
1196,6138;0,0388041
1197,5780;0,0394372
1198,5422;0,0400648
1199,5065;0,0406502
1200,4707;0,0412242
1201,4349;0,0417581
1202,3992;0,0422508
1203,3634;0,0427024
1204,3276;0,0431105
1205,2919;0,0434693
1206,2561;0,0437738
1207,2203;0,0440266
1208,1846;0,0442434
1209,1488;0,0444539
1210,1130;0,0446954
1211,0773;0,0450028
1212,0415;0,0453985
1213,0057;0,0458881
1213,9700;0,0464617
1214,9342;0,0471011
1215,8984;0,0477857
1216,8627;0,0484973
1217,8269;0,0492201
1218,7911;0,0499411
1219,7554;0,0506502
1220,7196;0,0513402
1221,6838;0,0520074
1222,6481;0,0526496
1223,6123;0,0532642
1224,5765;0,053847
1225,5408;0,0543925
1226,5050;0,0548971
1227,4692;0,0553598
1228,4335;0,0557827
1229,3977;0,0561684
1230,3619;0,0565171
1231,3262;0,056825
1232,2904;0,0570852
1233,2546;0,0572907
1234,2189;0,0574384
1235,1831;0,057531
1236,1473;0,0575776
1237,1116;0,0575903
1238,0758;0,0575807
1239,0400;0,0575557
1240,0043;0,0575167
1240,9685;0,0574606
1241,9327;0,0573827
1242,8970;0,0572792
1243,8612;0,0571472
1244,8254;0,0569843
1245,7897;0,0567886
1246,7539;0,0565603
1247,7181;0,0563035
1248,6824;0,0560265
1249,6466;0,0557402
1250,6108;0,0554546
1251,5751;0,0551766
1252,5393;0,0549093
1253,5035;0,0546539
1254,4678;0,0544108
1255,4320;0,0541793
1256,3962;0,0539564
1257,3605;0,0537355
1258,3247;0,0535083
1259,2889;0,0532668
1260,2532;0,0530059
1261,2174;0,052724
1262,1816;0,0524207
1263,1459;0,0520956
1264,1101;0,0517473
1265,0743;0,0513745
1266,0386;0,0509771
1267,0028;0,0505563
1267,9670;0,0501146
1268,9313;0,0496553
1269,8955;0,0491826
1270,8597;0,0487012
1271,8240;0,0482161
1272,7882;0,0477309
1273,7524;0,0472477
1274,7167;0,0467682
1275,6809;0,046295
1276,6451;0,0458328
1277,6094;0,0453861
1278,5736;0,044956
1279,5378;0,044538
1280,5021;0,044123
1281,4663;0,0437017
1282,4305;0,0432701
1283,3948;0,0428324
1284,3590;0,0424006
1285,3232;0,0419914
1286,2875;0,0416225
1287,2517;0,0413086
1288,2159;0,0410593
1289,1802;0,0408771
1290,1444;0,0407585
1291,1086;0,0406969
1292,0729;0,0406866
1293,0371;0,0407258
1294,0013;0,0408179
1294,9656;0,0409685
1295,9298;0,0411818
1296,8940;0,0414586
1297,8583;0,0417955
1298,8225;0,0421873
1299,7867;0,0426283
1300,7510;0,0431133
1301,7152;0,043637
1302,6794;0,0441953
1303,6437;0,0447858
1304,6079;0,0454089
1305,5721;0,0460654
1306,5364;0,0467525
1307,5006;0,0474611
1308,4648;0,0481757
1309,4291;0,0488778
1310,3933;0,0495498
1311,3575;0,0501757
1312,3218;0,0507405
1313,2860;0,0512285
1314,2502;0,0516222
1315,2145;0,0519036
1316,1787;0,0520577
1317,1429;0,0520777
1318,1072;0,0519713
1319,0714;0,0517645
1320,0356;0,0514962
1320,9999;0,0512074
1321,9641;0,0509295
1322,9283;0,0506802
1323,8926;0,0504664
1324,8568;0,0502894
1325,8210;0,0501479
1326,7853;0,0500386
1327,7495;0,0499559
1328,7137;0,0498915
1329,6780;0,0498348
1330,6422;0,0497733
1331,6064;0,0496935
1332,5707;0,0495811
1333,5349;0,0494207
1334,4991;0,0491953
1335,4634;0,0488868
1336,4276;0,04848
1337,3918;0,0479744
1338,3561;0,0473985
1339,3203;0,046812
1340,2845;0,0462814
1341,2488;0,0458444
1342,2130;0,0454974
1343,1772;0,045212
1344,1415;0,0449602
1345,1057;0,04473
1346,0699;0,044528
1347,0342;0,0443743
1347,9984;0,0442923
1348,9626;0,0442979
1349,9269;0,0443926
1350,8911;0,0445627
1351,8553;0,0447864
1352,8196;0,0450434
1353,7838;0,0453248
1354,7480;0,045634
1355,7123;0,0459792
1356,6765;0,0463605
1357,6407;0,0467629
1358,6050;0,0471607
1359,5692;0,0475281
1360,5334;0,0478514
1361,4977;0,0481363
1362,4619;0,0484053
1363,4261;0,0486812
1364,3904;0,0489696
1365,3546;0,0492569
1366,3188;0,0495223
1367,2831;0,0497475
1368,2473;0,0499197
1369,2115;0,0500278
1370,1758;0,0500571
1371,1400;0,0499865
1372,1042;0,0497936
1373,0685;0,0494703
1374,0327;0,0490396
1374,9969;0,0485522
1375,9612;0,048053
1376,9254;0,047547
1377,8896;0,0470017
1378,8539;0,0463812
1379,8181;0,0456823
1380,7823;0,0449448
1381,7466;0,0442262
1382,7108;0,0435597
1383,6750;0,0429309
1384,6393;0,0422932
1385,6035;0,041612
1386,5677;0,0409124
1387,5320;0,0402841
1388,4962;0,0398177
1389,4604;0,0395346
1390,4247;0,039385
1391,3889;0,0392966
1392,3531;0,0392136
1393,3174;0,0391124
1394,2816;0,0390021
1395,2458;0,0389129
1396,2101;0,0388768
1397,1743;0,0389108
1398,1385;0,0390156
1399,1028;0,039181
1400,0670;0,0393909
1401,0313;0,039626
1401,9955;0,039869
1402,9597;0,0401109
1403,9240;0,0403562
1404,8882;0,0406203
1405,8524;0,0409193
1406,8167;0,0412575
1407,7809;0,0416268
1408,7451;0,042018
1409,7094;0,0424311
1410,6736;0,0428751
1411,6378;0,043356
1412,6021;0,0438651
1413,5663;0,0443778
1414,5305;0,0448648
1415,4948;0,0453031
1416,4590;0,0456811
1417,4232;0,0460015
1418,3875;0,0462799
1419,3517;0,0465313
1420,3159;0,0467492
1421,2802;0,0469044
1422,2444;0,0469647
1423,2086;0,0469159
1424,1729;0,0467681
1425,1371;0,046544
1426,1013;0,0462528
1427,0656;0,0458739
1428,0298;0,045371
1428,9940;0,0447357
1429,9583;0,044024
1430,9225;0,0433341
1431,8867;0,0427326
1432,8510;0,0422023
1433,8152;0,0416561
1434,7794;0,0409996
1435,7437;0,0402211
1436,7079;0,0394494
1437,6721;0,0388737
1438,6364;0,0385758
1439,6006;0,0384966
1440,5648;0,0385346
1441,5291;0,0386223
1442,4933;0,0387366
1443,4575;0,0388805
1444,4218;0,0390597
1445,3860;0,0392695
1446,3502;0,0394964
1447,3145;0,0397301
1448,2787;0,0399716
1449,2429;0,0402301
1450,2072;0,0405095
1451,1714;0,0408
1452,1356;0,0410767
1453,0999;0,0412996
1454,0641;0,0414052
1455,0283;0,0413001
1455,9926;0,0409065
1456,9568;0,0403135
1457,9210;0,0398199
1458,8853;0,0396192
1459,8495;0,0396333
1460,8137;0,0396897
1461,7780;0,0396409
1462,7422;0,039371
1463,7064;0,0388122
1464,6707;0,0380068
1465,6349;0,0371238
1466,5991;0,0363331
1467,5634;0,0356719
1468,5276;0,0350485
1469,4918;0,0343123
1470,4561;0,0333042
1471,4203;0,0319215
1472,3845;0,0302413
1473,3488;0,0285771
1474,3130;0,0272533
1475,2772;0,0263373
1476,2415;0,0256983
1477,2057;0,0251941
1478,1699;0,0247441
1479,1342;0,0243181
1480,0984;0,023913
1481,0626;0,0235424
1482,0269;0,0232301
1482,9911;0,022999
1483,9553;0,0228552
1484,9196;0,0227784
1485,8838;0,0227253
1486,8480;0,0226465
1487,8123;0,0225211
1488,7765;0,0223988
1489,7407;0,0223862
1490,7050;0,0225513
1491,6692;0,0228716
1492,6334;0,0232834
1493,5977;0,023735
1494,5619;0,024197
1495,5261;0,0246568
1496,4904;0,025118
1497,4546;0,0256015
1498,4188;0,0261321
1499,3831;0,0267143
1500,3473;0,0273269
1501,3115;0,0279375
1502,2758;0,0285106
1503,2400;0,0289988
1504,2042;0,0293198
1505,1685;0,0293349
1506,1327;0,0289099
1507,0969;0,0281686
1508,0612;0,0275412
1509,0254;0,0272543
1509,9896;0,0271937
1510,9539;0,0271937
1511,9181;0,0271526
1512,8823;0,0270146
1513,8466;0,0267505
1514,8108;0,0263616
1515,7750;0,0258871
1516,7393;0,0253861
1517,7035;0,0248965
1518,6677;0,0244086
1519,6320;0,0238879
1520,5962;0,0233299
1521,5604;0,0227929
1522,5247;0,0223572
1523,4889;0,0220564
1524,4531;0,021867
1525,4174;0,0217537
1526,3816;0,0217056
1527,3458;0,0217312
1528,3101;0,0218316
1529,2743;0,0219828
1530,2385;0,0221432
1531,2028;0,0222763
1532,1670;0,0223795
1533,1312;0,0225002
1534,0955;0,0227055
1535,0597;0,0230231
1536,0239;0,0234209
1536,9882;0,0238281
1537,9524;0,024143
1538,9166;0,0242272
1539,8809;0,0239679
1540,8451;0,0234801
1541,8093;0,0231099
1542,7736;0,0230325
1543,7378;0,0231597
1544,7020;0,0233668
1545,6663;0,0235875
1546,6305;0,0237974
1547,5947;0,0239861
1548,5590;0,0241455
1549,5232;0,0242728
1550,4874;0,0243812
1551,4517;0,0245038
1552,4159;0,0246783
1553,3801;0,0249203
1554,3444;0,025205
1555,3086;0,0254592
1556,2728;0,0255522
1557,2371;0,0253202
1558,2013;0,0247616
1559,1655;0,0242624
1560,1298;0,0241849
1561,0940;0,0244598
1562,0582;0,0248859
1563,0225;0,0253475
1563,9867;0,0257951
1564,9509;0,0262008
1565,9152;0,026541
1566,8794;0,0268051
1567,8436;0,0270171
1568,8079;0,0272441
1569,7721;0,0275572
1570,7363;0,0279737
1571,7006;0,028453
1572,6648;0,028938
1573,6290;0,0293847
1574,5933;0,0297737
1575,5575;0,0301234
1576,5217;0,0304917
1577,4860;0,0309328
1578,4502;0,0314518
1579,4144;0,0320219
1580,3787;0,0326182
1581,3429;0,0332258
1582,3071;0,0338356
1583,2714;0,0344428
1584,2356;0,0350481
1585,1998;0,035656
1586,1641;0,0362681
1587,1283;0,0368774
1588,0925;0,0374669
1589,0568;0,0380143
1590,0210;0,0384972
1590,9852;0,0388936
1591,9495;0,0391809
1592,9137;0,0393382
1593,8779;0,039356
1594,8422;0,0392468
1595,8064;0,0390447
1596,7706;0,038791
1597,7349;0,0385168
1598,6991;0,0382363
1599,6633;0,0379514
1600,6276;0,0376624
1601,5918;0,0373754
1602,5560;0,0371042
1603,5203;0,0368637
1604,4845;0,0366597
1605,4487;0,0364829
1606,4130;0,0363133
1607,3772;0,0361358
1608,3414;0,0359591
1609,3057;0,0358204
1610,2699;0,035762
1611,2341;0,035798
1612,1984;0,0358998
1613,1626;0,0360071
1614,1268;0,036049
1615,0911;0,035983
1616,0553;0,0358483
1617,0195;0,0357643
1617,9838;0,0358214
1618,9480;0,0360044
1619,9122;0,0362379
1620,8765;0,036452
1621,8407;0,0366102
1622,8049;0,0367168
1623,7692;0,036808
1624,7334;0,0369189
1625,6976;0,0370559
1626,6619;0,0372067
1627,6261;0,037369
1628,5903;0,0375604
1629,5546;0,0378024
1630,5188;0,038097
1631,4830;0,0384158
1632,4473;0,0386997
1633,4115;0,0388622
1634,3757;0,0388184
1635,3400;0,0385766
1636,3042;0,0383024
1637,2684;0,0381744
1638,2327;0,0382196
1639,1969;0,0383722
1640,1611;0,0385737
1641,1254;0,038793
1642,0896;0,0390051
1643,0538;0,0391676
1644,0181;0,0392126
1644,9823;0,0390786
1645,9465;0,038802
1646,9108;0,038561
1647,8750;0,0385256
1648,8392;0,0386935
1649,8035;0,0389217
1650,7677;0,0389939
1651,7319;0,0386455
1652,6962;0,0377465
1653,6604;0,0366651
1654,6246;0,0359755
1655,5889;0,0357488
1656,5531;0,0357399
1657,5173;0,0357547
1658,4816;0,0356868
1659,4458;0,0354665
1660,4100;0,0350497
1661,3743;0,0344581
1662,3385;0,033813
1663,3027;0,0332696
1664,2670;0,0328993
1665,2312;0,0326558
1666,1954;0,0324215
1667,1597;0,0320607
1668,1239;0,0314784
1669,0881;0,030704
1670,0524;0,0299114
1671,0166;0,0292751
1671,9808;0,0288115
1672,9451;0,0284027
1673,9093;0,02792
1674,8735;0,027323
1675,8378;0,0266931
1676,8020;0,0261697
1677,7662;0,0258373
1678,7305;0,02568
1679,6947;0,0256114
1680,6589;0,0255008
1681,6232;0,0251772
1682,5874;0,0244823
1683,5516;0,0234512
1684,5159;0,0224135
1685,4801;0,0216762
1686,4443;0,0212451
1687,4086;0,0209747
1688,3728;0,0207563
1689,3370;0,0205566
1690,3013;0,0203895
1691,2655;0,020275
1692,2297;0,0202119
1693,1940;0,0201708
1694,1582;0,0201065
1695,1224;0,0199787
1696,0867;0,0197699
1697,0509;0,0194877
1698,0151;0,0191568
1698,9794;0,0188194
1699,9436;0,0185396
1700,9078;0,0183783
1701,8721;0,0183552
1702,8363;0,0184421
1703,8005;0,0185884
1704,7648;0,0187495
1705,7290;0,0189068
1706,6932;0,0190746
1707,6575;0,0192847
1708,6217;0,0195606
1709,5859;0,0199038
1710,5502;0,0202985
1711,5144;0,0207187
1712,4786;0,0211305
1713,4429;0,0214904
1714,4071;0,0217467
1715,3713;0,0218617
1716,3356;0,0218619
1717,2998;0,0218602
1718,2640;0,0219662
1719,2283;0,0221942
1720,1925;0,0224982
1721,1567;0,0228346
1722,1210;0,0231774
1723,0852;0,0235125
1724,0494;0,0238333
1725,0137;0,0241407
1725,9779;0,0244419
1726,9421;0,0247455
1727,9064;0,0250543
1728,8706;0,0253572
1729,8348;0,025621
1730,7991;0,0257863
1731,7633;0,0257823
1732,7275;0,0255827
1733,6918;0,025272
1734,6560;0,0250006
1735,6202;0,0248445
1736,5845;0,024765
1737,5487;0,0246757
1738,5129;0,0244993
1739,4772;0,0241954
1740,4414;0,0237771
1741,4056;0,0233026
1742,3699;0,0228347
1743,3341;0,0224013
1744,2983;0,0219942
1745,2626;0,0215856
1746,2268;0,0211348
1747,1910;0,0205847
1748,1553;0,0198777
1749,1195;0,01901
1750,0837;0,0180785
1751,0480;0,0172319
1752,0122;0,0165572
1752,9764;0,0160365
1753,9407;0,0155929
1754,9049;0,0151527
1755,8691;0,0146828
1756,8334;0,0141954
1757,7976;0,0137203
1758,7618;0,0132671
1759,7261;0,0128129
1760,6903;0,0123322
1761,6545;0,0118371
1762,6188;0,0113824
1763,5830;0,0110239
1764,5472;0,0107774
1765,5115;0,0106159
1766,4757;0,0104934
1767,4399;0,0103675
1768,4042;0,0102052
1769,3684;0,0099785
1770,3326;0,00966587
1771,2969;0,00927541
1772,2611;0,00887218
1773,2253;0,00855487
1774,1896;0,00838511
1775,1538;0,00835131
1776,1180;0,00839339
1777,0823;0,00844145
1778,0465;0,00844168
1779,0107;0,0083729
1779,9750;0,00825222
1780,9392;0,00811986
1781,9034;0,00801018
1782,8677;0,00793529
1783,8319;0,00789342
1784,7961;0,00788556
1785,7604;0,00791964
1786,7246;0,00799949
1787,6888;0,00811104
1788,6531;0,00821648
1789,6173;0,00826016
1790,5815;0,00819219
1791,5458;0,00801152
1792,5100;0,00779105
1793,4742;0,00763003
1794,4385;0,00757593
1795,4027;0,00760935
1796,3669;0,00767996
1797,3312;0,00773667
1798,2954;0,00774237
1799,2596;0,00768479
1800,2239;0,00758233
1801,1881;0,00747374
1802,1523;0,00739445
1803,1166;0,00736005
1804,0808;0,0073673
1805,0450;0,00740284
1806,0093;0,00744902
1806,9735;0,00748605
1807,9377;0,00749486
1808,9020;0,00746374
1809,8662;0,00739656
1810,8304;0,00731405
1811,7947;0,0072426
1812,7589;0,00719785
1813,7231;0,00717721
1814,6874;0,00716582
1815,6516;0,00714971
1816,6158;0,00712824
1817,5801;0,00711778
1818,5443;0,00714108
1819,5085;0,00720844
1820,4728;0,00730686
1821,4370;0,00740561
1822,4012;0,00747302
1823,3655;0,00749409
1824,3297;0,0074778
1825,2939;0,00744559
1826,2582;0,00740863
1827,2224;0,00735615
1828,1866;0,00726845
1829,1509;0,00714548
1830,1151;0,00702309
1831,0793;0,00695202
1832,0436;0,00695655
1833,0078;0,00701789
1833,9720;0,00709148
1834,9363;0,00713511
1835,9005;0,00713317
1836,8647;0,00710808
1837,8290;0,00710653
1838,7932;0,00716434
1839,7574;0,00727903
1840,7217;0,00740812
1841,6859;0,00748663
1842,6501;0,0074578
1843,6144;0,00731345
1844,5786;0,00711314
1845,5428;0,00694314
1846,5071;0,00685092
1847,4713;0,00682855
1848,4355;0,00684167
1849,3998;0,00685904
1850,3640;0,00686568
1851,3282;0,00686295
1852,2925;0,00686095
1853,2567;0,00686901
1854,2209;0,00689013
1855,1852;0,00692142
1856,1494;0,00695744
1857,1136;0,00699258
1858,0779;0,00702207
1859,0421;0,00704304
1860,0063;0,00705673
1860,9706;0,00706993
1861,9348;0,00709259
1862,8990;0,00713108
1863,8633;0,00718057
1864,8275;0,00722112
1865,7917;0,00722111
1866,7560;0,00715188
1867,7202;0,00701221
1868,6844;0,00684286
1869,6487;0,00670495
1870,6129;0,00663792
1871,5771;0,00664293
1872,5414;0,00669693
1873,5056;0,00677031
1874,4698;0,00683651
1875,4341;0,00687792
1876,3983;0,00688986
1877,3625;0,00688053
1878,3268;0,00686505
1879,2910;0,00685735
1880,2552;0,00686491
1881,2195;0,00688855
1882,1837;0,0069253
1883,1479;0,00697113
1884,1122;0,00702136
1885,0764;0,00706883
1886,0406;0,0071025
1887,0049;0,0071094
1887,9691;0,007081
1888,9333;0,00702053
1889,8976;0,00694381
1890,8618;0,0068704
1891,8260;0,00681257
1892,7903;0,00677159
1893,7545;0,0067427
1894,7188;0,00672276
1895,6830;0,0067144
1896,6472;0,00672375
1897,6115;0,00675391
1898,5757;0,00680051
1899,5399;0,00685254
1900,5042;0,00689702
1901,4684;0,00692374
1902,4326;0,00692817
1903,3969;0,00691167
1904,3611;0,00687973
1905,3253;0,00683965
1906,2896;0,00679868
1907,2538;0,00676272
1908,2180;0,00673535
1909,1823;0,00671711
1910,1465;0,00670621
1911,1107;0,00670083
1912,0750;0,00670153
1913,0392;0,00671138
1914,0034;0,00673335
1914,9677;0,00676704
1915,9319;0,00680696
1916,8961;0,00684304
1917,8604;0,00686317
1918,8246;0,0068573
1919,7888;0,00682161
1920,7531;0,00676042
1921,7173;0,00668548
1922,6815;0,0066132
1923,6458;0,0065599
1924,6100;0,00653566
1925,5742;0,00654073
1926,5385;0,00656747
1927,5027;0,00660508
1928,4669;0,00664333
1929,4312;0,00667429
1930,3954;0,00669365
1931,3596;0,00670216
1932,3239;0,00670608
1933,2881;0,00671418
1934,2523;0,00673143
1935,2166;0,00675283
1936,1808;0,00676281
1937,1450;0,00674298
1938,1093;0,00668456
1939,0735;0,00659794
1940,0377;0,00651383
1941,0020;0,00647291
1941,9662;0,00650423
1942,9304;0,00660233
1943,8947;0,00672327
1944,8589;0,00680801
1945,8231;0,00681428
1946,7874;0,00673343
1947,7516;0,00658796
1948,7158;0,00641814
1949,6801;0,00626535
1950,6443;0,00615786
1951,6085;0,00610358
1952,5728;0,00609157
1953,5370;0,00609878
1954,5012;0,006098
1955,4655;0,00606522
1956,4297;0,00598703
1957,3939;0,00586737
1958,3582;0,00573014
1959,3224;0,00561302
1960,2866;0,00555137
1961,2509;0,00555947
1962,2151;0,00562199
1963,1793;0,00570326
1964,1436;0,00576799
1965,1078;0,00580014
1966,0720;0,00580918
1967,0363;0,00581963
1968,0005;0,00584983
1968,9647;0,00589488
1969,9290;0,00592655
1970,8932;0,00590916
1971,8574;0,00582071
1972,8217;0,00566989
1973,7859;0,00550315
1974,7501;0,0053965
1975,7144;0,00542791
1976,6786;0,00563795
1977,6428;0,00599974
1978,6071;0,00642163
1979,5713;0,00678466
1980,5355;0,00699012
1981,4998;0,00699101
1982,4640;0,00680074
1983,4282;0,00648573
1984,3925;0,0061466
1985,3567;0,00588847
1986,3209;0,00578609
1987,2852;0,0058586
1988,2494;0,00606709
1989,2136;0,00633598
1990,1779;0,00658716
1991,1421;0,00677133
1992,1063;0,00688132
1993,0706;0,00694048
1994,0348;0,00697559
1994,9990;0,00699527
1995,9633;0,00698699
1996,9275;0,00692979
1997,8917;0,00681193
1998,8560;0,00664261
1999,8202;0,00645237
2000,7844;0,00628296
2001,7487;0,00617468
2002,7129;0,0061582
2003,6771;0,00625088
2004,6414;0,00645253
2005,6056;0,00673789
2006,5698;0,00705136
2007,5341;0,00731498
2008,4983;0,00745352
2009,4625;0,00742606
2010,4268;0,00724496
2011,3910;0,00697068
2012,3552;0,00668625
2013,3195;0,00646577
2014,2837;0,00635242
2015,2479;0,00635341
2016,2122;0,00645021
2017,1764;0,00661408
2018,1406;0,00681609
2019,1049;0,00702757
2020,0691;0,0072174
2021,0333;0,00735483
2021,9976;0,00741948
2022,9618;0,00741142
2023,9260;0,00735183
2024,8903;0,00727169
2025,8545;0,00719615
2026,8187;0,00713617
2027,7830;0,0070921
2028,7472;0,00706273
2029,7114;0,00705046
2030,6757;0,00705972
2031,6399;0,0070936
2032,6041;0,00715407
2033,5684;0,00724402
2034,5326;0,00736517
2035,4968;0,00751103
2036,4611;0,00766269
2037,4253;0,00779446
2038,3895;0,00788734
2039,3538;0,00793814
2040,3180;0,007955
2041,2822;0,00794288
2042,2465;0,00789483
2043,2107;0,00780289
2044,1749;0,00768295
2045,1392;0,00758973
2046,1034;0,00759852
2047,0676;0,00775505
2048,0320;0,00802865
2048,9961;0,00831477
2049,9604;0,00849426
2050,9246;0,00850315
2051,8889;0,00836136
2052,8530;0,00815018
2053,8174;0,00796237
2054,7815;0,00785698
2055,7458;0,00784178
2056,7100;0,0078891
2057,6743;0,00796714
2058,6384;0,00806005
2059,6028;0,00816377
2060,5669;0,00826866
2061,5313;0,00835035
2062,4954;0,00838024
2063,4597;0,00834752
2064,4238;0,00827261
2065,3882;0,00819779
2066,3523;0,00816074
2067,3167;0,00817146
2068,2808;0,00820995
2069,2451;0,00824359
2070,2092;0,00824926
2071,1736;0,008225
2072,1377;0,00818651
2073,1021;0,00815414
2074,0662;0,00814103
2075,0305;0,00814871
2075,9946;0,00816964
2076,9590;0,00819248
2077,9231;0,00820738
2078,8875;0,00821007
2079,8516;0,00820442
2080,8159;0,00820124
2081,7800;0,00821266
2082,7444;0,00824416
2083,7085;0,00828979
2084,6729;0,00833504
2085,6370;0,00836593
2086,6013;0,00837807
2087,5654;0,00837853
2088,5298;0,00837906
2089,4939;0,0083867
2090,4583;0,00839966
2091,4224;0,00841195
2092,3867;0,00842161
2093,3508;0,00843428
2094,3152;0,00845755
2095,2793;0,00849107
2096,2437;0,00852274
2097,2078;0,0085373
2098,1721;0,00853127
2099,1362;0,00852037
2100,1006;0,00852988
2101,0647;0,00857571
2102,0291;0,00864526
2102,9932;0,00870198
2103,9575;0,00870721
2104,9216;0,0086476
2105,8860;0,00854749
2106,8501;0,00845609
2107,8145;0,00841769
2108,7786;0,00844549
2109,7429;0,00851701
2110,7070;0,00859259
2111,6714;0,00864251
2112,6355;0,00866306
2113,5999;0,00867208
2114,5640;0,00869031
2115,5283;0,00872392
2116,4924;0,00876068
2117,4568;0,00878009
2118,4209;0,00876795
2119,3853;0,0087242
2120,3494;0,00866005
2121,3137;0,00858902
2122,2778;0,00852048
2123,2422;0,00846034
2124,2063;0,00841606
2125,1707;0,00839891
2126,1348;0,00841923
2127,0991;0,00847731
2128,0632;0,008558
2129,0276;0,00863545
2129,9917;0,00868687
2130,9561;0,00870682
2131,9202;0,00871191
2132,8845;0,00873099
2133,8486;0,00878511
2134,8130;0,0088696
2135,7771;0,00895182
2136,7415;0,00898875
2137,7056;0,00895351
2138,6699;0,00885316
2139,6340;0,00872688
2140,5984;0,00862628
2141,5625;0,00858989
2142,5269;0,00862565
2143,4910;0,00871032
2144,4553;0,00880507
2145,4194;0,00887778
2146,3838;0,0089189
2147,3479;0,00894169
2148,3123;0,00896716
2149,2764;0,00900365
2150,2407;0,00903476
2151,2048;0,0090245
2152,1692;0,00893844
2153,1333;0,00876998
2154,0977;0,00855723
2155,0618;0,00837969
2156,0261;0,00833075
2156,9902;0,00847091
2157,9546;0,00878288
2158,9187;0,00916847
2159,8831;0,00950709
2160,8472;0,00973029
2161,8115;0,00984379
2162,7756;0,0098905
2163,7400;0,00990265
2164,7041;0,00988156
2165,6685;0,00981002
2166,6326;0,00967971
2167,5969;0,00950947
2168,5610;0,00934115
2169,5254;0,00921877
2170,4895;0,009168
2171,4539;0,00918796
2172,4180;0,00925629
2173,3823;0,00934037
2174,3464;0,00940811
2175,3108;0,00943603
2176,2749;0,00941577
2177,2393;0,00935776
2178,2034;0,00928799
2179,1677;0,0092356
2180,1318;0,00921623
2181,0962;0,00922211
2182,0603;0,00922851
2183,0247;0,00921419
2183,9888;0,00917939
2184,9531;0,00914502
2185,9172;0,00913273
2186,8816;0,00914336
2187,8457;0,00915288
2188,8101;0,0091304
2189,7742;0,00906527
2190,7385;0,00898186
2191,7026;0,00892995
2192,6670;0,00895529
2193,6311;0,00906922
2194,5955;0,00923561
2195,5596;0,00938366
2196,5239;0,0094402
2197,4880;0,00936585
2198,4524;0,00917662
2199,4165;0,00893916
2200,3809;0,00874014
2201,3450;0,00864429
2202,3093;0,00866364
2203,2734;0,00875621
2204,2378;0,00885541
2205,2019;0,00891192
2206,1663;0,00892098
2207,1304;0,00891781
2208,0947;0,00894633
2209,0588;0,00902458
2210,0232;0,00913099
2210,9873;0,00921957
2211,9517;0,0092506
2212,9158;0,00921448
2213,8801;0,00913382
2214,8442;0,0090459
2215,8086;0,00898025
2216,7727;0,00894634
2217,7371;0,00893625
2218,7012;0,0089368
2219,6655;0,00894091
2220,6296;0,0089512
2221,5940;0,00897528
2222,5581;0,00901729
2223,5225;0,00907184
2224,4866;0,00912439
2225,4509;0,00915809
2226,4150;0,00916264
2227,3794;0,00913903
2228,3435;0,00909628
2229,3079;0,00904291
2230,2720;0,00897981
2231,2363;0,00890133
2232,2004;0,00880463
2233,1648;0,00869981
2234,1289;0,00861176
2235,0933;0,00856998
2236,0574;0,00859223
2237,0217;0,00867275
2237,9858;0,00878273
2238,9502;0,00888278
2239,9143;0,00893946
2240,8787;0,00893726
2241,8428;0,00888166
2242,8071;0,00879434
2243,7712;0,00870442
2244,7356;0,00863909
2245,6997;0,00861598
2246,6641;0,00863882
2247,6282;0,00869761
2248,5925;0,00877341
2249,5566;0,00884555
2250,5210;0,00889762
2251,4851;0,00892001
2252,4495;0,00890959
2253,4136;0,00886904
2254,3779;0,00880728
2255,3420;0,00873971
2256,3064;0,00868564
2257,2705;0,00866191
2258,2349;0,0086754
2259,1990;0,00871908
2260,1633;0,00877425
2261,1274;0,00881816
2262,0918;0,00883314
2263,0559;0,00881314
2264,0203;0,00876561
2264,9844;0,00870868
2265,9487;0,00866488
2266,9128;0,00865286
2267,8772;0,00867971
2268,8413;0,00873715
2269,8057;0,00880463
2270,7698;0,00885875
2271,7341;0,00888482
2272,6982;0,00888343
2273,6626;0,0088679
2274,6267;0,00885412
2275,5911;0,00885001
2276,5552;0,00885222
2277,5195;0,00885208
2278,4836;0,00884551
2279,4480;0,00883878
2280,4121;0,00884532
2281,3765;0,00887621
2282,3406;0,00893181
2283,3049;0,00900049
2284,2690;0,00906508
2285,2334;0,00911185
2286,1975;0,00913628
2287,1619;0,00914247
2288,1260;0,00913789
2289,0903;0,00912751
2290,0544;0,00911136
2291,0188;0,00908632
2291,9829;0,00905021
2292,9473;0,00900528
2293,9114;0,00895889
2294,8757;0,00892149
2295,8398;0,00890308
2296,8042;0,00890981
2297,7683;0,00894202
2298,7327;0,00899401
2299,6968;0,00905573
2300,6611;0,00911592
2301,6252;0,00916572
2302,5896;0,00920134
2303,5537;0,00922453
2304,5181;0,00924076
2305,4822;0,00925626
2306,4465;0,00927514
2307,4106;0,009298
2308,3750;0,00932241
2309,3391;0,00934512
2310,3035;0,00936486
2311,2676;0,0093844
2312,2319;0,00941052
2313,1960;0,0094516
2314,1604;0,0095136
2315,1245;0,00959637
2316,0889;0,00969197
2317,0530;0,00978617
2318,0173;0,00986304
2318,9814;0,00991138
2319,9458;0,00992956
2320,9099;0,0099249
2321,8743;0,00990641
2322,8384;0,00987685
2323,8027;0,00983199
2324,7668;0,00976799
2325,7312;0,00968918
2326,6953;0,0096095
2327,6597;0,00954614
2328,6238;0,00950877
2329,5881;0,00949121
2330,5522;0,00947378
2331,5166;0,00943738
2332,4807;0,00937822
2333,4451;0,00930958
2334,4092;0,00925005
2335,3735;0,00921007
2336,3376;0,00918711
2337,3020;0,00916981
2338,2661;0,00914447
2339,2305;0,00909614
2340,1946;0,00900565
2341,1589;0,00885415
2342,1230;0,00864551
2343,0874;0,00843336
2344,0515;0,00830872
2345,0159;0,00833529
2345,9800;0,00850587
2346,9443;0,00876715
2347,9084;0,00906254
2348,8728;0,00934912
2349,8369;0,00959645
2350,8013;0,00978546
2351,7654;0,0099154
2352,7297;0,010013
2353,6938;0,0101231
2354,6582;0,0102671
2355,6223;0,0104021
2356,5867;0,0104375
2357,5508;0,0103023
2358,5151;0,0100035
2359,4792;0,00962774
2360,4436;0,00928241
2361,4077;0,00902788
2362,3721;0,00885899
2363,3362;0,00873927
2364,3005;0,00864331
2365,2646;0,00857165
2366,2290;0,00853615
2367,1931;0,0085386
2368,1575;0,00856344
2369,1216;0,00858763
2370,0859;0,00859557
2371,0500;0,00858654
2372,0144;0,00857078
2372,9785;0,00855993
2373,9429;0,00855992
2374,9070;0,00857048
2375,8713;0,00858925
2376,8354;0,00861591
2377,7998;0,00865279
2378,7639;0,00870229
2379,7283;0,00876394
2380,6924;0,00883372
2381,6567;0,00890615
2382,6208;0,00897742
2383,5852;0,00904696
2384,5493;0,00911655
2385,5137;0,00918761
2386,4778;0,00925876
2387,4421;0,00932545
2388,4063;0,00938209
2389,3706;0,00942535
2390,3347;0,00945641
2391,2991;0,00948048
2392,2632;0,00950379
2393,2275;0,00952996
2394,1917;0,00955808
2395,1560;0,00958363
2396,1201;0,00960139
2397,0845;0,00960862
2398,0486;0,00960668
2399,0129;0,00960069
2399,9771;0,00959743
2400,9414;0,0096026
2401,9055;0,00961865
2402,8699;0,00964383
2403,8340;0,00967323
2404,7983;0,00970143
2405,7625;0,00972563
2406,7268;0,00974743
2407,6909;0,00977169
2408,6553;0,00980289
2409,6194;0,00984098
2410,5837;0,00987995
2411,5479;0,00991034
2412,5122;0,00992463
2413,4763;0,00992219
2414,4407;0,00991045
2415,4048;0,00990132
2416,3691;0,00990506
2417,3333;0,00992534
2418,2976;0,00995828
2419,2617;0,00999554
2420,2261;0,0100291
2421,1902;0,0100545
2422,1545;0,0100717
2423,1187;0,0100831
2424,0830;0,0100916
2425,0471;0,0100993
2426,0115;0,0101078
2426,9756;0,0101183
2427,9399;0,0101318
2428,9041;0,0101489
2429,8684;0,01017
2430,8325;0,0101957
2431,7969;0,0102277
2432,7610;0,010267
2433,7253;0,0103131
2434,6895;0,0103617
2435,6538;0,0104051
2436,6179;0,0104351
2437,5823;0,0104474
2438,5464;0,0104442
2439,5107;0,0104341
2440,4749;0,0104281
2441,4392;0,010434
2442,4033;0,0104535
2443,3677;0,0104821
2444,3318;0,0105131
2445,2961;0,010542
2446,2603;0,0105684
2447,2246;0,0105952
2448,1887;0,0106253
2449,1531;0,010659
2450,1172;0,0106928
2451,0815;0,0107207
2452,0457;0,0107374
2453,0100;0,0107399
2453,9741;0,0107289
2454,9385;0,0107085
2455,9026;0,0106849
2456,8669;0,0106654
2457,8311;0,0106569
2458,7954;0,0106642
2459,7595;0,0106881
2460,7239;0,0107252
2461,6880;0,0107682
2462,6523;0,0108087
2463,6165;0,0108397
2464,5808;0,0108582
2465,5449;0,0108654
2466,5093;0,0108659
2467,4734;0,0108653
2468,4377;0,0108683
2469,4019;0,0108779
2470,3662;0,0108948
2471,3303;0,0109177
2472,2947;0,0109439
2473,2588;0,0109688
2474,2231;0,0109877
2475,1873;0,0109968
2476,1516;0,0109961
2477,1157;0,0109902
2478,0801;0,0109874
2479,0442;0,0109955
2480,0085;0,0110179
2480,9727;0,0110498
2481,9370;0,0110808
2482,9011;0,0111002
2483,8655;0,0111034
2484,8296;0,0110947
2485,7939;0,0110852
2486,7581;0,0110858
2487,7224;0,011102
2488,6865;0,0111325
2489,6509;0,0111723
2490,6150;0,0112169
2491,5793;0,0112645
2492,5435;0,0113135
2493,5078;0,0113594
2494,4719;0,0113943
2495,4363;0,0114107
2496,4004;0,0114064
2497,3647;0,0113879
2498,3289;0,0113681
2499,2932;0,0113599
2500,2573;0,0113705
2501,2217;0,0113987
2502,1858;0,0114376
2503,1501;0,011478
2504,1143;0,0115127
2505,0786;0,0115363
2506,0427;0,0115462
2507,0071;0,0115428
2507,9712;0,0115296
2508,9355;0,011514
2509,8997;0,0115047
2510,8640;0,0115084
2511,8281;0,0115266
2512,7925;0,0115551
2513,7566;0,0115857
2514,7209;0,0116099
2515,6851;0,0116222
2516,6494;0,0116222
2517,6135;0,0116145
2518,5779;0,0116075
2519,5420;0,0116093
2520,5063;0,0116244
2521,4705;0,0116505
2522,4348;0,0116788
2523,3989;0,0116986
2524,3633;0,0117036
2525,3274;0,0116958
2526,2917;0,0116849
2527,2559;0,0116821
2528,2202;0,0116931
2529,1843;0,0117154
2530,1487;0,0117406
2531,1128;0,0117606
2532,0771;0,0117735
2533,0413;0,011783
2534,0056;0,0117947
2534,9697;0,0118113
2535,9341;0,0118303
2536,8982;0,0118466
2537,8625;0,0118564
2538,8267;0,01186
2539,7910;0,0118612
2540,7551;0,0118645
2541,7195;0,0118723
2542,6836;0,0118846
2543,6479;0,0118992
2544,6121;0,0119136
2545,5764;0,0119255
2546,5405;0,0119338
2547,5049;0,0119384
2548,4690;0,0119411
2549,4333;0,0119445
2550,3975;0,0119508
2551,3618;0,0119596
2552,3259;0,0119682
2553,2903;0,011973
2554,2544;0,0119726
2555,2188;0,01197
2556,1829;0,0119711
2557,1472;0,011982
2558,1113;0,0120049
2559,0757;0,0120378
2560,0398;0,0120752
2561,0042;0,0121115
2561,9683;0,0121422
2562,9326;0,0121641
2563,8967;0,0121757
2564,8611;0,0121772
2565,8252;0,0121712
2566,7896;0,0121639
2567,7537;0,0121623
2568,7180;0,012171
2569,6821;0,0121893
2570,6465;0,0122108
2571,6106;0,0122262
2572,5750;0,0122287
2573,5391;0,0122167
2574,5034;0,0121954
2575,4675;0,0121738
2576,4319;0,0121612
2577,3960;0,0121637
2578,3604;0,0121824
2579,3245;0,0122132
2580,2888;0,0122485
2581,2529;0,0122807
2582,2173;0,0123049
2583,1814;0,0123215
2584,1458;0,0123349
2585,1099;0,0123506
2586,0742;0,012371
2587,0383;0,0123938
2588,0027;0,0124137
2588,9668;0,0124267
2589,9312;0,0124337
2590,8953;0,0124407
2591,8596;0,0124557
2592,8237;0,0124833
2593,7881;0,0125208
2594,7522;0,012559
2595,7166;0,012587
2596,6807;0,0125981
2597,6450;0,0125939
2598,6091;0,0125847
2599,5735;0,0125837
2600,5376;0,0126009
2601,5020;0,0126374
2602,4661;0,0126856
2603,4304;0,0127326
2604,3945;0,0127674
2605,3589;0,0127858
2606,3230;0,0127919
2607,2874;0,012795
2608,2515;0,0128042
2609,2158;0,0128241
2610,1799;0,0128533
2611,1443;0,0128861
2612,1084;0,0129163
2613,0728;0,0129405
2614,0369;0,0129594
2615,0012;0,0129766
2615,9653;0,0129965
2616,9297;0,0130217
2617,8938;0,0130518
2618,8582;0,013084
2619,8223;0,0131147
2620,7866;0,0131415
2621,7507;0,0131635
2622,7151;0,0131816
2623,6792;0,0131972
2624,6436;0,0132117
2625,6077;0,0132269
2626,5720;0,013245
2627,5361;0,0132682
2628,5005;0,0132974
2629,4646;0,0133309
2630,4290;0,0133648
2631,3931;0,0133946
2632,3574;0,0134181
2633,3215;0,013436
2634,2859;0,0134523
2635,2500;0,0134709
2636,2144;0,013494
2637,1785;0,0135214
2638,1428;0,0135514
2639,1069;0,0135822
2640,0713;0,0136135
2641,0354;0,0136455
2641,9998;0,0136788
2642,9639;0,0137125
2643,9282;0,0137453
2644,8923;0,0137749
2645,8567;0,0137994
2646,8208;0,0138181
2647,7852;0,0138319
2648,7493;0,0138432
2649,7136;0,0138559
2650,6777;0,0138734
2651,6421;0,0138974
2652,6062;0,0139266
2653,5706;0,0139575
2654,5347;0,0139859
2655,4990;0,0140094
2656,4631;0,0140286
2657,4275;0,0140466
2658,3916;0,0140668
2659,3560;0,0140908
2660,3201;0,0141173
2661,2844;0,0141426
2662,2485;0,014163
2663,2129;0,0141766
2664,1770;0,0141846
2665,1414;0,0141898
2666,1055;0,0141957
2667,0698;0,0142047
2668,0339;0,0142171
2668,9983;0,0142322
2669,9624;0,0142491
2670,9268;0,0142683
2671,8909;0,0142913
2672,8552;0,0143195
2673,8193;0,0143534
2674,7837;0,0143912
2675,7478;0,0144291
2676,7122;0,0144626
2677,6763;0,0144885
2678,6406;0,0145067
2679,6047;0,0145204
2680,5691;0,0145358
2681,5332;0,0145588
2682,4976;0,0145928
2683,4617;0,0146368
2684,4260;0,0146851
2685,3901;0,0147305
2686,3545;0,0147676
2687,3186;0,0147951
2688,2830;0,0148159
2689,2471;0,0148348
2690,2114;0,0148555
2691,1755;0,0148791
2692,1399;0,0149041
2693,1040;0,0149288
2694,0684;0,014953
2695,0325;0,0149783
2695,9968;0,0150067
2696,9609;0,0150393
2697,9253;0,0150754
2698,8894;0,0151127
2699,8538;0,0151495
2700,8179;0,0151854
2701,7822;0,0152213
2702,7463;0,015259
2703,7107;0,0152989
2704,6748;0,0153396
2705,6392;0,015378
2706,6033;0,0154109
2707,5676;0,015437
2708,5317;0,0154582
2709,4961;0,0154785
2710,4602;0,0155022
2711,4246;0,0155315
2712,3887;0,0155658
2713,3530;0,015603
2714,3171;0,0156409
2715,2815;0,0156789
2716,2456;0,0157172
2717,2100;0,0157554
2718,1741;0,0157917
2719,1384;0,015824
2720,1025;0,0158507
2721,0669;0,0158724
2722,0310;0,0158912
2722,9954;0,0159092
2723,9595;0,0159273
2724,9238;0,0159456
2725,8879;0,0159651
2726,8523;0,0159888
2727,8164;0,0160204
2728,7808;0,0160622
2729,7449;0,0161122
2730,7092;0,0161644
2731,6733;0,0162104
2732,6377;0,0162438
2733,6018;0,0162623
2734,5662;0,0162685
2735,5303;0,0162679
2736,4946;0,0162665
2737,4587;0,0162693
2738,4231;0,0162794
2739,3872;0,016298
2740,3516;0,0163251
2741,3157;0,0163584
2742,2800;0,0163942
2743,2441;0,016428
2744,2085;0,0164564
2745,1726;0,0164779
2746,1370;0,0164936
2747,1011;0,0165064
2748,0654;0,0165191
2749,0295;0,0165339
2749,9939;0,0165521
2750,9580;0,0165748
2751,9224;0,0166029
2752,8865;0,0166366
2753,8508;0,0166754
2754,8149;0,0167171
2755,7793;0,0167592
2756,7434;0,0167995
2757,7078;0,0168373
2758,6719;0,0168737
2759,6362;0,0169098
2760,6003;0,0169458
2761,5647;0,0169804
2762,5288;0,0170114
2763,4932;0,0170375
2764,4573;0,0170603
2765,4216;0,0170839
2766,3857;0,0171139
2767,3501;0,0171545
2768,3142;0,0172066
2769,2786;0,0172661
2770,2427;0,017326
2771,2070;0,017379
2772,1711;0,0174205
2773,1355;0,0174507
2774,0996;0,0174743
2775,0640;0,0174984
2776,0281;0,017529
2776,9924;0,0175696
2777,9565;0,0176202
2778,9209;0,0176786
2779,8850;0,0177418
2780,8494;0,017807
2781,8135;0,0178716
2782,7778;0,0179338
2783,7419;0,0179921
2784,7063;0,0180457
2785,6704;0,0180949
2786,6348;0,0181404
2787,5989;0,0181841
2788,5632;0,0182286
2789,5273;0,0182783
2790,4917;0,0183379
2791,4558;0,0184109
2792,4202;0,0184971
2793,3843;0,0185912
2794,3486;0,0186843
2795,3127;0,0187681
2796,2771;0,0188393
2797,2412;0,0189011
2798,2056;0,0189617
2799,1697;0,019029
2800,1340;0,0191066
2801,0981;0,0191932
2802,0625;0,019285
2803,0266;0,0193794
2803,9910;0,0194765
2804,9551;0,0195781
2805,9194;0,0196845
2806,8835;0,019793
2807,8479;0,0198986
2808,8120;0,0199981
2809,7764;0,0200922
2810,7405;0,0201862
2811,7048;0,0202867
2812,6689;0,0203987
2813,6333;0,0205227
2814,5974;0,0206555
2815,5618;0,0207929
2816,5259;0,0209316
2817,4902;0,0210713
2818,4543;0,0212135
2819,4187;0,0213601
2820,3828;0,0215116
2821,3472;0,0216674
2822,3113;0,0218264
2823,2756;0,0219889
2824,2397;0,022158
2825,2041;0,0223387
2826,1682;0,0225355
2827,1326;0,0227499
2828,0967;0,022979
2829,0610;0,023217
2830,0251;0,0234582
2830,9895;0,0237004
2831,9536;0,0239458
2832,9180;0,0241993
2833,8821;0,0244651
2834,8464;0,0247449
2835,8105;0,0250382
2836,7749;0,0253451
2837,7390;0,0256685
2838,7034;0,0260153
2839,6675;0,0263947
2840,6318;0,0268148
2841,5959;0,0272797
2842,5603;0,0277879
2843,5244;0,0283326
2844,4888;0,0289026
2845,4529;0,0294834
2846,4172;0,0300581
2847,3813;0,0306072
2848,3457;0,0311101
2849,3098;0,0315459
2850,2742;0,0318966
2851,2383;0,0321504
2852,2026;0,0323053
2853,1667;0,03237
2854,1311;0,0323616
2855,0952;0,0323009
2856,0596;0,0322077
2857,0237;0,0320981
2857,9880;0,0319854
2858,9521;0,0318821
2859,9165;0,0318008
2860,8806;0,0317528
2861,8450;0,0317452
2862,8091;0,0317786
2863,7734;0,0318482
2864,7375;0,031947
2865,7019;0,032069
2866,6660;0,0322093
2867,6304;0,0323626
2868,5945;0,0325203
2869,5588;0,0326709
2870,5229;0,0328026
2871,4873;0,0329072
2872,4514;0,0329844
2873,4158;0,0330406
2874,3799;0,0330867
2875,3442;0,0331336
2876,3083;0,0331893
2877,2727;0,0332573
2878,2368;0,0333373
2879,2012;0,0334273
2880,1653;0,0335241
2881,1296;0,0336259
2882,0938;0,0337321
2883,0581;0,0338437
2884,0222;0,033962
2884,9866;0,0340879
2885,9507;0,0342209
2886,9150;0,0343594
2887,8792;0,034502
2888,8435;0,0346473
2889,8076;0,0347948
2890,7720;0,034943
2891,7361;0,0350896
2892,7004;0,0352311
2893,6646;0,035365
2894,6289;0,0354913
2895,5930;0,0356127
2896,5574;0,035734
2897,5215;0,0358596
2898,4858;0,0359911
2899,4500;0,0361266
2900,4143;0,0362608
2901,3784;0,0363879
2902,3428;0,0365034
2903,3069;0,0366075
2904,2712;0,0367052
2905,2354;0,0368055
2906,1997;0,0369183
2907,1638;0,0370517
2908,1282;0,0372097
2909,0923;0,0373933
2910,0566;0,0376028
2911,0208;0,0378391
2911,9851;0,038103
2912,9492;0,0383919
2913,9136;0,0386959
2914,8777;0,038997
2915,8420;0,0392723
2916,8062;0,0395009
2917,7705;0,0396696
2918,7346;0,0397751
2919,6990;0,0398219
2920,6631;0,0398167
2921,6274;0,0397649
2922,5916;0,0396678
2923,5559;0,0395247
2924,5200;0,0393348
2925,4844;0,039099
2926,4485;0,0388209
2927,4128;0,0385065
2928,3770;0,0381634
2929,3413;0,0378004
2930,3054;0,0374258
2931,2698;0,0370469
2932,2339;0,0366683
2933,1982;0,036292
2934,1624;0,0359178
2935,1267;0,0355443
2936,0908;0,0351701
2937,0552;0,0347941
2938,0193;0,0344165
2938,9836;0,0340388
2939,9478;0,0336636
2940,9121;0,0332938
2941,8762;0,0329317
2942,8406;0,0325789
2943,8047;0,0322376
2944,7690;0,0319116
2945,7332;0,0316062
2946,6975;0,0313271
2947,6616;0,031077
2948,6260;0,0308538
2949,5901;0,030651
2950,5544;0,03046
2951,5186;0,0302743
2952,4829;0,0300911
2953,4470;0,0299108
2954,4114;0,0297342
2955,3755;0,0295595
2956,3398;0,0293816
2957,3040;0,0291944
2958,2683;0,0289937
2959,2324;0,02878
2960,1968;0,0285583
2961,1609;0,0283355
2962,1252;0,0281176
2963,0894;0,0279062
2964,0537;0,0276985
2965,0178;0,0274888
2965,9822;0,0272706
2966,9463;0,0270397
2967,9106;0,0267951
2968,8748;0,0265388
2969,8391;0,0262758
2970,8032;0,0260129
2971,7676;0,0257577
2972,7317;0,0255176
2973,6960;0,0252971
2974,6602;0,0250968
2975,6245;0,0249118
2976,5886;0,0247344
2977,5530;0,0245577
2978,5171;0,0243799
2979,4814;0,0242058
2980,4456;0,0240451
2981,4099;0,0239074
2982,3740;0,0237972
2983,3384;0,0237119
2984,3025;0,0236427
2985,2668;0,0235791
2986,2310;0,0235124
2987,1953;0,023438
2988,1594;0,0233562
2989,1238;0,0232706
2990,0879;0,0231873
2991,0522;0,0231133
2992,0164;0,0230552
2992,9807;0,0230173
2993,9448;0,0230005
2994,9092;0,0230018
2995,8733;0,0230163
2996,8376;0,0230383
2997,8018;0,0230638
2998,7661;0,0230905
2999,7302;0,0231174
3000,6946;0,0231447
3001,6587;0,0231737
3002,6230;0,0232064
3003,5872;0,0232449
3004,5515;0,0232894
3005,5156;0,0233366
3006,4800;0,0233803
3007,4441;0,0234127
3008,4084;0,0234289
3009,3726;0,0234288
3010,3369;0,0234182
3011,3010;0,0234065
3012,2654;0,0234025
3013,2295;0,0234115
3014,1938;0,0234345
3015,1580;0,0234694
3016,1223;0,0235139
3017,0864;0,0235671
3018,0508;0,0236287
3019,0149;0,0236971
3019,9792;0,0237683
3020,9434;0,0238367
3021,9077;0,0238976
3022,8718;0,0239505
3023,8362;0,0240005
3024,8003;0,0240559
3025,7646;0,0241243
3026,7288;0,0242076
3027,6931;0,0243004
3028,6572;0,0243922
3029,6216;0,0244729
3030,5857;0,024538
3031,5500;0,0245907
3032,5142;0,0246407
3033,4785;0,024699
3034,4426;0,0247731
3035,4070;0,0248648
3036,3711;0,0249705
3037,3354;0,0250844
3038,2996;0,0251999
3039,2639;0,0253119
3040,2280;0,0254175
3041,1924;0,0255165
3042,1565;0,0256118
3043,1208;0,025709
3044,0850;0,0258131
3045,0493;0,0259264
3046,0134;0,0260464
3046,9778;0,0261674
3047,9419;0,0262834
3048,9063;0,0263921
3049,8704;0,0264955
3050,8347;0,026598
3051,7988;0,0267033
3052,7632;0,0268119
3053,7273;0,0269221
3054,6917;0,0270323
3055,6558;0,0271431
3056,6201;0,0272575
3057,5842;0,0273787
3058,5486;0,0275082
3059,5127;0,027645
3060,4771;0,0277854
3061,4412;0,027925
3062,4055;0,0280592
3063,3696;0,0281843
3064,3340;0,0282986
3065,2981;0,0284032
3066,2625;0,0285024
3067,2266;0,0286028
3068,1909;0,0287104
3069,1550;0,0288287
3070,1194;0,0289576
3071,0835;0,0290939
3072,0479;0,0292331
3073,0120;0,029371
3073,9763;0,0295044
3074,9404;0,0296314
3075,9048;0,0297508
3076,8689;0,0298622
3077,8333;0,0299654
3078,7974;0,0300615
3079,7617;0,030153
3080,7258;0,030244
3081,6902;0,0303401
3082,6543;0,0304465
3083,6187;0,0305657
3084,5828;0,0306962
3085,5471;0,0308329
3086,5112;0,0309698
3087,4756;0,031103
3088,4397;0,0312322
3089,4041;0,0313592
3090,3682;0,0314852
3091,3325;0,0316092
3092,2966;0,031729
3093,2610;0,0318439
3094,2251;0,0319566
3095,1895;0,0320726
3096,1536;0,0321959
3097,1179;0,0323258
3098,0820;0,0324561
3099,0464;0,0325794
3100,0105;0,0326924
3100,9749;0,0327994
3101,9390;0,0329108
3102,9033;0,0330367
3103,8674;0,0331812
3104,8318;0,0333399
3105,7959;0,0335024
3106,7603;0,0336592
3107,7244;0,033806
3108,6887;0,0339456
3109,6528;0,0340841
3110,6172;0,0342257
3111,5813;0,0343699
3112,5457;0,0345121
3113,5098;0,0346485
3114,4741;0,0347795
3115,4382;0,0349103
3116,4026;0,035047
3117,3667;0,0351928
3118,3311;0,0353452
3119,2952;0,035499
3120,2595;0,0356496
3121,2236;0,0357966
3122,1880;0,0359431
3123,1521;0,0360924
3124,1165;0,0362452
3125,0806;0,0363991
3126,0449;0,0365508
3127,0090;0,0366981
3127,9734;0,0368421
3128,9375;0,0369857
3129,9019;0,037133
3130,8660;0,0372877
3131,8303;0,0374524
3132,7944;0,0376275
3133,7588;0,0378099
3134,7229;0,0379937
3135,6873;0,0381714
3136,6514;0,0383373
3137,6157;0,0384913
3138,5798;0,0386383
3139,5442;0,0387865
3140,5083;0,0389429
3141,4727;0,0391099
3142,4368;0,0392856
3143,4011;0,0394662
3144,3652;0,039648
3145,3296;0,039829
3146,2937;0,0400078
3147,2581;0,0401827
3148,2222;0,040352
3149,1865;0,0405155
3150,1506;0,0406758
3151,1150;0,0408378
3152,0791;0,0410058
3153,0435;0,041181
3154,0076;0,0413599
3154,9719;0,041537
3155,9360;0,0417077
3156,9004;0,041871
3157,8645;0,0420302
3158,8289;0,0421903
3159,7930;0,0423558
3160,7573;0,0425284
3161,7214;0,0427079
3162,6858;0,0428925
3163,6499;0,0430802
3164,6143;0,0432686
3165,5784;0,043455
3166,5427;0,043637
3167,5068;0,0438138
3168,4712;0,0439873
3169,4353;0,0441698
3170,3997;0,0443489
3171,3638;0,0445336
3172,3281;0,0447204
3173,2922;0,0449028
3174,2566;0,0450754
3175,2207;0,0452377
3176,1851;0,0453954
3177,1492;0,0455581
3178,1135;0,0457336
3179,0776;0,0459232
3180,0420;0,0461203
3181,0061;0,0463133
3181,9705;0,0464928
3182,9346;0,0466559
3183,8989;0,0468084
3184,8630;0,0469609
3185,8274;0,0471234
3186,7915;0,0473
3187,7559;0,0474884
3188,7200;0,0476824
3189,6843;0,0478762
3190,6484;0,0480659
3191,6128;0,04825
3192,5769;0,0484279
3193,5413;0,0485989
3194,5054;0,0487636
3195,4697;0,0489246
3196,4338;0,049086
3197,3982;0,0492506
3198,3623;0,0494179
3199,3267;0,0495833
3200,2908;0,0497417
3201,2551;0,0498911
3202,2192;0,0500357
3203,1836;0,0501843
3204,1477;0,050346
3205,1121;0,0505247
3206,0762;0,0507169
3207,0405;0,0509127
3208,0046;0,0511007
3208,9690;0,0512723
3209,9331;0,0514251
3210,8975;0,0515635
3211,8616;0,0516963
3212,8259;0,051833
3213,7900;0,0519805
3214,7544;0,0521407
3215,7185;0,0523103
3216,6829;0,0524829
3217,6470;0,0526517
3218,6113;0,052813
3219,5754;0,0529669
3220,5398;0,0531171
3221,5039;0,0532677
3222,4683;0,0534213
3223,4324;0,0535775
3224,3967;0,0537341
3225,3608;0,0538893
3226,3252;0,0540437
3227,2893;0,0542008
3228,2537;0,0543636
3229,2178;0,0545322
3230,1821;0,0547015
3231,1462;0,0548634
3232,1106;0,0550115
3233,0747;0,0551461
3234,0391;0,0552744
3235,0032;0,0554077
3235,9675;0,0555549
3236,9316;0,055718
3237,8960;0,0558922
3238,8601;0,0560698
3239,8245;0,0562449
3240,7886;0,0564162
3241,7529;0,0565857
3242,7170;0,0567554
3243,6814;0,0569256
3244,6455;0,0570956
3245,6099;0,0572656
3246,5740;0,0574379
3247,5383;0,0576156
3248,5024;0,0577998
3249,4668;0,0579873
3250,4309;0,0581713
3251,3953;0,058346
3252,3594;0,0585102
3253,3237;0,0586696
3254,2878;0,0588343
3255,2522;0,0590135
3256,2163;0,0592105
3257,1807;0,0594214
3258,1448;0,0596369
3259,1091;0,0598468
3260,0732;0,0600438
3261,0376;0,0602249
3262,0017;0,0603913
3262,9661;0,0605464
3263,9302;0,060695
3264,8945;0,0608416
3265,8586;0,0609893
3266,8230;0,0611397
3267,7871;0,0612914
3268,7515;0,0614402
3269,7156;0,0615806
3270,6799;0,0617068
3271,6440;0,0618155
3272,6084;0,0619066
3273,5725;0,061984
3274,5369;0,0620542
3275,5010;0,0621242
3276,4653;0,0621987
3277,4294;0,0622785
3278,3938;0,0623593
3279,3579;0,0624348
3280,3223;0,0624993
3281,2864;0,0625519
3282,2507;0,0625975
3283,2148;0,0626455
3284,1792;0,0627043
3285,1433;0,0627763
3286,1077;0,0628557
3287,0718;0,0629309
3288,0361;0,0629897
3289,0002;0,0630261
3289,9646;0,0630424
3290,9287;0,0630474
3291,8931;0,0630518
3292,8572;0,063062
3293,8215;0,0630784
3294,7856;0,0630964
3295,7500;0,0631105
3296,7141;0,0631175
3297,6785;0,0631171
3298,6426;0,0631119
3299,6069;0,0631056
3300,5710;0,0631019
3301,5354;0,0631036
3302,4995;0,0631114
3303,4639;0,0631237
3304,4280;0,0631356
3305,3923;0,0631416
3306,3564;0,0631369
3307,3208;0,0631213
3308,2849;0,0630994
3309,2493;0,0630797
3310,2134;0,0630706
3311,1777;0,0630772
3312,1418;0,0630992
3313,1062;0,0631327
3314,0703;0,0631728
3315,0347;0,0632176
3315,9988;0,0632695
3316,9631;0,0633334
3317,9272;0,0634126
3318,8916;0,0635056
3319,8557;0,0636047
3320,8201;0,0636997
3321,7842;0,0637825
3322,7485;0,0638523
3323,7126;0,0639148
3324,6770;0,0639789
3325,6411;0,0640509
3326,6055;0,0641313
3327,5696;0,0642155
3328,5339;0,0642969
3329,4980;0,0643712
3330,4624;0,0644361
3331,4265;0,064491
3332,3909;0,0645344
3333,3550;0,0645639
3334,3193;0,0645774
3335,2834;0,0645737
3336,2478;0,0645534
3337,2119;0,0645175
3338,1763;0,0644663
3339,1404;0,0643993
3340,1047;0,0643164
3341,0688;0,0642193
3342,0332;0,0641116
3342,9973;0,0639978
3343,9617;0,0638818
3344,9258;0,0637657
3345,8901;0,0636489
3346,8542;0,0635288
3347,8186;0,0634009
3348,7827;0,0632611
3349,7471;0,0631071
3350,7112;0,0629406
3351,6755;0,0627679
3352,6396;0,0625976
3353,6040;0,0624374
3354,5681;0,0622909
3355,5325;0,0621562
3356,4966;0,0620283
3357,4609;0,0619021
3358,4250;0,0617761
3359,3894;0,0616518
3360,3535;0,0615319
3361,3179;0,0614176
3362,2820;0,0613063
3363,2463;0,0611936
3364,2104;0,0610746
3365,1748;0,0609466
3366,1389;0,0608094
3367,1033;0,0606643
3368,0674;0,0605128
3369,0317;0,0603568
3369,9958;0,0601986
3370,9602;0,0600422
3371,9243;0,0598923
3372,8887;0,0597528
3373,8528;0,0596247
3374,8171;0,0595049
3375,7813;0,0593876
3376,7456;0,0592673
3377,7097;0,0591417
3378,6741;0,0590123
3379,6382;0,0588827
3380,6025;0,0587549
3381,5667;0,0586288
3382,5310;0,0585031
3383,4951;0,0583786
3384,4595;0,0582595
3385,4236;0,0581511
3386,3879;0,0580545
3387,3521;0,0579635
3388,3164;0,0578666
3389,2805;0,0577524
3390,2449;0,0576176
3391,2090;0,0574695
3392,1733;0,0573218
3393,1375;0,0571867
3394,1018;0,0570675
3395,0659;0,0569578
3396,0303;0,0568473
3396,9944;0,0567281
3397,9587;0,0565991
3398,9229;0,0564638
3399,8872;0,0563268
3400,8513;0,0561899
3401,8157;0,056052
3402,7798;0,0559106
3403,7441;0,0557646
3404,7083;0,0556147
3405,6726;0,0554631
3406,6367;0,0553118
3407,6011;0,0551613
3408,5652;0,0550093
3409,5295;0,0548516
3410,4937;0,0546841
3411,4580;0,0545055
3412,4221;0,0543201
3413,3865;0,0541358
3414,3506;0,0539598
3415,3149;0,0537931
3416,2791;0,0536283
3417,2434;0,0534526
3418,2075;0,053256
3419,1719;0,0530382
3420,1360;0,0528105
3421,1003;0,0525896
3422,0645;0,0523878
3423,0288;0,0522069
3423,9929;0,052039
3424,9573;0,0518739
3425,9214;0,0517049
3426,8857;0,0515315
3427,8499;0,0513565
3428,8142;0,0511816
3429,7783;0,0510041
3430,7427;0,0508185
3431,7068;0,0506201
3432,6711;0,0504088
3433,6353;0,0501896
3434,5996;0,0499697
3435,5637;0,0497547
3436,5281;0,0495461
3437,4922;0,0493422
3438,4565;0,0491415
3439,4207;0,0489445
3440,3850;0,0487526
3441,3491;0,0485647
3442,3135;0,0483741
3443,2776;0,0481702
3444,2419;0,0479437
3445,2061;0,0476942
3446,1704;0,0474329
3447,1345;0,0471785
3448,0989;0,0469463
3449,0630;0,0467392
3450,0273;0,0465479
3450,9915;0,0463582
3451,9558;0,0461594
3452,9199;0,0459494
3453,8843;0,0457335
3454,8484;0,0455189
3455,8127;0,0453093
3456,7769;0,0451029
3457,7412;0,0448951
3458,7053;0,0446824
3459,6697;0,0444649
3460,6338;0,044246
3461,5981;0,044029
3462,5623;0,0438141
3463,5266;0,0435981
3464,4907;0,0433765
3465,4551;0,0431476
3466,4192;0,0429148
3467,3835;0,0426849
3468,3477;0,0424636
3469,3120;0,0422508
3470,2761;0,0420398
3471,2405;0,0418227
3472,2046;0,0415975
3473,1689;0,0413718
3474,1331;0,0411593
3475,0974;0,0409693
3476,0615;0,0407973
3477,0259;0,0406245
3477,9900;0,0404279
3478,9543;0,0401944
3479,9185;0,0399313
3480,8828;0,0396637
3481,8469;0,0394193
3482,8113;0,0392098
3483,7754;0,0390245
3484,7397;0,0388387
3485,7039;0,0386313
3486,6682;0,0383975
3487,6323;0,0381503
3488,5967;0,0379112
3489,5608;0,0376948
3490,5251;0,0375004
3491,4893;0,0373138
3492,4536;0,0371186
3493,4177;0,0369076
3494,3821;0,0366887
3495,3462;0,0364794
3496,3105;0,0362942
3497,2747;0,0361309
3498,2390;0,0359681
3499,2031;0,0357755
3500,1675;0,0355314
3501,1316;0,03524
3502,0959;0,034936
3503,0601;0,0346671
3504,0244;0,0344633
3504,9885;0,0343156
3505,9529;0,034184
3506,9170;0,0340226
3507,8813;0,0338049
3508,8455;0,0335371
3509,8098;0,0332527
3510,7739;0,03299
3511,7383;0,0327686
3512,7024;0,0325821
3513,6667;0,0324106
3514,6309;0,0322382
3515,5952;0,0320632
3516,5593;0,0318953
3517,5237;0,0317438
3518,4878;0,0316073
3519,4521;0,0314715
3520,4163;0,0313174
3521,3806;0,0311325
3522,3447;0,0309169
3523,3091;0,0306799
3524,2732;0,0304308
3525,2375;0,0301718
3526,2017;0,0299021
3527,1660;0,0296271
3528,1301;0,0293649
3529,0945;0,0291393
3530,0586;0,0289644
3531,0229;0,0288323
3531,9871;0,0287149
3532,9514;0,0285764
3533,9155;0,0283909
3534,8799;0,028156
3535,8440;0,0278968
3536,8083;0,0276556
3537,7725;0,0274704
3538,7368;0,0273548
3539,7009;0,0272916
3540,6653;0,027239
3541,6294;0,0271439
3542,5938;0,0269612
3543,5579;0,0266773
3544,5222;0,0263273
3545,4863;0,0259848
3546,4507;0,0257166
3547,4148;0,0255387
3548,3792;0,0254126
3549,3433;0,0252752
3550,3076;0,0250779
3551,2717;0,0248121
3552,2361;0,0245146
3553,2002;0,024244
3554,1646;0,0240412
3555,1287;0,023906
3556,0930;0,023806
3557,0571;0,0237052
3558,0215;0,023589
3558,9856;0,0234734
3559,9500;0,0233909
3560,9141;0,0233595
3561,8784;0,0233571
3562,8425;0,0233172
3563,8069;0,0231471
3564,7710;0,0227735
3565,7354;0,022211
3566,6995;0,0216016
3567,6638;0,0211293
3568,6279;0,0208745
3569,5923;0,0207854
3570,5564;0,0207615
3571,5208;0,0207232
3572,4849;0,0206324
3573,4492;0,0204891
3574,4133;0,0203166
3575,3777;0,0201401
3576,3418;0,0199691
3577,3062;0,0197993
3578,2703;0,0196303
3579,2346;0,0194813
3580,1987;0,0193855
3581,1631;0,0193646
3582,1272;0,0194032
3583,0916;0,01944
3584,0557;0,0193814
3585,0200;0,0191408
3585,9841;0,0187067
3586,9485;0,0181952
3587,9126;0,01779
3588,8770;0,0175923
3589,8411;0,0175617
3590,8054;0,0175843
3591,7695;0,0175524
3592,7339;0,0174066
3593,6980;0,0171544
3594,6624;0,016862
3595,6265;0,0166037
3596,5908;0,0164045
3597,5549;0,0162331
3598,5193;0,0160462
3599,4834;0,0158372
3600,4478;0,0156484
3601,4119;0,0155359
3602,3762;0,0155209
3603,3403;0,0155698
3604,3047;0,0156146
3605,2688;0,0155878
3606,2332;0,015457
3607,1973;0,0152436
3608,1616;0,015007
3609,1257;0,0147981
3610,0901;0,014628
3611,0542;0,0144826
3612,0186;0,0143548
3612,9827;0,0142557
3613,9470;0,0141942
3614,9111;0,0141486
3615,8755;0,0140572
3616,8396;0,0138443
3617,8040;0,0134768
3618,7681;0,013021
3619,7324;0,0126324
3620,6965;0,0124535
3621,6609;0,012523
3622,6250;0,0127829
3623,5894;0,0131295
3624,5535;0,0134374
3625,5178;0,0135568
3626,4819;0,0133361
3627,4463;0,0127269
3628,4104;0,0119191
3629,3748;0,0112518
3630,3389;0,0109045
3631,3032;0,0108091
3632,2673;0,0108156
3633,2317;0,0108157
3634,1958;0,0107661
3635,1602;0,0106736
3636,1243;0,0105675
3637,0886;0,0104742
3638,0527;0,0104041
3639,0171;0,0103607
3639,9812;0,0103561
3640,9456;0,0104174
3641,9097;0,0105732
3642,8740;0,0108302
3643,8381;0,0111532
3644,8025;0,0114492
3645,7666;0,0115583
3646,7310;0,0112818
3647,6951;0,0105325
3648,6594;0,00956379
3649,6235;0,00885652
3650,5879;0,00862632
3651,5520;0,00872532
3652,5164;0,00891852
3653,4805;0,0090331
3654,4448;0,0089749
3655,4089;0,00873932
3656,3733;0,00841795
3657,3374;0,00814317
3658,3018;0,00799257
3659,2659;0,00795493
3660,2302;0,00797811
3661,1943;0,00802946
3662,1587;0,00811952
3663,1228;0,00828174
3664,0872;0,00852864
3665,0513;0,00881938
3666,0156;0,00906126
3666,9797;0,00914579
3667,9441;0,0090214
3668,9082;0,00877185
3669,8726;0,00858579
3670,8367;0,00858319
3671,8010;0,00870041
3672,7651;0,00874875
3673,7295;0,00854088
3674,6936;0,00802778
3675,6580;0,00738878
3676,6221;0,00690422
3677,5864;0,00669958
3678,5505;0,00670775
3679,5149;0,00681472
3680,4790;0,00695624
3681,4434;0,00712781
3682,4075;0,00735508
3683,3718;0,00765317
3684,3359;0,00799413
3685,3003;0,00829386
3686,2644;0,0084231
3687,2288;0,00825819
3688,1929;0,00778758
3689,1572;0,00719349
3690,1213;0,00673855
3691,0857;0,00654396
3692,0498;0,00655596
3693,0142;0,00666935
3693,9783;0,0068115
3694,9426;0,00695297
3695,9067;0,00708765
3696,8711;0,00720876
3697,8352;0,00729336
3698,7996;0,00730497
3699,7637;0,00721771
3700,7280;0,00705096
3701,6921;0,00688196
3702,6565;0,00680803
3703,6206;0,00688561
3704,5850;0,00710451
3705,5491;0,0074041
3706,5134;0,00769409
3707,4775;0,00786371
3708,4419;0,00779965
3709,4060;0,00744723
3710,3704;0,0069021
3711,3345;0,00640246
3712,2988;0,00614783
3713,2629;0,00616198
3714,2273;0,00635148
3715,1914;0,00661048
3716,1558;0,00686159
3717,1199;0,00705733
3718,0842;0,00717808
3719,0483;0,00723069
3720,0127;0,00723789
3720,9768;0,00721671
3721,9412;0,0071641
3722,9053;0,00706837
3723,8696;0,00693983
3724,8337;0,00682902
3725,7981;0,00680638
3726,7622;0,00691824
3727,7266;0,00716118
3728,6907;0,00748937
3729,6550;0,00783232
3730,6191;0,00810375
3731,5835;0,00820518
3732,5476;0,00804638
3733,5120;0,00760874
3734,4761;0,00702486
3735,4404;0,00654865
3736,4045;0,00637431
3737,3689;0,0065211
3738,3330;0,00689487
3739,2974;0,00737693
3740,2615;0,0078472
3741,2258;0,00817688
3742,1899;0,00825127
3743,1543;0,0080598
3744,1184;0,00777701
3745,0828;0,00764742
3746,0469;0,00774811
3747,0112;0,00794528
3747,9753;0,00801806
3748,9397;0,00778056
3749,9038;0,00722024
3750,8682;0,00659252
3751,8323;0,00623077
3752,7966;0,00623076
3753,7607;0,00645463
3754,7251;0,00671902
3755,6892;0,0068871
3756,6536;0,00688733
3757,6177;0,00673274
3758,5820;0,00652401
3759,5461;0,00638851
3760,5105;0,00639235
3761,4746;0,00651637
3762,4390;0,0066973
3763,4031;0,00687154
3764,3674;0,00699397
3765,3315;0,00703928
3766,2959;0,00699619
3767,2600;0,00686376
3768,2244;0,00665779
3769,1885;0,00642349
3770,1528;0,00623326
3771,1169;0,00615596
3772,0813;0,00621821
3773,0454;0,00639213
3774,0098;0,00661189
3774,9739;0,00679813
3775,9382;0,0068814
3776,9023;0,00683034
3777,8667;0,00667766
3778,8308;0,00651035
3779,7952;0,00640994
3780,7593;0,00639605
3781,7236;0,00642935
3782,6877;0,00645456
3783,6521;0,00643751
3784,6162;0,00637849
3785,5806;0,00630474
3786,5447;0,00625183
3787,5090;0,00624675
3788,4731;0,00630104
3789,4375;0,0064109
3790,4016;0,0065589
3791,3660;0,00671747
3792,3301;0,00685822
3793,2944;0,00696773
3794,2585;0,00706029
3795,2229;0,00717123
3796,1870;0,00732427
3797,1514;0,00749503
3798,1155;0,00760565
3799,0798;0,00756716
3800,0439;0,00735595
3801,0083;0,00706328
3801,9724;0,0068346
3802,9368;0,0067376
3803,9009;0,00671442
3804,8652;0,00665139
3805,8293;0,00647903
3806,7937;0,00624003
3807,7578;0,00607299
3808,7222;0,00610189
3809,6863;0,00634354
3810,6506;0,00671983
3811,6147;0,00711643
3812,5791;0,00742549
3813,5432;0,00758111
3814,5076;0,0075972
3815,4717;0,00756148
3816,4360;0,00755045
3817,4001;0,00754695
3818,3645;0,00745831
3819,3286;0,00721204
3820,2930;0,00684568
3821,2571;0,00650285
3822,2214;0,00631298
3823,1855;0,00629332
3824,1499;0,00637751
3825,1140;0,00649168
3826,0784;0,00659488
3827,0425;0,00668284
3828,0068;0,00677391
3828,9709;0,00688951
3829,9353;0,0070405
3830,8994;0,00722524
3831,8638;0,00743306
3832,8279;0,00764298
3833,7922;0,00781678
3834,7563;0,00789673
3835,7207;0,00782186
3836,6848;0,00756788
3837,6492;0,00718733
3838,6133;0,00679717
3839,5776;0,00650136
3840,5417;0,00632762
3841,5061;0,00624244
3842,4702;0,00620765
3843,4346;0,00621927
3844,3987;0,00630988
3845,3630;0,006524
3846,3271;0,00688832
3847,2915;0,00739372
3848,2556;0,00798591
3849,2200;0,00855023
3850,1841;0,00888982
3851,1484;0,00874629
3852,1125;0,00798454
3853,0769;0,00690075
3854,0410;0,00608455
3855,0054;0,00580526
3855,9695;0,005928
3856,9338;0,00624666
3857,8979;0,0066236
3858,8623;0,00696873
3859,8264;0,00721043
3860,7908;0,00730084
3861,7549;0,00724735
3862,7192;0,0071315
3863,6833;0,0070668
3864,6477;0,00711519
3865,6118;0,00724876
3866,5762;0,00738259
3867,5403;0,00742721
3868,5046;0,00732824
3869,4688;0,00709223
3870,4331;0,00678959
3871,3972;0,00652123
3872,3616;0,00636783
3873,3257;0,00636088
3874,2900;0,00648529
3875,2542;0,00669438
3876,2185;0,00692374
3877,1826;0,00710619
3878,1470;0,00719297
3879,1111;0,00717717
3880,0754;0,00709789
3881,0396;0,00700761
3882,0039;0,00692845
3882,9680;0,00684757
3883,9324;0,00675593
3884,8965;0,00668126
3885,8608;0,00667146
3886,8250;0,00674207
3887,7893;0,00684612
3888,7534;0,00689584
3889,7178;0,0068194
3890,6819;0,00662548
3891,6462;0,00642687
3892,6104;0,00636803
3893,5747;0,00651176
3894,5388;0,00681185
3895,5032;0,00717004
3896,4673;0,00749074
3897,4316;0,00770657
3898,3958;0,00778873
3899,3601;0,00774191
3900,3242;0,00758023
3901,2886;0,00731014
3902,2527;0,00695066
3903,2170;0,00656578
3904,1812;0,00625126
3905,1455;0,0060755
3906,1096;0,00604118
3907,0740;0,00610262
3908,0381;0,00620612
3909,0024;0,00631739
3909,9666;0,00642825
3910,9309;0,00654724
3911,8950;0,00668073
3912,8594;0,00681619
3913,8235;0,00691993
3914,7878;0,00695381
3915,7520;0,00690389
3916,7163;0,00680122
3917,6804;0,00670934
3918,6448;0,00667927
3919,6089;0,00671307
3920,5732;0,00676866
3921,5374;0,00679264
3922,5017;0,00675537
3923,4658;0,00667213
3924,4302;0,00659651
3925,3943;0,00658304
3926,3586;0,00664701
3927,3228;0,00675486
3928,2871;0,00684536
3929,2512;0,00686182
3930,2156;0,00678238
3931,1797;0,00663571
3932,1440;0,00648613
3933,1082;0,00639338
3934,0725;0,00638214
3935,0366;0,00644263
3936,0010;0,00654749
3936,9651;0,00666478
3937,9294;0,00676311
3938,8936;0,00681556
3939,8579;0,00680812
3940,8220;0,00675033
3941,7864;0,00667718
3942,7505;0,0066322
3943,7148;0,00663915
3944,6790;0,00668598
3945,6433;0,0067335
3946,6074;0,00674048
3947,5718;0,00668903
3948,5359;0,00659658
3949,5002;0,00650481
3950,4644;0,00645097
3951,4287;0,00644524
3952,3928;0,0064717
3953,3572;0,00650602
3954,3213;0,00653252
3955,2856;0,00654964
3956,2498;0,00656374
3957,2141;0,00657831
3958,1782;0,00658825
3959,1426;0,00658387
3960,1067;0,00656076
3961,0710;0,00652664
3962,0352;0,00649897
3962,9995;0,00649458
3963,9636;0,00651952
3964,9280;0,00656608
3965,8921;0,00661837
3966,8564;0,00666091
3967,8206;0,00668513
3968,7849;0,00669083
3969,7490;0,00668291
3970,7134;0,00666653
3971,6775;0,00664461
3972,6418;0,00661889
3973,6060;0,00659273
3974,5703;0,00657231
3975,5344;0,00656438
3976,4988;0,00657196
3977,4629;0,00659139
3978,4272;0,00661344
3979,3914;0,00662795
3980,3557;0,00662943
3981,3198;0,00662001
3982,2842;0,00660775
3983,2483;0,00660126
3984,2126;0,00660427
3985,1768;0,00661384
3986,1411;0,006623
3987,1052;0,00662559
3988,0696;0,00661977
3989,0337;0,00660827
3989,9980;0,00659612
3990,9622;0,0065877
3991,9265;0,00658536
3992,8906;0,0065899
3993,8550;0,0066011
3994,8191;0,00661724
3995,7834;0,0066342
3996,7476;0,00664596
3997,7119;0,00664763
3998,6760;0,00663917
3999,6404;0,00662684
4000,6045;0,0065242

##### Extended Information
[Comments]
Sample name
Comment
Username
Division
Organization;UNIVERSIDAD INDUSTRIAL DE SANTANDER

[Detailed Information]
Creation date;29/01/2025 1:34 p.m.

Data array type;Linear data array
Horizontal axis;Wavenumber [cm-1]
Vertical axis;Abs
Start;399,193 cm-1
End;4000,6 cm-1
Data interval;0,964233 cm-1
Data points;3736    

[Measurement Information]
Model name;FT/IR-4X1typeA
Serial No.;A035162111

Accessory;ATR PRO 4X
Accessory S/N;A021162126
Incident angle;45 deg

Measurement date;29/01/2025 1:34 p.m.

Light source;Standard
Detector;TGS
Accumulation;Auto (73)
Resolution;4 cm-1
Zero filling;On
Apodization;Cosine
Gain;Auto (8)
Aperture;Auto (7 mm)
Scan speed;Auto (2 mm/sec)
Filter;Auto (12800 Hz)

