TITLE;
DATA TYPE;INFRARED SPECTRUM
ORIGIN;JASCO
OWNER;
DATE;25/03/28
TIME;17:53:21
SPECTROMETER/DATA SYSTEM;
LOCALE;9226
RESOLUTION;
DELTAX;0,964233
XUNITS;1/CM
YUNITS;ABSORBANCE
FIRSTX;  399,1927
LASTX; 4000,6047
NPOINTS;    3736
FIRSTY;     0,17088
MAXY;     0,17088
MINY;     0,01493
XYDATA
399,1927;0,170877
400,1569;0,169298
401,1211;0,167745
402,0854;0,166525
403,0496;0,165492
404,0138;0,164456
404,9781;0,163438
405,9423;0,162698
406,9065;0,162531
407,8708;0,162977
408,8350;0,163716
409,7992;0,164234
410,7635;0,164155
411,7277;0,163493
412,6919;0,16262
413,6562;0,16196
414,6204;0,161701
415,5846;0,161719
416,5489;0,161687
417,5131;0,161281
418,4773;0,160524
419,4416;0,159938
420,4058;0,160058
421,3700;0,160874
422,3343;0,161986
423,2985;0,163015
424,2627;0,16377
425,2270;0,164258
426,1912;0,164614
427,1554;0,16498
428,1197;0,165403
429,0839;0,16582
430,0481;0,166132
431,0124;0,166297
431,9766;0,166366
432,9408;0,166437
433,9051;0,166553
434,8693;0,166643
435,8335;0,166576
436,7978;0,166283
437,7620;0,165854
438,7262;0,165498
439,6905;0,165408
440,6547;0,165624
441,6189;0,165986
442,5832;0,16622
443,5474;0,166131
444,5116;0,165771
445,4759;0,165399
446,4401;0,165261
447,4043;0,165399
448,3686;0,165628
449,3328;0,165679
450,2970;0,165386
451,2613;0,164802
452,2255;0,164166
453,1897;0,163736
454,1540;0,163631
455,1182;0,163805
456,0824;0,164128
457,0467;0,164527
458,0109;0,165046
458,9751;0,165766
459,9394;0,16664
460,9036;0,167443
461,8678;0,167892
462,8321;0,167807
463,7963;0,167225
464,7605;0,166409
465,7248;0,165733
466,6890;0,165456
467,6532;0,165551
468,6175;0,16574
469,5817;0,165686
470,5459;0,165226
471,5102;0,164496
472,4744;0,163849
473,4386;0,163589
474,4029;0,163745
475,3671;0,164091
476,3313;0,164347
477,2956;0,164349
478,2598;0,164083
479,2240;0,163619
480,1883;0,163039
481,1525;0,162396
482,1167;0,161743
483,0810;0,161173
484,0452;0,160816
485,0094;0,160758
485,9737;0,160963
486,9379;0,161275
487,9021;0,161517
488,8664;0,161587
489,8306;0,161509
490,7948;0,161401
491,7591;0,161393
492,7233;0,161531
493,6875;0,16175
494,6518;0,161914
495,6160;0,161904
496,5802;0,161674
497,5445;0,161255
498,5087;0,160722
499,4729;0,160162
500,4372;0,159654
501,4014;0,159266
502,3656;0,159052
503,3299;0,159042
504,2941;0,159225
505,2583;0,15954
506,2226;0,159884
507,1868;0,160136
508,1510;0,160205
509,1153;0,160078
510,0795;0,159836
511,0437;0,15961
512,0080;0,159503
512,9722;0,159541
513,9365;0,15966
514,9007;0,159751
515,8649;0,15973
516,8292;0,159592
517,7934;0,159426
518,7576;0,159345
519,7219;0,159406
520,6861;0,159563
521,6503;0,159711
522,6146;0,159745
523,5788;0,159608
524,5430;0,159305
525,5073;0,1589
526,4715;0,158477
527,4357;0,158092
528,4000;0,157751
529,3642;0,157423
530,3284;0,157078
531,2927;0,156702
532,2569;0,156308
533,2211;0,15592
534,1854;0,155551
535,1496;0,155204
536,1138;0,15487
537,0781;0,154546
538,0423;0,154242
539,0065;0,153973
539,9708;0,153751
540,9350;0,153581
541,8992;0,153458
542,8635;0,153383
543,8277;0,153364
544,7919;0,153404
545,7562;0,153489
546,7204;0,15358
547,6846;0,153619
548,6489;0,153561
549,6131;0,153397
550,5773;0,153165
551,5416;0,152937
552,5058;0,152775
553,4700;0,152709
554,4343;0,15272
555,3985;0,152747
556,3627;0,152715
557,3270;0,15256
558,2912;0,152248
559,2554;0,151775
560,2197;0,151159
561,1839;0,150436
562,1481;0,149654
563,1124;0,148862
564,0766;0,148101
565,0408;0,147394
566,0051;0,146746
566,9693;0,146155
567,9335;0,14562
568,8978;0,145148
569,8620;0,144741
570,8262;0,144391
571,7905;0,144069
572,7547;0,143742
573,7189;0,143386
574,6832;0,143002
575,6474;0,142613
576,6116;0,142255
577,5759;0,141954
578,5401;0,141712
579,5043;0,141516
580,4686;0,141346
581,4328;0,141189
582,3970;0,141046
583,3613;0,140919
584,3255;0,140803
585,2897;0,14068
586,2540;0,140522
587,2182;0,140305
588,1824;0,14003
589,1467;0,139723
590,1109;0,139428
591,0751;0,139184
592,0394;0,139003
593,0036;0,138856
593,9678;0,138693
594,9321;0,138468
595,8963;0,138163
596,8605;0,13779
597,8248;0,137374
598,7890;0,136942
599,7532;0,136514
600,7175;0,136106
601,6817;0,135733
602,6459;0,135415
603,6102;0,135163
604,5744;0,134975
605,5386;0,134833
606,5029;0,134706
607,4671;0,13456
608,4313;0,134367
609,3956;0,134111
610,3598;0,133783
611,3240;0,133383
612,2883;0,132926
613,2525;0,132436
614,2167;0,131939
615,1810;0,131453
616,1452;0,130982
617,1094;0,130517
618,0737;0,130041
619,0379;0,129539
620,0021;0,129005
620,9664;0,128438
621,9306;0,12784
622,8948;0,127217
623,8591;0,126581
624,8233;0,125936
625,7875;0,12533
626,7518;0,124774
627,7160;0,124268
628,6802;0,123808
629,6445;0,123394
630,6087;0,123025
631,5729;0,122693
632,5372;0,122376
633,5014;0,122037
634,4656;0,121648
635,4299;0,121202
636,3941;0,120725
637,3583;0,120255
638,3226;0,119822
639,2868;0,119432
640,2510;0,119074
641,2153;0,11874
642,1795;0,118437
643,1437;0,118186
644,1080;0,117998
645,0722;0,117859
646,0364;0,117727
647,0007;0,117556
647,9649;0,117326
648,9291;0,117055
649,8934;0,116789
650,8576;0,11656
651,8218;0,11637
652,7861;0,116196
653,7503;0,11602
654,7145;0,115851
655,6788;0,11572
656,6430;0,115649
657,6072;0,115623
658,5715;0,115595
659,5357;0,115512
660,4999;0,115352
661,4642;0,11512
662,4284;0,114818
663,3926;0,114397
664,3569;0,11377
665,3211;0,112873
666,2853;0,111721
667,2496;0,110429
668,2138;0,109215
669,1780;0,10838
670,1423;0,108075
671,1065;0,108075
672,0707;0,108006
673,0350;0,107637
673,9992;0,106946
674,9634;0,106052
675,9277;0,105121
676,8919;0,104262
677,8561;0,103485
678,8204;0,102742
679,7846;0,102
680,7488;0,101275
681,7131;0,100619
682,6773;0,100073
683,6415;0,0996415
684,6058;0,0992962
685,5700;0,099
686,5342;0,0987196
687,4985;0,0984288
688,4627;0,0981129
689,4269;0,0977676
690,3912;0,0974098
691,3554;0,0970718
692,3196;0,096784
693,2839;0,0965565
694,2481;0,096374
695,2123;0,0962062
696,1766;0,0960258
697,1408;0,0958217
698,1050;0,0955996
699,0693;0,0953704
700,0335;0,0951361
700,9977;0,0948822
701,9620;0,0945821
702,9262;0,094212
703,8904;0,0937635
704,8547;0,0932671
705,8189;0,0927797
706,7831;0,092362
707,7474;0,0920479
708,7116;0,0918242
709,6758;0,0916338
710,6401;0,091403
711,6043;0,0910778
712,5685;0,0906499
713,5328;0,090158
714,4970;0,0896632
715,4612;0,0888926
716,4255;0,0885652
717,3897;0,0882897
718,3539;0,0879996
719,3182;0,0876286
720,2824;0,0871475
721,2466;0,08658
722,2109;0,0859867
723,1751;0,0854306
724,1393;0,0849478
725,1036;0,0845415
726,0678;0,0841905
727,0320;0,0838644
727,9963;0,0835368
728,9605;0,0831934
729,9247;0,0828338
730,8890;0,0824679
731,8532;0,0821094
732,8174;0,0817699
733,7817;0,0814542
734,7459;0,0811611
735,7101;0,0808872
736,6744;0,0806302
737,6386;0,0803907
738,6028;0,0801699
739,5671;0,0799656
740,5313;0,0797692
741,4955;0,0795656
742,4598;0,0793368
743,4240;0,0790677
744,3882;0,0787527
745,3525;0,0784009
746,3167;0,0780374
747,2809;0,0776957
748,2452;0,0774052
749,2094;0,0771771
750,1736;0,0769986
751,1379;0,0768393
752,1021;0,0766674
753,0663;0,0764646
754,0306;0,0762327
754,9948;0,075986
755,9590;0,0757399
756,9233;0,0755014
757,8875;0,0752702
758,8517;0,0750439
759,8160;0,0748241
760,7802;0,0746162
761,7444;0,074426
762,7087;0,074257
763,6729;0,0741102
764,6371;0,073986
765,6014;0,0738842
766,5656;0,0738002
767,5298;0,0737208
768,4941;0,0736252
769,4583;0,0734919
770,4225;0,0733089
771,3868;0,0730812
772,3510;0,0728289
773,3152;0,0725769
774,2795;0,0723415
775,2437;0,0721222
776,2079;0,0719022
777,1722;0,0716595
778,1364;0,0713814
779,1006;0,0710735
780,0649;0,070758
781,0291;0,0704622
781,9933;0,0702024
782,9576;0,0699751
783,9218;0,0697602
784,8860;0,0695349
785,8503;0,0692885
786,8145;0,0690283
787,7787;0,0687736
788,7430;0,068542
789,7072;0,0683399
790,6714;0,0681623
791,6357;0,0680022
792,5999;0,0678594
793,5641;0,0677424
794,5284;0,0676618
795,4926;0,0676214
796,4568;0,0676146
797,4211;0,0676301
798,3853;0,0676605
799,3495;0,0677068
800,3138;0,0677741
801,2780;0,0678615
802,2422;0,0679539
803,2065;0,0680228
804,1707;0,0680379
805,1349;0,0679821
806,0992;0,0678601
807,0634;0,0676953
808,0276;0,067516
808,9919;0,0673387
809,9561;0,0671598
810,9203;0,0669585
811,8846;0,0667098
812,8488;0,066398
813,8130;0,0660228
814,7773;0,0655968
815,7415;0,0651366
816,7057;0,064657
817,6700;0,0641694
818,6342;0,0636842
819,5984;0,0632132
820,5627;0,0627672
821,5269;0,0623524
822,4911;0,0619674
823,4554;0,0616062
824,4196;0,0612637
825,3839;0,0609398
826,3481;0,0606397
827,3123;0,0603699
828,2766;0,0601333
829,2408;0,0599274
830,2050;0,0597457
831,1693;0,0595804
832,1335;0,0594249
833,0977;0,0592738
834,0620;0,0591226
835,0262;0,0589679
835,9904;0,0588082
836,9547;0,0586447
837,9189;0,058483
838,8831;0,0583325
839,8474;0,0582069
840,8116;0,0581226
841,7758;0,058096
842,7401;0,0581387
843,7043;0,0582525
844,6685;0,0584264
845,6328;0,0586388
846,5970;0,0588645
847,5612;0,059084
848,5255;0,0592906
849,4897;0,0594906
850,4539;0,0596971
851,4182;0,0599198
852,3824;0,0601579
853,3466;0,0603997
854,3109;0,0606301
855,2751;0,0608397
856,2393;0,0610294
857,2036;0,0612078
858,1678;0,0613814
859,1320;0,0615477
860,0963;0,0616941
861,0605;0,0618055
862,0247;0,0618746
862,9890;0,0619073
863,9532;0,0619201
864,9174;0,0619313
865,8817;0,0619523
866,8459;0,0619843
867,8101;0,0620224
868,7744;0,0620621
869,7386;0,0621044
870,7028;0,0621568
871,6671;0,0622297
872,6313;0,0623315
873,5955;0,0624646
874,5598;0,0626239
875,5240;0,0627974
876,4882;0,0629711
877,4525;0,0631332
878,4167;0,0632794
879,3809;0,0634145
880,3452;0,0635504
881,3094;0,0637014
882,2736;0,0638786
883,2379;0,0640875
884,2021;0,0643291
885,1663;0,0646027
886,1306;0,0649094
887,0948;0,0652526
888,0590;0,0656349
889,0233;0,0660518
889,9875;0,0664876
890,9517;0,0669144
891,9160;0,067298
892,8802;0,0676076
893,8444;0,0678263
894,8087;0,0679534
895,7729;0,0680001
896,7371;0,0679783
897,7014;0,067891
898,6656;0,0677309
899,6298;0,067488
900,5941;0,0671608
901,5583;0,0667634
902,5225;0,0663227
903,4868;0,0658685
904,4510;0,0654221
905,4152;0,0649925
906,3795;0,0645809
907,3437;0,0641901
908,3079;0,0638316
909,2722;0,0635242
910,2364;0,0632868
911,2007;0,0631285
912,1649;0,0630445
913,1292;0,0630188
914,0934;0,0630334
915,0576;0,0630766
916,0219;0,0631473
916,9861;0,0632527
917,9503;0,0634021
918,9146;0,0636014
919,8788;0,0638496
920,8430;0,0641395
921,8073;0,0644614
922,7715;0,0648056
923,7357;0,0651645
924,7000;0,065534
925,6642;0,0659128
926,6284;0,0663024
927,5927;0,0667066
928,5569;0,0671302
929,5211;0,0675778
930,4854;0,0680528
931,4496;0,0685551
932,4138;0,0690812
933,3781;0,0696232
934,3423;0,0701724
935,3065;0,0707234
936,2708;0,0712781
937,2350;0,0718464
938,1992;0,0724416
939,1635;0,0730719
940,1277;0,0737336
941,0919;0,0744111
942,0562;0,0750852
943,0204;0,0757445
943,9846;0,0763931
944,9489;0,0770491
945,9131;0,0777338
946,8773;0,0784597
947,8416;0,0792235
948,8058;0,0800099
949,7700;0,0808015
950,7343;0,0815897
951,6985;0,0823792
952,6627;0,0831842
953,6270;0,0840205
954,5912;0,0848968
955,5554;0,0858112
956,5197;0,0867531
957,4839;0,0877078
958,4481;0,0886626
959,4124;0,0896088
960,3766;0,0905421
961,3408;0,0914612
962,3051;0,0923663
963,2693;0,0932588
964,2335;0,0941414
965,1978;0,0950191
966,1620;0,0958984
967,1262;0,0967872
968,0905;0,0976941
969,0547;0,0986293
970,0189;0,099605
970,9832;0,100635
971,9474;0,101736
972,9116;0,102919
973,8759;0,104195
974,8401;0,105573
975,8043;0,10706
976,7686;0,108662
977,7328;0,110381
978,6970;0,112206
979,6613;0,114113
980,6255;0,116059
981,5897;0,117995
982,5540;0,119878
983,5182;0,121679
984,4824;0,123388
985,4467;0,12501
986,4109;0,126552
987,3751;0,128015
988,3394;0,129394
989,3036;0,13068
990,2678;0,131871
991,2321;0,132972
992,1963;0,133994
993,1605;0,134951
994,1248;0,135853
995,0890;0,13671
996,0532;0,137528
997,0175;0,138318
997,9817;0,139095
998,9459;0,139879
999,9102;0,140688
1000,8744;0,141535
1001,8386;0,142432
1002,8029;0,143381
1003,7671;0,144379
1004,7313;0,145423
1005,6956;0,146505
1006,6598;0,147625
1007,6240;0,148782
1008,5883;0,14998
1009,5525;0,151219
1010,5167;0,152494
1011,4810;0,153789
1012,4452;0,155079
1013,4094;0,156332
1014,3737;0,157514
1015,3379;0,158587
1016,3021;0,159522
1017,2664;0,160294
1018,2306;0,160892
1019,1948;0,161316
1020,1591;0,161577
1021,1233;0,161693
1022,0875;0,161683
1023,0518;0,161566
1024,0160;0,161356
1024,9802;0,16106
1025,9445;0,160682
1026,9087;0,160216
1027,8729;0,159654
1028,8372;0,158985
1029,8014;0,158197
1030,7656;0,157282
1031,7299;0,156233
1032,6941;0,15505
1033,6583;0,153743
1034,6226;0,152338
1035,5868;0,150876
1036,5510;0,149415
1037,5153;0,148022
1038,4795;0,146762
1039,4437;0,145685
1040,4080;0,144817
1041,3722;0,144158
1042,3364;0,143681
1043,3007;0,143341
1044,2649;0,143087
1045,2291;0,14287
1046,1934;0,142647
1047,1576;0,14239
1048,1218;0,142083
1049,0861;0,141718
1050,0503;0,141296
1051,0145;0,140816
1051,9788;0,140277
1052,9430;0,139678
1053,9072;0,139011
1054,8715;0,138275
1055,8357;0,137462
1056,7999;0,136565
1057,7642;0,13557
1058,7284;0,134462
1059,6926;0,133233
1060,6569;0,131894
1061,6211;0,130477
1062,5853;0,129029
1063,5496;0,127602
1064,5138;0,126227
1065,4780;0,124911
1066,4423;0,123633
1067,4065;0,122363
1068,3707;0,121075
1069,3350;0,11976
1070,2992;0,118424
1071,2634;0,11708
1072,2277;0,115739
1073,1919;0,114402
1074,1561;0,113067
1075,1204;0,111731
1076,0846;0,110398
1077,0488;0,109082
1078,0131;0,107806
1078,9773;0,106596
1079,9415;0,105481
1080,9058;0,104482
1081,8700;0,103613
1082,8342;0,102876
1083,7985;0,102264
1084,7627;0,101755
1085,7269;0,101324
1086,6912;0,100938
1087,6554;0,100564
1088,6196;0,100174
1089,5839;0,0997475
1090,5481;0,0992749
1091,5123;0,0987573
1092,4766;0,098206
1093,4408;0,0976384
1094,4050;0,0970711
1095,3693;0,0965149
1096,3335;0,0959724
1097,2977;0,0954398
1098,2620;0,0949125
1099,2262;0,0943893
1100,1904;0,0938736
1101,1547;0,0933703
1102,1189;0,0928818
1103,0831;0,0924043
1104,0474;0,0919273
1105,0116;0,091437
1105,9758;0,0909196
1106,9401;0,0903654
1107,9043;0,0897702
1108,8685;0,0891341
1109,8328;0,0884585
1110,7970;0,0877425
1111,7612;0,0869808
1112,7255;0,0861658
1113,6897;0,0852919
1114,6539;0,0843629
1115,6182;0,0833956
1116,5824;0,0824184
1117,5466;0,0814639
1118,5109;0,0805584
1119,4751;0,079713
1120,4393;0,0789202
1121,4036;0,0781575
1122,3678;0,0773964
1123,3320;0,0766121
1124,2963;0,0757916
1125,2605;0,0749372
1126,2247;0,0740649
1127,1890;0,0731998
1128,1532;0,0723693
1129,1174;0,0715978
1130,0817;0,0709027
1131,0459;0,0702931
1132,0101;0,0697712
1132,9744;0,0693345
1133,9386;0,0689784
1134,9028;0,0686971
1135,8671;0,0684844
1136,8313;0,0683333
1137,7955;0,0682352
1138,7598;0,0681805
1139,7240;0,0681599
1140,6882;0,0681654
1141,6525;0,0681911
1142,6167;0,0682326
1143,5809;0,0682867
1144,5452;0,0683517
1145,5094;0,0684282
1146,4736;0,0685208
1147,4379;0,0686381
1148,4021;0,06879
1149,3663;0,0689833
1150,3306;0,0692167
1151,2948;0,0694786
1152,2590;0,069748
1153,2233;0,0699963
1154,1875;0,0701904
1155,1517;0,0702948
1156,1160;0,0702743
1157,0802;0,0700963
1158,0444;0,0697343
1159,0087;0,0691696
1159,9729;0,0683914
1160,9371;0,0673965
1161,9014;0,0661895
1162,8656;0,0647854
1163,8298;0,0632128
1164,7941;0,0615159
1165,7583;0,0597506
1166,7225;0,057977
1167,6868;0,0562489
1168,6510;0,0546057
1169,6152;0,0530706
1170,5795;0,0516532
1171,5437;0,0503561
1172,5079;0,0491802
1173,4722;0,0481265
1174,4364;0,0471943
1175,4006;0,046379
1176,3649;0,0456703
1177,3291;0,045055
1178,2933;0,04452
1179,2576;0,0440562
1180,2218;0,04366
1181,1860;0,0433317
1182,1503;0,0430737
1183,1145;0,0428875
1184,0787;0,042773
1185,0430;0,0427276
1186,0072;0,0427473
1186,9714;0,0428269
1187,9357;0,0429617
1188,8999;0,0431483
1189,8641;0,0433852
1190,8284;0,043673
1191,7926;0,0440127
1192,7568;0,0444043
1193,7211;0,044845
1194,6853;0,0453287
1195,6495;0,0458451
1196,6138;0,0463816
1197,5780;0,0469241
1198,5422;0,0474604
1199,5065;0,0479348
1200,4707;0,048443
1201,4349;0,0489316
1202,3992;0,0493996
1203,3634;0,0498438
1204,3276;0,050258
1205,2919;0,0506365
1206,2561;0,0509778
1207,2203;0,0512874
1208,1846;0,0515773
1209,1488;0,0518621
1210,1130;0,0521537
1211,0773;0,0524586
1212,0415;0,0527778
1213,0057;0,0531089
1213,9700;0,0534482
1214,9342;0,0537915
1215,8984;0,054134
1216,8627;0,0544696
1217,8269;0,0547931
1218,7911;0,055103
1219,7554;0,055402
1220,7196;0,0556952
1221,6838;0,0559855
1222,6481;0,0562695
1223,6123;0,056537
1224,5765;0,0567752
1225,5408;0,0569741
1226,5050;0,0571317
1227,4692;0,0572532
1228,4335;0,0573476
1229,3977;0,0574218
1230,3619;0,0574769
1231,3262;0,0575092
1232,2904;0,0575132
1233,2546;0,0574869
1234,2189;0,0574344
1235,1831;0,0573664
1236,1473;0,0572976
1237,1116;0,0572425
1238,0758;0,0572126
1239,0400;0,0572151
1240,0043;0,0572535
1240,9685;0,0573295
1241,9327;0,0574428
1242,8970;0,0575912
1243,8612;0,0577691
1244,8254;0,0579675
1245,7897;0,0581765
1246,7539;0,0583889
1247,7181;0,0586029
1248,6824;0,0588222
1249,6466;0,0590533
1250,6108;0,0593019
1251,5751;0,0595709
1252,5393;0,0598595
1253,5035;0,0601641
1254,4678;0,0604789
1255,4320;0,0607958
1256,3962;0,0611042
1257,3605;0,0613905
1258,3247;0,0616398
1259,2889;0,061838
1260,2532;0,0619742
1261,2174;0,0620414
1262,1816;0,0620358
1263,1459;0,0619555
1264,1101;0,061799
1265,0743;0,0615659
1266,0386;0,0612571
1267,0028;0,0608756
1267,9670;0,0604253
1268,9313;0,0599103
1269,8955;0,0593353
1270,8597;0,0587057
1271,8240;0,0580292
1272,7882;0,0573157
1273,7524;0,0565768
1274,7167;0,0558252
1275,6809;0,0550735
1276,6451;0,0543331
1277,6094;0,0536132
1278,5736;0,0529188
1279,5378;0,0522514
1280,5021;0,05161
1281,4663;0,0509943
1282,4305;0,0504056
1283,3948;0,0498476
1284,3590;0,0493248
1285,3232;0,0488425
1286,2875;0,0484071
1287,2517;0,0480256
1288,2159;0,0477043
1289,1802;0,0474453
1290,1444;0,0472448
1291,1086;0,0470933
1292,0729;0,0469813
1293,0371;0,0469038
1294,0013;0,0468626
1294,9656;0,0468631
1295,9298;0,0469093
1296,8940;0,0469982
1297,8583;0,0471202
1298,8225;0,0472632
1299,7867;0,047418
1300,7510;0,0475809
1301,7152;0,0477532
1302,6794;0,0479373
1303,6437;0,048134
1304,6079;0,0483426
1305,5721;0,0485615
1306,5364;0,0487891
1307,5006;0,0490228
1308,4648;0,0492581
1309,4291;0,049488
1310,3933;0,0497047
1311,3575;0,0499007
1312,3218;0,0500697
1313,2860;0,0502044
1314,2502;0,0502947
1315,2145;0,050327
1316,1787;0,0502871
1317,1429;0,0501672
1318,1072;0,0499733
1319,0714;0,0497271
1320,0356;0,0494593
1320,9999;0,0491971
1321,9641;0,0489544
1322,9283;0,0487324
1323,8926;0,0485268
1324,8568;0,0483362
1325,8210;0,0481649
1326,7853;0,048021
1327,7495;0,0479105
1328,7137;0,0478345
1329,6780;0,047789
1330,6422;0,047768
1331,6064;0,0477662
1332,5707;0,0477786
1333,5349;0,047798
1334,4991;0,0478116
1335,4634;0,0477991
1336,4276;0,0477362
1337,3918;0,0476036
1338,3561;0,0474023
1339,3203;0,0471643
1340,2845;0,0469423
1341,2488;0,0467774
1342,2130;0,046678
1343,1772;0,0466254
1344,1415;0,0465949
1345,1057;0,0465719
1346,0699;0,0465576
1347,0342;0,046564
1347,9984;0,046605
1348,9626;0,0466874
1349,9269;0,0468069
1350,8911;0,0469512
1351,8553;0,0471069
1352,8196;0,0472675
1353,7838;0,0474379
1354,7480;0,0476323
1355,7123;0,0478643
1356,6765;0,0481354
1357,6407;0,0484306
1358,6050;0,0487246
1359,5692;0,0489938
1360,5334;0,0492271
1361,4977;0,0494322
1362,4619;0,0496329
1363,4261;0,0498533
1364,3904;0,0500974
1365,3546;0,0503453
1366,3188;0,0505682
1367,2831;0,050746
1368,2473;0,0508741
1369,2115;0,0509584
1370,1758;0,0510024
1371,1400;0,0509955
1372,1042;0,0509135
1373,0685;0,0507336
1374,0327;0,0504573
1374,9969;0,0501199
1375,9612;0,0497672
1376,9254;0,0494169
1377,8896;0,04905
1378,8539;0,0486363
1379,8181;0,0481681
1380,7823;0,0476727
1381,7466;0,0471932
1382,7108;0,0467521
1383,6750;0,0463326
1384,6393;0,0458906
1385,6035;0,0453911
1386,5677;0,0448507
1387,5320;0,0443488
1388,4962;0,0439747
1389,4604;0,0437571
1390,4247;0,0436554
1391,3889;0,0436039
1392,3531;0,0435531
1393,3174;0,0434835
1394,2816;0,043402
1395,2458;0,0433279
1396,2101;0,0432806
1397,1743;0,0432742
1398,1385;0,0433192
1399,1028;0,0434239
1400,0670;0,0435883
1401,0313;0,0437991
1401,9955;0,0440334
1402,9597;0,0442706
1403,9240;0,0445035
1404,8882;0,0447424
1405,8524;0,0450071
1406,8167;0,0453096
1407,7809;0,0456438
1408,7451;0,0459918
1409,7094;0,0463409
1410,6736;0,0466934
1411,6378;0,0470626
1412,6021;0,0474564
1413,5663;0,0478612
1414,5305;0,0482403
1415,4948;0,0485437
1416,4590;0,048722
1417,4232;0,0487503
1418,3875;0,048664
1419,3517;0,0485606
1420,3159;0,0485219
1421,2802;0,0485396
1422,2444;0,0485439
1423,2086;0,0484738
1424,1729;0,0483159
1425,1371;0,048096
1426,1013;0,0478419
1427,0656;0,0475542
1428,0298;0,0472115
1428,9940;0,0468071
1429,9583;0,0463798
1430,9225;0,0459974
1431,8867;0,0456971
1432,8510;0,045446
1433,8152;0,0451555
1434,7794;0,0447322
1435,7437;0,0441532
1436,7079;0,043531
1437,6721;0,0430604
1438,6364;0,0428512
1439,6006;0,0428639
1440,5648;0,0429958
1441,5291;0,0431693
1442,4933;0,0433545
1443,4575;0,043554
1444,4218;0,0437783
1445,3860;0,0440281
1446,3502;0,0442909
1447,3145;0,0445503
1448,2787;0,0447993
1449,2429;0,045044
1450,2072;0,045293
1451,1714;0,0455409
1452,1356;0,0457625
1453,0999;0,0459153
1454,0641;0,0459368
1455,0283;0,045732
1455,9926;0,0452022
1456,9568;0,0444216
1457,9210;0,0437678
1458,8853;0,043544
1459,8495;0,0436718
1460,8137;0,0439144
1461,7780;0,0440814
1462,7422;0,0440536
1463,7064;0,0437745
1464,6707;0,0432795
1465,6349;0,0427056
1466,5991;0,0421923
1467,5634;0,0417668
1468,5276;0,0413475
1469,4918;0,0408109
1470,4561;0,0400361
1471,4203;0,0389466
1472,3845;0,0375997
1473,3488;0,0362506
1474,3130;0,03519
1475,2772;0,0344981
1476,2415;0,0340661
1477,2057;0,0337613
1478,1699;0,0335026
1479,1342;0,033257
1480,0984;0,0330198
1481,0626;0,0328048
1482,0269;0,0326373
1482,9911;0,0325413
1483,9553;0,0325249
1484,9196;0,0325734
1485,8838;0,0326538
1486,8480;0,0327262
1487,8123;0,0327581
1488,7765;0,0327554
1489,7407;0,0327853
1490,7050;0,0329282
1491,6692;0,0332021
1492,6334;0,033567
1493,5977;0,0339767
1494,5619;0,0344079
1495,5261;0,034862
1496,4904;0,0353588
1497,4546;0,0359299
1498,4188;0,0366049
1499,3831;0,037383
1500,3473;0,0382196
1501,3115;0,0390503
1502,2758;0,0398227
1503,2400;0,0405136
1504,2042;0,0411302
1505,1685;0,0416838
1506,1327;0,0421167
1507,0969;0,0423027
1508,0612;0,042276
1509,0254;0,0422299
1509,9896;0,0422299
1510,9539;0,0422153
1511,9181;0,0421075
1512,8823;0,0418425
1513,8466;0,0413726
1514,8108;0,0406811
1515,7750;0,0398067
1516,7393;0,0388389
1517,7035;0,0378634
1518,6677;0,0369059
1519,6320;0,0359374
1520,5962;0,0349441
1521,5604;0,0339905
1522,5247;0,033188
1523,4889;0,0325953
1524,4531;0,0321819
1525,4174;0,0318816
1526,3816;0,0316546
1527,3458;0,0314991
1528,3101;0,0314209
1529,2743;0,0314054
1530,2385;0,0314191
1531,2028;0,0314298
1532,1670;0,0314282
1533,1312;0,0314394
1534,0955;0,0315057
1535,0597;0,0316441
1536,0239;0,0318293
1536,9882;0,0320197
1537,9524;0,0321835
1538,9166;0,0322899
1539,8809;0,0322778
1540,8451;0,0321087
1541,8093;0,0319016
1542,7736;0,03181
1543,7378;0,0318431
1544,7020;0,0319405
1545,6663;0,0320611
1546,6305;0,0321886
1547,5947;0,0323126
1548,5590;0,0324196
1549,5232;0,0324996
1550,4874;0,032558
1551,4517;0,0326184
1552,4159;0,0327076
1553,3801;0,0328315
1554,3444;0,0329642
1555,3086;0,0330522
1556,2728;0,0330142
1557,2371;0,0327382
1558,2013;0,0321924
1559,1655;0,0316706
1560,1298;0,0315499
1561,0940;0,0318144
1562,0582;0,0322466
1563,0225;0,0326917
1563,9867;0,0330837
1564,9509;0,033405
1565,9152;0,0336586
1566,8794;0,0338603
1567,8436;0,034044
1568,8079;0,0342608
1569,7721;0,0345542
1570,7363;0,0349244
1571,7006;0,0353271
1572,6648;0,035708
1573,6290;0,036033
1574,5933;0,0363004
1575,5575;0,0365417
1576,5217;0,0368145
1577,4860;0,0371694
1578,4502;0,0376067
1579,4144;0,0380826
1580,3787;0,0385486
1581,3429;0,0389757
1582,3071;0,0393553
1583,2714;0,0396935
1584,2356;0,0400031
1585,1998;0,0402958
1586,1641;0,0405745
1587,1283;0,0408334
1588,0925;0,041064
1589,0568;0,041261
1590,0210;0,041424
1590,9852;0,0415528
1591,9495;0,0416438
1592,9137;0,0416921
1593,8779;0,041698
1594,8422;0,0416736
1595,8064;0,0416403
1596,7706;0,0416186
1597,7349;0,0416182
1598,6991;0,0416361
1599,6633;0,041662
1600,6276;0,0416861
1601,5918;0,0417046
1602,5560;0,0417208
1603,5203;0,04174
1604,4845;0,0417613
1605,4487;0,0417729
1606,4130;0,041757
1607,3772;0,0417055
1608,3414;0,0416374
1609,3057;0,0415992
1610,2699;0,0416367
1611,2341;0,0417578
1612,1984;0,0419236
1613,1626;0,0420679
1614,1268;0,0421244
1615,0911;0,0420609
1616,0553;0,0419259
1617,0195;0,0418513
1617,9838;0,0419433
1618,9480;0,042186
1619,9122;0,0424841
1620,8765;0,0427489
1621,8407;0,0429361
1622,8049;0,0430523
1623,7692;0,0431411
1624,7334;0,0432485
1625,6976;0,0433911
1626,6619;0,0435602
1627,6261;0,0437512
1628,5903;0,0439753
1629,5546;0,0442435
1630,5188;0,044544
1631,4830;0,0448386
1632,4473;0,0450733
1633,4115;0,0451859
1634,3757;0,0451178
1635,3400;0,0448732
1636,3042;0,0445961
1637,2684;0,0444731
1638,2327;0,0445484
1639,1969;0,0447482
1640,1611;0,0449953
1641,1254;0,0452468
1642,0896;0,0454781
1643,0538;0,0456594
1644,0181;0,0457425
1644,9823;0,0456735
1645,9465;0,0454577
1646,9108;0,0452271
1647,8750;0,0451434
1648,8392;0,0452212
1649,8035;0,045326
1650,7677;0,0452542
1651,7319;0,0447675
1652,6962;0,0437486
1653,6604;0,0425841
1654,6246;0,0419174
1655,5889;0,0418272
1656,5531;0,0419881
1657,5173;0,0421326
1658,4816;0,0421275
1659,4458;0,041912
1660,4100;0,0414666
1661,3743;0,0408364
1662,3385;0,04016
1663,3027;0,0396073
1664,2670;0,0392558
1665,2312;0,039055
1666,1954;0,0388843
1667,1597;0,0386136
1668,1239;0,0381502
1669,0881;0,0375031
1670,0524;0,0368125
1671,0166;0,0362383
1671,9808;0,0358085
1672,9451;0,0354269
1673,9093;0,0349892
1674,8735;0,034477
1675,8378;0,0339786
1676,8020;0,0336144
1677,7662;0,0334314
1678,7305;0,033379
1679,6947;0,0333606
1680,6589;0,0332748
1681,6232;0,0330184
1682,5874;0,0325003
1683,5516;0,0317417
1684,5159;0,0309714
1685,4801;0,0304309
1686,4443;0,0301356
1687,4086;0,0299607
1688,3728;0,0298022
1689,3370;0,0296242
1690,3013;0,0294394
1691,2655;0,0292766
1692,2297;0,0291563
1693,1940;0,0290829
1694,1582;0,0290454
1695,1224;0,0290187
1696,0867;0,0289621
1697,0509;0,0288263
1698,0151;0,0285845
1698,9794;0,0282748
1699,9436;0,0280037
1700,9078;0,0278749
1701,8721;0,0279145
1702,8363;0,0280715
1703,8005;0,0282698
1704,7648;0,0284535
1705,7290;0,0286059
1706,6932;0,028746
1707,6575;0,0289046
1708,6217;0,0290965
1709,5859;0,0293122
1710,5502;0,0295307
1711,5144;0,029733
1712,4786;0,0299047
1713,4429;0,0300251
1714,4071;0,0300512
1715,3713;0,0299154
1716,3356;0,0295828
1717,2998;0,029153
1718,2640;0,0288246
1719,2283;0,0287018
1720,1925;0,0287397
1721,1567;0,0288407
1722,1210;0,0289299
1723,0852;0,0289756
1724,0494;0,0289858
1725,0137;0,0289952
1725,9779;0,0290433
1726,9421;0,0291534
1727,9064;0,0293214
1728,8706;0,0295184
1729,8348;0,0296977
1730,7991;0,0298021
1731,7633;0,0297767
1732,7275;0,0296081
1733,6918;0,029374
1734,6560;0,0292096
1735,6202;0,0291807
1736,5845;0,0292403
1737,5487;0,0293004
1738,5129;0,0292957
1739,4772;0,0292067
1740,4414;0,0290567
1741,4056;0,0288893
1742,3699;0,0287341
1743,3341;0,0285878
1744,2983;0,028426
1745,2626;0,0282225
1746,2268;0,0279522
1747,1910;0,0275813
1748,1553;0,0270689
1749,1195;0,0264059
1750,0837;0,0256655
1751,0480;0,0249783
1752,0122;0,024434
1752,9764;0,0240285
1753,9407;0,0236982
1754,9049;0,0233761
1755,8691;0,0230278
1756,8334;0,0226597
1757,7976;0,0223008
1758,7618;0,0219721
1759,7261;0,0216697
1760,6903;0,0213776
1761,6545;0,021094
1762,6188;0,0208422
1763,5830;0,0206503
1764,5472;0,020526
1765,5115;0,0204519
1766,4757;0,0203998
1767,4399;0,0203457
1768,4042;0,0202747
1769,3684;0,0201779
1770,3326;0,0200469
1771,2969;0,0198794
1772,2611;0,019695
1773,2253;0,0195369
1774,1896;0,0194411
1775,1538;0,0194085
1776,1180;0,0194114
1777,0823;0,0194164
1778,0465;0,0194001
1779,0107;0,0193555
1779,9750;0,01929
1780,9392;0,0192172
1781,9034;0,0191464
1782,8677;0,0190802
1783,8319;0,0190216
1784,7961;0,0189802
1785,7604;0,0189698
1786,7246;0,0189973
1787,6888;0,0190563
1788,6531;0,0191278
1789,6173;0,0191859
1790,5815;0,0192038
1791,5458;0,0191662
1792,5100;0,0190883
1793,4742;0,0190123
1794,4385;0,0189723
1795,4027;0,0189706
1796,3669;0,0189885
1797,3312;0,0190054
1798,2954;0,0190078
1799,2596;0,0189907
1800,2239;0,0189561
1801,1881;0,0189116
1802,1523;0,018867
1803,1166;0,0188305
1804,0808;0,0188065
1805,0450;0,0187955
1806,0093;0,0187945
1806,9735;0,0187974
1807,9377;0,0187953
1808,9020;0,0187805
1809,8662;0,0187522
1810,8304;0,0187191
1811,7947;0,0186949
1812,7589;0,0186887
1813,7231;0,0186986
1814,6874;0,0187147
1815,6516;0,0187272
1816,6158;0,0187329
1817,5801;0,0187371
1818,5443;0,0187481
1819,5085;0,0187688
1820,4728;0,0187926
1821,4370;0,0188078
1822,4012;0,0188072
1823,3655;0,018796
1824,3297;0,0187903
1825,2939;0,0188051
1826,2582;0,0188393
1827,2224;0,0188708
1828,1866;0,0188679
1829,1509;0,0188118
1830,1151;0,0187163
1831,0793;0,0186229
1832,0436;0,0185692
1833,0078;0,0185646
1833,9720;0,0185937
1834,9363;0,0186354
1835,9005;0,018678
1836,8647;0,0187249
1837,8290;0,0187885
1838,7932;0,0188771
1839,7574;0,0189841
1840,7217;0,0190877
1841,6859;0,0191555
1842,6501;0,0191545
1843,6144;0,0190695
1844,5786;0,0189249
1845,5428;0,0187767
1846,5071;0,0186707
1847,4713;0,0186161
1848,4355;0,0185962
1849,3998;0,0185913
1850,3640;0,0185908
1851,3282;0,0185946
1852,2925;0,018607
1853,2567;0,0186313
1854,2209;0,0186675
1855,1852;0,0187134
1856,1494;0,0187654
1857,1136;0,0188181
1858,0779;0,0188626
1859,0421;0,0188875
1860,0063;0,0188862
1860,9706;0,0188634
1861,9348;0,0188366
1862,8990;0,018827
1863,8633;0,0188476
1864,8275;0,0188953
1865,7917;0,0189507
1866,7560;0,0189858
1867,7202;0,0189801
1868,6844;0,018939
1869,6487;0,0188928
1870,6129;0,0188691
1871,5771;0,0188691
1872,5414;0,0188729
1873,5056;0,0188582
1874,4698;0,0188161
1875,4341;0,0187571
1876,3983;0,0187064
1877,3625;0,0186903
1878,3268;0,0187211
1879,2910;0,0187902
1880,2552;0,0188747
1881,2195;0,0189493
1882,1837;0,0189979
1883,1479;0,019019
1884,1122;0,0190216
1885,0764;0,019016
1886,0406;0,0190043
1887,0049;0,0189779
1887,9691;0,0189239
1888,9333;0,0188378
1889,8976;0,0187339
1890,8618;0,0186427
1891,8260;0,018595
1892,7903;0,0186061
1893,7545;0,0186696
1894,7188;0,0187602
1895,6830;0,0188437
1896,6472;0,018892
1897,6115;0,0188954
1898,5757;0,0188655
1899,5399;0,0188252
1900,5042;0,0187958
1901,4684;0,0187856
1902,4326;0,0187874
1903,3969;0,0187851
1904,3611;0,018766
1905,3253;0,0187318
1906,2896;0,0187003
1907,2538;0,018695
1908,2180;0,01873
1909,1823;0,0187977
1910,1465;0,0188712
1911,1107;0,018922
1912,0750;0,0189388
1913,0392;0,0189335
1914,0034;0,0189315
1914,9677;0,0189566
1915,9319;0,0190159
1916,8961;0,0190918
1917,8604;0,0191479
1918,8246;0,0191502
1919,7888;0,0190889
1920,7531;0,018983
1921,7173;0,0188704
1922,6815;0,0187908
1923,6458;0,0187679
1924,6100;0,0187987
1925,5742;0,0188565
1926,5385;0,0189067
1927,5027;0,0189245
1928,4669;0,0189024
1929,4312;0,0188486
1930,3954;0,0187795
1931,3596;0,0187109
1932,3239;0,0186524
1933,2881;0,018608
1934,2523;0,0185803
1935,2166;0,018574
1936,1808;0,0185947
1937,1450;0,0186452
1938,1093;0,0187219
1939,0735;0,0188125
1940,0377;0,0188983
1941,0020;0,0189595
1941,9662;0,0189869
1942,9304;0,0189901
1943,8947;0,0189938
1944,8589;0,0190193
1945,8231;0,0190671
1946,7874;0,019116
1947,7516;0,0191383
1948,7158;0,0191195
1949,6801;0,0190702
1950,6443;0,0190195
1951,6085;0,0189937
1952,5728;0,0189959
1953,5370;0,0190024
1954,5012;0,0189784
1955,4655;0,0189014
1956,4297;0,018774
1957,3939;0,0186204
1958,3582;0,0184712
1959,3224;0,0183514
1960,2866;0,0182772
1961,2509;0,0182597
1962,2151;0,0183065
1963,1793;0,0184171
1964,1436;0,0185762
1965,1078;0,0187489
1966,0720;0,0188853
1967,0363;0,0189347
1968,0005;0,0188665
1968,9647;0,0186864
1969,9290;0,018438
1970,8932;0,0181922
1971,8574;0,0180289
1972,8217;0,0180138
1973,7859;0,0181715
1974,7501;0,0184657
1975,7144;0,018803
1976,6786;0,0190686
1977,6428;0,0191802
1978,6071;0,0191256
1979,5713;0,01896
1980,5355;0,0187706
1981,4998;0,0186377
1982,4640;0,018609
1983,4282;0,0186887
1984,3925;0,0188387
1985,3567;0,0189931
1986,3209;0,0190877
1987,2852;0,0190903
1988,2494;0,0190179
1989,2136;0,0189256
1990,1779;0,0188748
1991,1421;0,0188961
1992,1063;0,0189725
1993,0706;0,0190555
1994,0348;0,0191017
1994,9990;0,0190993
1995,9633;0,0190645
1996,9275;0,0190186
1997,8917;0,0189655
1998,8560;0,0188863
1999,8202;0,0187561
2000,7844;0,0185706
2001,7487;0,018364
2002,7129;0,0182024
2003,6771;0,0181574
2004,6414;0,0182718
2005,6056;0,0185327
2006,5698;0,0188696
2007,5341;0,0191805
2008,4983;0,0193753
2009,4625;0,0194099
2010,4268;0,0192951
2011,3910;0,0190814
2012,3552;0,0188353
2013,3195;0,0186181
2014,2837;0,0184736
2015,2479;0,0184224
2016,2122;0,018463
2017,1764;0,0185788
2018,1406;0,0187513
2019,1049;0,0189672
2020,0691;0,0192154
2021,0333;0,019472
2021,9976;0,0196881
2022,9618;0,019794
2023,9260;0,0197284
2024,8903;0,0194783
2025,8545;0,0191025
2026,8187;0,0187145
2027,7830;0,0184291
2028,7472;0,0183044
2029,7114;0,0183201
2030,6757;0,0184063
2031,6399;0,0185052
2032,6041;0,0186168
2033,5684;0,0187915
2034,5326;0,0190739
2035,4968;0,0194455
2036,4611;0,0198174
2037,4253;0,0200803
2038,3895;0,0201711
2039,3538;0,0201078
2040,3180;0,019972
2041,2822;0,0198546
2042,2465;0,0198032
2043,2107;0,0198077
2044,1749;0,0198279
2045,1392;0,0198336
2046,1034;0,019824
2047,0676;0,0198171
2048,0320;0,019825
2048,9961;0,019841
2049,9604;0,0198504
2050,9246;0,019847
2051,8889;0,0198391
2052,8530;0,0198387
2053,8174;0,0198481
2054,7815;0,0198554
2055,7458;0,0198457
2056,7100;0,019817
2057,6743;0,0197881
2058,6384;0,0197878
2059,6028;0,0198353
2060,5669;0,0199256
2061,5313;0,0200327
2062,4954;0,0201262
2063,4597;0,0201892
2064,4238;0,0202233
2065,3882;0,020239
2066,3523;0,0202412
2067,3167;0,020223
2068,2808;0,020173
2069,2451;0,0200891
2070,2092;0,0199887
2071,1736;0,0199055
2072,1377;0,0198745
2073,1021;0,0199139
2074,0662;0,0200118
2075,0305;0,0201265
2075,9946;0,0202009
2076,9590;0,0201845
2077,9231;0,0200569
2078,8875;0,0198417
2079,8516;0,0196027
2080,8159;0,0194228
2081,7800;0,0193699
2082,7444;0,019467
2083,7085;0,0196813
2084,6729;0,0199383
2085,6370;0,0201553
2086,6013;0,0202753
2087,5654;0,0202847
2088,5298;0,0202081
2089,4939;0,0200869
2090,4583;0,0199591
2091,4224;0,0198502
2092,3867;0,0197777
2093,3508;0,0197573
2094,3152;0,0198008
2095,2793;0,0199073
2096,2437;0,0200555
2097,2078;0,0202082
2098,1721;0,0203293
2099,1362;0,0203997
2100,1006;0,0204209
2101,0647;0,0204063
2102,0291;0,0203693
2102,9932;0,0203176
2103,9575;0,0202568
2104,9216;0,0201957
2105,8860;0,0201464
2106,8501;0,0201184
2107,8145;0,0201123
2108,7786;0,0201205
2109,7429;0,0201343
2110,7070;0,0201491
2111,6714;0,0201634
2112,6355;0,0201718
2113,5999;0,020161
2114,5640;0,0201159
2115,5283;0,0200328
2116,4924;0,0199295
2117,4568;0,0198417
2118,4209;0,0198054
2119,3853;0,0198364
2120,3494;0,0199206
2121,3137;0,0200224
2122,2778;0,0201059
2123,2422;0,020155
2124,2063;0,0201792
2125,1707;0,0202025
2126,1348;0,0202439
2127,0991;0,0203026
2128,0632;0,0203564
2129,0276;0,0203745
2129,9917;0,0203375
2130,9561;0,0202532
2131,9202;0,0201589
2132,8845;0,0201055
2133,8486;0,0201271
2134,8130;0,0202131
2135,7771;0,020304
2136,7415;0,0203221
2137,7056;0,020223
2138,6699;0,0200327
2139,6340;0,0198417
2140,5984;0,0197576
2141,5625;0,019843
2142,5269;0,0200772
2143,4910;0,0203681
2144,4553;0,0206073
2145,4194;0,0207317
2146,3838;0,0207508
2147,3479;0,0207241
2148,3123;0,0207073
2149,2764;0,0207104
2150,2407;0,0206947
2151,2048;0,0206091
2152,1692;0,020435
2153,1333;0,0202111
2154,0977;0,020025
2155,0618;0,019978
2156,0261;0,0201385
2156,9902;0,0204976
2157,9546;0,0209491
2158,9187;0,0213264
2159,8831;0,0214927
2160,8472;0,0214205
2161,8115;0,021192
2162,7756;0,0209335
2163,7400;0,0207429
2164,7041;0,0206511
2165,6685;0,020629
2166,6326;0,0206269
2167,5969;0,0206191
2168,5610;0,0206206
2169,5254;0,020667
2170,4895;0,0207767
2171,4539;0,0209263
2172,4180;0,0210595
2173,3823;0,0211231
2174,3464;0,0211014
2175,3108;0,0210245
2176,2749;0,0209407
2177,2393;0,0208792
2178,2034;0,0208299
2179,1677;0,0207581
2180,1318;0,0206384
2181,0962;0,0204815
2182,0603;0,0203347
2183,0247;0,0202552
2183,9888;0,0202748
2184,9531;0,0203829
2185,9172;0,0205347
2186,8816;0,0206784
2187,8457;0,0207808
2188,8101;0,0208378
2189,7742;0,0208658
2190,7385;0,0208821
2191,7026;0,0208874
2192,6670;0,0208636
2193,6311;0,0207882
2194,5955;0,0206553
2195,5596;0,0204872
2196,5239;0,0203263
2197,4880;0,0202131
2198,4524;0,0201653
2199,4165;0,0201745
2200,3809;0,0202204
2201,3450;0,0202901
2202,3093;0,0203837
2203,2734;0,0205031
2204,2378;0,0206348
2205,2019;0,0207445
2206,1663;0,020793
2207,1304;0,0207615
2208,0947;0,0206653
2209,0588;0,020545
2210,0232;0,0204396
2210,9873;0,0203634
2211,9517;0,0203054
2212,9158;0,0202497
2213,8801;0,020199
2214,8442;0,0201811
2215,8086;0,02023
2216,7727;0,0203568
2217,7371;0,0205322
2218,7012;0,0206951
2219,6655;0,0207837
2220,6296;0,0207685
2221,5940;0,0206676
2222,5581;0,0205344
2223,5225;0,020428
2224,4866;0,020383
2225,4509;0,0203973
2226,4150;0,0204408
2227,3794;0,0204793
2228,3435;0,0204964
2229,3079;0,0205
2230,2720;0,020511
2231,2363;0,0205441
2232,2004;0,0205955
2233,1648;0,0206466
2234,1289;0,0206801
2235,0933;0,0206945
2236,0574;0,0207058
2237,0217;0,0207328
2237,9858;0,0207793
2238,9502;0,0208258
2239,9143;0,0208398
2240,8787;0,0207958
2241,8428;0,0206941
2242,8071;0,0205638
2243,7712;0,0204506
2244,7356;0,0203962
2245,6997;0,0204207
2246,6641;0,0205154
2247,6282;0,0206466
2248,5925;0,0207688
2249,5566;0,0208414
2250,5210;0,0208449
2251,4851;0,0207882
2252,4495;0,0207049
2253,4136;0,0206369
2254,3779;0,0206138
2255,3420;0,0206387
2256,3064;0,0206906
2257,2705;0,0207413
2258,2349;0,0207741
2259,1990;0,0207925
2260,1633;0,0208133
2261,1274;0,0208507
2262,0918;0,0209031
2263,0559;0,0209519
2264,0203;0,0209741
2264,9844;0,0209574
2265,9487;0,0209097
2266,9128;0,0208541
2267,8772;0,0208151
2268,8413;0,0208043
2269,8057;0,0208142
2270,7698;0,0208252
2271,7341;0,0208176
2272,6982;0,0207832
2273,6626;0,0207279
2274,6267;0,0206675
2275,5911;0,0206187
2276,5552;0,0205925
2277,5195;0,0205929
2278,4836;0,0206179
2279,4480;0,0206621
2280,4121;0,0207171
2281,3765;0,0207727
2282,3406;0,0208191
2283,3049;0,0208503
2284,2690;0,0208673
2285,2334;0,0208773
2286,1975;0,0208895
2287,1619;0,0209099
2288,1260;0,0209384
2289,0903;0,0209709
2290,0544;0,0210042
2291,0188;0,0210396
2291,9829;0,0210831
2292,9473;0,0211414
2293,9114;0,0212169
2294,8757;0,0213049
2295,8398;0,0213936
2296,8042;0,021468
2297,7683;0,021515
2298,7327;0,0215271
2299,6968;0,0215048
2300,6611;0,021456
2301,6252;0,0213942
2302,5896;0,0213346
2303,5537;0,0212917
2304,5181;0,0212772
2305,4822;0,021298
2306,4465;0,0213528
2307,4106;0,0214288
2308,3750;0,0215015
2309,3391;0,0215406
2310,3035;0,0215225
2311,2676;0,0214442
2312,2319;0,0213286
2313,1960;0,0212163
2314,1604;0,0211445
2315,1245;0,0211299
2316,0889;0,0211619
2317,0530;0,0212117
2318,0173;0,0212491
2318,9814;0,021258
2319,9458;0,0212454
2320,9099;0,0212369
2321,8743;0,021261
2322,8384;0,0213294
2323,8027;0,0214258
2324,7668;0,0215122
2325,7312;0,0215476
2326,6953;0,0215085
2327,6597;0,0214017
2328,6238;0,0212652
2329,5881;0,0211549
2330,5522;0,0211213
2331,5166;0,0211847
2332,4807;0,0213266
2333,4451;0,0214993
2334,4092;0,0216501
2335,3735;0,021744
2336,3376;0,0217764
2337,3020;0,0217716
2338,2661;0,0217681
2339,2305;0,0217914
2340,1946;0,0218286
2341,1589;0,0218193
2342,1230;0,0216846
2343,0874;0,0214058
2344,0515;0,0211023
2345,0159;0,0209776
2345,9800;0,02114
2346,9443;0,0215147
2347,9084;0,021925
2348,8728;0,0222123
2349,8369;0,0223025
2350,8013;0,0222171
2351,7654;0,0220512
2352,7297;0,0219252
2353,6938;0,0219252
2354,6582;0,0220681
2355,6223;0,0223108
2356,5867;0,0225777
2357,5508;0,022781
2358,5151;0,022846
2359,4792;0,0227437
2360,4436;0,0225061
2361,4077;0,0222002
2362,3721;0,0218858
2363,3362;0,0215963
2364,3005;0,0213435
2365,2646;0,0211231
2366,2290;0,0209161
2367,1931;0,0206962
2368,1575;0,0204492
2369,1216;0,0201906
2370,0859;0,0199626
2371,0500;0,0198104
2372,0144;0,0197548
2372,9785;0,0197836
2373,9429;0,0198628
2374,9070;0,0199593
2375,8713;0,0200574
2376,8354;0,0201604
2377,7998;0,02028
2378,7639;0,0204222
2379,7283;0,0205808
2380,6924;0,0207396
2381,6567;0,0208807
2382,6208;0,0209928
2383,5852;0,0210739
2384,5493;0,0211288
2385,5137;0,021164
2386,4778;0,0211848
2387,4421;0,0211946
2388,4063;0,0211967
2389,3706;0,0211948
2390,3347;0,0211924
2391,2991;0,0211905
2392,2632;0,0211881
2393,2275;0,0211842
2394,1917;0,0211815
2395,1560;0,0211866
2396,1201;0,0212066
2397,0845;0,0212433
2398,0486;0,0212908
2399,0129;0,0213375
2399,9771;0,0213728
2400,9414;0,0213935
2401,9055;0,0214044
2402,8699;0,021414
2403,8340;0,0214287
2404,7983;0,0214482
2405,7625;0,0214674
2406,7268;0,0214793
2407,6909;0,0214798
2408,6553;0,0214696
2409,6194;0,0214543
2410,5837;0,0214425
2411,5479;0,0214437
2412,5122;0,0214646
2413,4763;0,021506
2414,4407;0,0215615
2415,4048;0,0216191
2416,3691;0,0216664
2417,3333;0,0216958
2418,2976;0,0217073
2419,2617;0,0217064
2420,2261;0,0217003
2421,1902;0,0216939
2422,1545;0,021689
2423,1187;0,0216857
2424,0830;0,0216847
2425,0471;0,0216879
2426,0115;0,0216974
2426,9756;0,021714
2427,9399;0,0217362
2428,9041;0,02176
2429,8684;0,0217802
2430,8325;0,0217924
2431,7969;0,0217945
2432,7610;0,0217883
2433,7253;0,0217779
2434,6895;0,0217681
2435,6538;0,0217608
2436,6179;0,0217546
2437,5823;0,0217476
2438,5464;0,0217414
2439,5107;0,0217434
2440,4749;0,0217638
2441,4392;0,0218092
2442,4033;0,0218765
2443,3677;0,0219519
2444,3318;0,0220173
2445,2961;0,0220598
2446,2603;0,0220771
2447,2246;0,022077
2448,1887;0,0220705
2449,1531;0,0220642
2450,1172;0,0220578
2451,0815;0,0220468
2452,0457;0,0220297
2453,0100;0,022012
2453,9741;0,0220054
2454,9385;0,0220215
2455,9026;0,0220645
2456,8669;0,0221264
2457,8311;0,0221894
2458,7954;0,0222329
2459,7595;0,0222436
2460,7239;0,0222211
2461,6880;0,0221782
2462,6523;0,0221335
2463,6165;0,0221031
2464,5808;0,0220934
2465,5449;0,0221011
2466,5093;0,0221177
2467,4734;0,0221355
2468,4377;0,0221516
2469,4019;0,0221666
2470,3662;0,0221828
2471,3303;0,0222008
2472,2947;0,02222
2473,2588;0,0222395
2474,2231;0,0222593
2475,1873;0,0222801
2476,1516;0,0223019
2477,1157;0,0223225
2478,0801;0,0223392
2479,0442;0,0223507
2480,0085;0,0223594
2480,9727;0,0223711
2481,9370;0,0223918
2482,9011;0,0224236
2483,8655;0,0224625
2484,8296;0,0224997
2485,7939;0,0225261
2486,7581;0,0225373
2487,7224;0,0225357
2488,6865;0,0225282
2489,6509;0,0225224
2490,6150;0,0225222
2491,5793;0,0225279
2492,5435;0,0225374
2493,5078;0,022549
2494,4719;0,0225617
2495,4363;0,0225744
2496,4004;0,0225842
2497,3647;0,0225878
2498,3289;0,0225842
2499,2932;0,0225769
2500,2573;0,0225732
2501,2217;0,0225793
2502,1858;0,0225958
2503,1501;0,0226159
2504,1143;0,0226295
2505,0786;0,0226304
2506,0427;0,022621
2507,0071;0,0226121
2507,9712;0,0226166
2508,9355;0,0226421
2509,8997;0,0226865
2510,8640;0,0227386
2511,8281;0,0227841
2512,7925;0,0228121
2513,7566;0,0228183
2514,7209;0,0228052
2515,6851;0,0227797
2516,6494;0,0227502
2517,6135;0,0227246
2518,5779;0,0227099
2519,5420;0,0227121
2520,5063;0,0227345
2521,4705;0,0227758
2522,4348;0,0228285
2523,3989;0,02288
2524,3633;0,0229162
2525,3274;0,0229278
2526,2917;0,0229154
2527,2559;0,0228895
2528,2202;0,0228658
2529,1843;0,022858
2530,1487;0,0228708
2531,1128;0,0228988
2532,0771;0,0229305
2533,0413;0,0229552
2534,0056;0,0229678
2534,9697;0,0229702
2535,9341;0,0229675
2536,8982;0,0229649
2537,8625;0,0229654
2538,8267;0,0229695
2539,7910;0,0229768
2540,7551;0,022986
2541,7195;0,0229943
2542,6836;0,022997
2543,6479;0,0229897
2544,6121;0,0229712
2545,5764;0,022946
2546,5405;0,022924
2547,5049;0,0229152
2548,4690;0,0229245
2549,4333;0,0229485
2550,3975;0,0229774
2551,3618;0,0230008
2552,3259;0,0230137
2553,2903;0,0230179
2554,2544;0,0230186
2555,2188;0,0230193
2556,1829;0,0230188
2557,1472;0,0230124
2558,1113;0,0229972
2559,0757;0,0229757
2560,0398;0,0229552
2561,0042;0,0229441
2561,9683;0,0229468
2562,9326;0,022961
2563,8967;0,0229801
2564,8611;0,022997
2565,8252;0,0230081
2566,7896;0,0230145
2567,7537;0,0230197
2568,7180;0,0230273
2569,6821;0,0230377
2570,6465;0,0230488
2571,6106;0,023057
2572,5750;0,0230603
2573,5391;0,0230602
2574,5034;0,0230618
2575,4675;0,023071
2576,4319;0,0230898
2577,3960;0,0231142
2578,3604;0,0231353
2579,3245;0,0231448
2580,2888;0,0231408
2581,2529;0,0231298
2582,2173;0,0231233
2583,1814;0,02313
2584,1458;0,0231509
2585,1099;0,0231789
2586,0742;0,0232041
2587,0383;0,0232204
2588,0027;0,0232283
2588,9668;0,0232332
2589,9312;0,0232415
2590,8953;0,0232565
2591,8596;0,0232785
2592,8237;0,023305
2593,7881;0,0233327
2594,7522;0,0233575
2595,7166;0,0233761
2596,6807;0,023387
2597,6450;0,0233924
2598,6091;0,0233974
2599,5735;0,0234067
2600,5376;0,0234216
2601,5020;0,0234382
2602,4661;0,0234504
2603,4304;0,0234551
2604,3945;0,0234546
2605,3589;0,0234554
2606,3230;0,0234633
2607,2874;0,0234784
2608,2515;0,0234949
2609,2158;0,0235053
2610,1799;0,0235062
2611,1443;0,0235011
2612,1084;0,0234981
2613,0728;0,023505
2614,0369;0,0235248
2615,0012;0,0235541
2615,9653;0,0235866
2616,9297;0,0236168
2617,8938;0,0236424
2618,8582;0,0236648
2619,8223;0,0236862
2620,7866;0,0237072
2621,7507;0,0237257
2622,7151;0,0237384
2623,6792;0,0237437
2624,6436;0,0237433
2625,6077;0,0237426
2626,5720;0,0237476
2627,5361;0,0237613
2628,5005;0,0237816
2629,4646;0,0238025
2630,4290;0,0238178
2631,3931;0,0238251
2632,3574;0,0238272
2633,3215;0,0238303
2634,2859;0,0238397
2635,2500;0,0238567
2636,2144;0,0238783
2637,1785;0,0239003
2638,1428;0,0239202
2639,1069;0,0239386
2640,0713;0,0239576
2641,0354;0,0239783
2641,9998;0,0239998
2642,9639;0,02402
2643,9282;0,0240375
2644,8923;0,0240536
2645,8567;0,0240709
2646,8208;0,0240915
2647,7852;0,0241147
2648,7493;0,0241374
2649,7136;0,0241568
2650,6777;0,0241722
2651,6421;0,0241856
2652,6062;0,0242002
2653,5706;0,0242175
2654,5347;0,0242363
2655,4990;0,0242537
2656,4631;0,0242678
2657,4275;0,0242793
2658,3916;0,0242911
2659,3560;0,0243058
2660,3201;0,0243233
2661,2844;0,0243407
2662,2485;0,0243541
2663,2129;0,0243618
2664,1770;0,0243652
2665,1414;0,0243686
2666,1055;0,0243759
2667,0698;0,0243885
2668,0339;0,024405
2668,9983;0,024423
2669,9624;0,0244412
2670,9268;0,0244601
2671,8909;0,0244812
2672,8552;0,0245043
2673,8193;0,0245264
2674,7837;0,0245438
2675,7478;0,0245542
2676,7122;0,0245594
2677,6763;0,0245647
2678,6406;0,0245766
2679,6047;0,0245989
2680,5691;0,0246306
2681,5332;0,0246671
2682,4976;0,0247033
2683,4617;0,0247358
2684,4260;0,0247647
2685,3901;0,0247912
2686,3545;0,024816
2687,3186;0,024838
2688,2830;0,0248546
2689,2471;0,0248643
2690,2114;0,0248685
2691,1755;0,0248715
2692,1399;0,0248785
2693,1040;0,0248938
2694,0684;0,024918
2695,0325;0,0249483
2695,9968;0,02498
2696,9609;0,0250084
2697,9253;0,0250311
2698,8894;0,0250478
2699,8538;0,0250606
2700,8179;0,0250725
2701,7822;0,0250865
2702,7463;0,0251051
2703,7107;0,0251288
2704,6748;0,0251562
2705,6392;0,0251844
2706,6033;0,0252102
2707,5676;0,0252314
2708,5317;0,025249
2709,4961;0,0252657
2710,4602;0,0252852
2711,4246;0,0253096
2712,3887;0,0253383
2713,3530;0,025369
2714,3171;0,0253994
2715,2815;0,0254285
2716,2456;0,0254573
2717,2100;0,0254869
2718,1741;0,0255167
2719,1384;0,0255442
2720,1025;0,0255661
2721,0669;0,0255802
2722,0310;0,0255874
2722,9954;0,0255915
2723,9595;0,0255975
2724,9238;0,0256096
2725,8879;0,0256299
2726,8523;0,0256575
2727,8164;0,02569
2728,7808;0,0257242
2729,7449;0,0257577
2730,7092;0,0257888
2731,6733;0,0258167
2732,6377;0,0258407
2733,6018;0,0258602
2734,5662;0,0258757
2735,5303;0,0258892
2736,4946;0,0259043
2737,4587;0,0259247
2738,4231;0,0259526
2739,3872;0,0259867
2740,3516;0,0260226
2741,3157;0,0260547
2742,2800;0,0260791
2743,2441;0,0260946
2744,2085;0,0261028
2745,1726;0,0261062
2746,1370;0,0261064
2747,1011;0,026105
2748,0654;0,0261044
2749,0295;0,026109
2749,9939;0,0261248
2750,9580;0,026156
2751,9224;0,0262019
2752,8865;0,0262562
2753,8508;0,0263091
2754,8149;0,0263518
2755,7793;0,0263813
2756,7434;0,0264012
2757,7078;0,0264188
2758,6719;0,0264406
2759,6362;0,0264685
2760,6003;0,0265001
2761,5647;0,0265312
2762,5288;0,0265595
2763,4932;0,0265859
2764,4573;0,0266136
2765,4216;0,0266449
2766,3857;0,0266802
2767,3501;0,0267181
2768,3142;0,0267568
2769,2786;0,0267952
2770,2427;0,026833
2771,2070;0,0268695
2772,1711;0,026904
2773,1355;0,0269357
2774,0996;0,0269655
2775,0640;0,0269958
2776,0281;0,0270295
2776,9924;0,0270682
2777,9565;0,0271114
2778,9209;0,0271573
2779,8850;0,0272041
2780,8494;0,0272509
2781,8135;0,0272978
2782,7778;0,0273444
2783,7419;0,02739
2784,7063;0,0274336
2785,6704;0,0274752
2786,6348;0,0275163
2787,5989;0,0275592
2788,5632;0,0276059
2789,5273;0,0276574
2790,4917;0,0277131
2791,4558;0,0277721
2792,4202;0,0278333
2793,3843;0,0278957
2794,3486;0,027959
2795,3127;0,028023
2796,2771;0,0280882
2797,2412;0,0281554
2798,2056;0,0282254
2799,1697;0,0282975
2800,1340;0,0283705
2801,0981;0,0284433
2802,0625;0,0285168
2803,0266;0,0285935
2803,9910;0,0286762
2804,9551;0,0287654
2805,9194;0,0288576
2806,8835;0,0289472
2807,8479;0,0290287
2808,8120;0,0291011
2809,7764;0,0291683
2810,7405;0,0292374
2811,7048;0,0293152
2812,6689;0,0294044
2813,6333;0,0295038
2814,5974;0,0296096
2815,5618;0,0297183
2816,5259;0,0298293
2817,4902;0,0299441
2818,4543;0,0300656
2819,4187;0,0301952
2820,3828;0,0303322
2821,3472;0,0304738
2822,3113;0,0306169
2823,2756;0,0307598
2824,2397;0,0309032
2825,2041;0,0310502
2826,1682;0,0312044
2827,1326;0,0313688
2828,0967;0,0315448
2829,0610;0,0317328
2830,0251;0,0319328
2830,9895;0,0321456
2831,9536;0,0323711
2832,9180;0,0326083
2833,8821;0,0328537
2834,8464;0,0331039
2835,8105;0,0333575
2836,7749;0,0336188
2837,7390;0,0338974
2838,7034;0,0342066
2839,6675;0,0345591
2840,6318;0,0349635
2841,5959;0,0354234
2842,5603;0,0359387
2843,5244;0,0365071
2844,4888;0,0371232
2845,4529;0,0377757
2846,4172;0,0384441
2847,3813;0,0390971
2848,3457;0,0396957
2849,3098;0,0402003
2850,2742;0,0405789
2851,2383;0,0408142
2852,2026;0,040905
2853,1667;0,0408644
2854,1311;0,0407145
2855,0952;0,0404808
2856,0596;0,0401888
2857,0237;0,0398626
2857,9880;0,0395256
2858,9521;0,039201
2859,9165;0,0389108
2860,8806;0,0386724
2861,8450;0,0384949
2862,8091;0,0383772
2863,7734;0,0383099
2864,7375;0,0382798
2865,7019;0,0382758
2866,6660;0,0382915
2867,6304;0,0383235
2868,5945;0,0383682
2869,5588;0,0384187
2870,5229;0,0384654
2871,4873;0,0384995
2872,4514;0,0385172
2873,4158;0,0385213
2874,3799;0,0385187
2875,3442;0,0385165
2876,3083;0,038519
2877,2727;0,0385279
2878,2368;0,0385437
2879,2012;0,0385679
2880,1653;0,0386027
2881,1296;0,0386493
2882,0938;0,0387071
2883,0581;0,0387739
2884,0222;0,0388478
2884,9866;0,0389294
2885,9507;0,0390212
2886,9150;0,0391265
2887,8792;0,0392467
2888,8435;0,0393799
2889,8076;0,039521
2890,7720;0,0396627
2891,7361;0,0397978
2892,7004;0,0399213
2893,6646;0,040032
2894,6289;0,0401333
2895,5930;0,0402329
2896,5574;0,0403392
2897,5215;0,0404582
2898,4858;0,0405911
2899,4500;0,0407354
2900,4143;0,0408877
2901,3784;0,041047
2902,3428;0,0412157
2903,3069;0,0413974
2904,2712;0,0415946
2905,2354;0,0418078
2906,1997;0,0420377
2907,1638;0,0422883
2908,1282;0,0425689
2909,0923;0,0428919
2910,0566;0,0432675
2911,0208;0,0436984
2911,9851;0,0441765
2912,9492;0,0446834
2913,9136;0,0451951
2914,8777;0,0456865
2915,8420;0,0461358
2916,8062;0,0465265
2917,7705;0,0468481
2918,7346;0,0470946
2919,6990;0,0472632
2920,6631;0,047352
2921,6274;0,0473593
2922,5916;0,0472841
2923,5559;0,0471269
2924,5200;0,0468908
2925,4844;0,0465814
2926,4485;0,0462066
2927,4128;0,0457757
2928,3770;0,0452996
2929,3413;0,0447909
2930,3054;0,0442637
2931,2698;0,0437325
2932,2339;0,043209
2933,1982;0,0427002
2934,1624;0,0422071
2935,1267;0,0417262
2936,0908;0,0412528
2937,0552;0,0407843
2938,0193;0,0403228
2938,9836;0,0398747
2939,9478;0,0394478
2940,9121;0,0390484
2941,8762;0,0386794
2942,8406;0,038341
2943,8047;0,0380331
2944,7690;0,0377575
2945,7332;0,0375187
2946,6975;0,0373213
2947,6616;0,0371661
2948,6260;0,0370468
2949,5901;0,036951
2950,5544;0,0368631
2951,5186;0,0367693
2952,4829;0,0366611
2953,4470;0,0365366
2954,4114;0,036398
2955,3755;0,0362495
2956,3398;0,0360943
2957,3040;0,0359332
2958,2683;0,0357648
2959,2324;0,0355859
2960,1968;0,0353934
2961,1609;0,035186
2962,1252;0,0349652
2963,0894;0,0347353
2964,0537;0,0345023
2965,0178;0,0342712
2965,9822;0,0340448
2966,9463;0,0338234
2967,9106;0,0336061
2968,8748;0,0333919
2969,8391;0,0331809
2970,8032;0,0329743
2971,7676;0,0327743
2972,7317;0,0325845
2973,6960;0,0324092
2974,6602;0,0322522
2975,6245;0,0321142
2976,5886;0,0319919
2977,5530;0,0318785
2978,5171;0,0317667
2979,4814;0,0316529
2980,4456;0,0315394
2981,4099;0,0314332
2982,3740;0,0313419
2983,3384;0,0312699
2984,3025;0,0312157
2985,2668;0,0311732
2986,2310;0,0311347
2987,1953;0,0310936
2988,1594;0,0310471
2989,1238;0,030997
2990,0879;0,0309486
2991,0522;0,0309093
2992,0164;0,0308847
2992,9807;0,0308768
2993,9448;0,0308831
2994,9092;0,0308989
2995,8733;0,0309209
2996,8376;0,0309491
2997,8018;0,030986
2998,7661;0,0310329
2999,7302;0,0310872
3000,6946;0,0311429
3001,6587;0,0311942
3002,6230;0,031239
3003,5872;0,0312805
3004,5515;0,031324
3005,5156;0,031372
3006,4800;0,031421
3007,4441;0,0314628
3008,4084;0,0314897
3009,3726;0,0314988
3010,3369;0,0314939
3011,3010;0,0314831
3012,2654;0,0314749
3013,2295;0,0314741
3014,1938;0,0314821
3015,1580;0,0314991
3016,1223;0,0315265
3017,0864;0,0315673
3018,0508;0,0316234
3019,0149;0,0316933
3019,9792;0,0317708
3020,9434;0,0318467
3021,9077;0,0319138
3022,8718;0,0319703
3023,8362;0,0320212
3024,8003;0,0320753
3025,7646;0,03214
3026,7288;0,0322167
3027,6931;0,0322994
3028,6572;0,0323782
3029,6216;0,0324435
3030,5857;0,0324913
3031,5500;0,0325251
3032,5142;0,0325545
3033,4785;0,0325915
3034,4426;0,0326451
3035,4070;0,0327183
3036,3711;0,0328073
3037,3354;0,0329033
3038,2996;0,032996
3039,2639;0,0330774
3040,2280;0,0331447
3041,1924;0,0332012
3042,1565;0,0332547
3043,1208;0,0333135
3044,0850;0,0333827
3045,0493;0,033462
3046,0134;0,0335462
3046,9778;0,0336289
3047,9419;0,0337074
3048,9063;0,033784
3049,8704;0,0338649
3050,8347;0,0339549
3051,7988;0,0340525
3052,7632;0,0341493
3053,7273;0,0342346
3054,6917;0,0343023
3055,6558;0,0343557
3056,6201;0,0344073
3057,5842;0,034472
3058,5486;0,0345591
3059,5127;0,0346676
3060,4771;0,034788
3061,4412;0,0349072
3062,4055;0,0350144
3063,3696;0,0351044
3064,3340;0,0351776
3065,2981;0,0352382
3066,2625;0,0352929
3067,2266;0,0353483
3068,1909;0,0354096
3069,1550;0,0354803
3070,1194;0,035561
3071,0835;0,0356508
3072,0479;0,0357476
3073,0120;0,0358487
3073,9763;0,0359504
3074,9404;0,0360485
3075,9048;0,036139
3076,8689;0,0362199
3077,8333;0,0362921
3078,7974;0,0363593
3079,7617;0,036426
3080,7258;0,0364948
3081,6902;0,0365652
3082,6543;0,0366344
3083,6187;0,0366991
3084,5828;0,0367576
3085,5471;0,0368106
3086,5112;0,0368616
3087,4756;0,0369159
3088,4397;0,0369791
3089,4041;0,0370549
3090,3682;0,0371431
3091,3325;0,0372386
3092,2966;0,0373338
3093,2610;0,0374228
3094,2251;0,037505
3095,1895;0,037585
3096,1536;0,0376693
3097,1179;0,0377607
3098,0820;0,0378558
3099,0464;0,0379473
3100,0105;0,0380298
3100,9749;0,0381045
3101,9390;0,0381787
3102,9033;0,0382604
3103,8674;0,0383524
3104,8318;0,0384503
3105,7959;0,038546
3106,7603;0,0386338
3107,7244;0,0387147
3108,6887;0,0387957
3109,6528;0,0388845
3110,6172;0,0389841
3111,5813;0,0390909
3112,5457;0,0391975
3113,5098;0,0392971
3114,4741;0,0393873
3115,4382;0,0394695
3116,4026;0,0395467
3117,3667;0,0396211
3118,3311;0,0396941
3119,2952;0,039767
3120,2595;0,039843
3121,2236;0,0399262
3122,1880;0,0400196
3123,1521;0,0401231
3124,1165;0,0402334
3125,0806;0,0403455
3126,0449;0,0404553
3127,0090;0,0405604
3127,9734;0,0406602
3128,9375;0,0407546
3129,9019;0,0408436
3130,8660;0,0409277
3131,8303;0,0410091
3132,7944;0,0410924
3133,7588;0,0411826
3134,7229;0,0412834
3135,6873;0,0413954
3136,6514;0,041515
3137,6157;0,041636
3138,5798;0,0417518
3139,5442;0,0418579
3140,5083;0,0419534
3141,4727;0,0420414
3142,4368;0,0421275
3143,4011;0,0422172
3144,3652;0,0423136
3145,3296;0,042417
3146,2937;0,042525
3147,2581;0,0426345
3148,2222;0,0427427
3149,1865;0,0428481
3150,1506;0,0429505
3151,1150;0,0430511
3152,0791;0,0431524
3153,0435;0,0432576
3154,0076;0,0433692
3154,9719;0,0434869
3155,9360;0,043607
3156,9004;0,043724
3157,8645;0,043833
3158,8289;0,0439326
3159,7930;0,044025
3160,7573;0,0441141
3161,7214;0,0442036
3162,6858;0,0442952
3163,6499;0,0443894
3164,6143;0,0444872
3165,5784;0,0445902
3166,5427;0,0446995
3167,5068;0,0448139
3168,4712;0,0449293
3169,4353;0,0450186
3170,3997;0,0451233
3171,3638;0,045222
3172,3281;0,0453185
3173,2922;0,0454177
3174,2566;0,0455224
3175,2207;0,0456318
3176,1851;0,0457419
3177,1492;0,0458481
3178,1135;0,0459471
3179,0776;0,0460392
3180,0420;0,046128
3181,0061;0,0462188
3181,9705;0,0463165
3182,9346;0,0464232
3183,8989;0,0465372
3184,8630;0,0466534
3185,8274;0,046765
3186,7915;0,0468663
3187,7559;0,0469548
3188,7200;0,0470325
3189,6843;0,047105
3190,6484;0,0471796
3191,6128;0,0472616
3192,5769;0,0473522
3193,5413;0,047448
3194,5054;0,0475432
3195,4697;0,0476331
3196,4338;0,0477171
3197,3982;0,0477993
3198,3623;0,0478863
3199,3267;0,0479836
3200,2908;0,048093
3201,2551;0,0482116
3202,2192;0,0483325
3203,1836;0,0484462
3204,1477;0,0485438
3205,1121;0,0486193
3206,0762;0,0486735
3207,0405;0,0487147
3208,0046;0,0487557
3208,9690;0,0488088
3209,9331;0,0488796
3210,8975;0,0489651
3211,8616;0,0490569
3212,8259;0,049147
3213,7900;0,049232
3214,7544;0,049313
3215,7185;0,0493927
3216,6829;0,0494718
3217,6470;0,0495484
3218,6113;0,0496208
3219,5754;0,0496895
3220,5398;0,049757
3221,5039;0,0498253
3222,4683;0,0498937
3223,4324;0,04996
3224,3967;0,0500239
3225,3608;0,0500891
3226,3252;0,0501626
3227,2893;0,050249
3228,2537;0,050346
3229,2178;0,050444
3230,1821;0,0505307
3231,1462;0,0505989
3232,1106;0,05065
3233,0747;0,0506932
3234,0391;0,0507389
3235,0032;0,0507941
3235,9675;0,0508596
3236,9316;0,0509326
3237,8960;0,0510102
3238,8601;0,051091
3239,8245;0,0511746
3240,7886;0,0512592
3241,7529;0,0513406
3242,7170;0,0514136
3243,6814;0,0514747
3244,6455;0,0515246
3245,6099;0,051569
3246,5740;0,0516159
3247,5383;0,0516731
3248,5024;0,0517452
3249,4668;0,0518316
3250,4309;0,0519271
3251,3953;0,0520234
3252,3594;0,052112
3253,3237;0,0521876
3254,2878;0,0522503
3255,2522;0,0523051
3256,2163;0,0523589
3257,1807;0,0524161
3258,1448;0,052477
3259,1091;0,0525387
3260,0732;0,0525984
3261,0376;0,0526557
3262,0017;0,0527133
3262,9661;0,052775
3263,9302;0,052843
3264,8945;0,0529169
3265,8586;0,0529953
3266,8230;0,0530762
3267,7871;0,0531588
3268,7515;0,0532416
3269,7156;0,0533216
3270,6799;0,0533934
3271,6440;0,0534507
3272,6084;0,0534884
3273,5725;0,0535048
3274,5369;0,0535035
3275,5010;0,0534924
3276,4653;0,0534819
3277,4294;0,0534814
3278,3938;0,0534963
3279,3579;0,0535262
3280,3223;0,0535652
3281,2864;0,0536046
3282,2507;0,0536373
3283,2148;0,0536604
3284,1792;0,0536753
3285,1433;0,053685
3286,1077;0,0536913
3287,0718;0,0536924
3288,0361;0,0536847
3289,0002;0,0536655
3289,9646;0,0536363
3290,9287;0,0536028
3291,8931;0,0535737
3292,8572;0,0535568
3293,8215;0,0535564
3294,7856;0,0535713
3295,7500;0,053596
3296,7141;0,0536219
3297,6785;0,0536413
3298,6426;0,0536493
3299,6069;0,0536462
3300,5710;0,053636
3301,5354;0,0536246
3302,4995;0,0536163
3303,4639;0,0536121
3304,4280;0,0536097
3305,3923;0,0536056
3306,3564;0,0535967
3307,3208;0,0535821
3308,2849;0,0535621
3309,2493;0,0535382
3310,2134;0,0535119
3311,1777;0,0534859
3312,1418;0,0534636
3313,1062;0,0534485
3314,0703;0,0534421
3315,0347;0,0534427
3315,9988;0,0534459
3316,9631;0,0534469
3317,9272;0,0534439
3318,8916;0,0534394
3319,8557;0,0534386
3320,8201;0,053446
3321,7842;0,0534618
3322,7485;0,0534819
3323,7126;0,0534994
3324,6770;0,0535089
3325,6411;0,0535089
3326,6055;0,0535025
3327,5696;0,0534959
3328,5339;0,0534952
3329,4980;0,0535036
3330,4624;0,0535198
3331,4265;0,0535377
3332,3909;0,0535481
3333,3550;0,0535426
3334,3193;0,0535182
3335,2834;0,0534794
3336,2478;0,0534367
3337,2119;0,0534
3338,1763;0,0533719
3339,1404;0,0533457
3340,1047;0,0533096
3341,0688;0,053255
3342,0332;0,0531831
3342,9973;0,0531053
3343,9617;0,053036
3344,9258;0,0529837
3345,8901;0,0529461
3346,8542;0,0529127
3347,8186;0,052872
3348,7827;0,0528179
3349,7471;0,0527517
3350,7112;0,0526787
3351,6755;0,0526035
3352,6396;0,052528
3353,6040;0,0524536
3354,5681;0,0523834
3355,5325;0,0523229
3356,4966;0,052277
3357,4609;0,0522458
3358,4250;0,0522236
3359,3894;0,0522001
3360,3535;0,0521654
3361,3179;0,0521135
3362,2820;0,0520433
3363,2463;0,0519583
3364,2104;0,0518638
3365,1748;0,0517657
3366,1389;0,0516697
3367,1033;0,05158
3368,0674;0,051499
3369,0317;0,0514262
3369,9958;0,0513589
3370,9602;0,0512936
3371,9243;0,0512269
3372,8887;0,0511566
3373,8528;0,0510808
3374,8171;0,0509988
3375,7813;0,0509111
3376,7456;0,0508201
3377,7097;0,0507305
3378,6741;0,0506466
3379,6382;0,0505707
3380,6025;0,0505008
3381,5667;0,0504317
3382,5310;0,0503591
3383,4951;0,0502827
3384,4595;0,050208
3385,4236;0,0501429
3386,3879;0,0500928
3387,3521;0,0500557
3388,3164;0,0500224
3389,2805;0,0499801
3390,2449;0,0499179
3391,2090;0,0498312
3392,1733;0,049723
3393,1375;0,0496017
3394,1018;0,0494781
3395,0659;0,0493619
3396,0303;0,0492595
3396,9944;0,0491717
3397,9587;0,0490937
3398,9229;0,0490168
3399,8872;0,0489319
3400,8513;0,0488352
3401,8157;0,04873
3402,7798;0,0486245
3403,7441;0,0485267
3404,7083;0,0484387
3405,6726;0,0483558
3406,6367;0,0482697
3407,6011;0,0481736
3408,5652;0,0480652
3409,5295;0,0479464
3410,4937;0,047822
3411,4580;0,0476986
3412,4221;0,0475846
3413,3865;0,0474886
3414,3506;0,0474152
3415,3149;0,0473597
3416,2791;0,047306
3417,2434;0,0472317
3418,2075;0,0471184
3419,1719;0,0469622
3420,1360;0,0467779
3421,1003;0,0465917
3422,0645;0,0464278
3423,0288;0,0462962
3423,9929;0,0461906
3424,9573;0,0460959
3425,9214;0,0459977
3426,8857;0,0458892
3427,8499;0,0457723
3428,8142;0,0456538
3429,7783;0,0455402
3430,7427;0,0454338
3431,7068;0,0453326
3432,6711;0,0452314
3433,6353;0,0451257
3434,5996;0,0450126
3435,5637;0,0448912
3436,5281;0,044762
3437,4922;0,0446264
3438,4565;0,0444878
3439,4207;0,0443518
3440,3850;0,0442246
3441,3491;0,0441077
3442,3135;0,0439947
3443,2776;0,0438711
3444,2419;0,0437222
3445,2061;0,0435427
3446,1704;0,0433435
3447,1345;0,0431483
3448,0989;0,0429793
3449,0630;0,0428445
3450,0273;0,0427335
3450,9915;0,0426276
3451,9558;0,0425122
3452,9199;0,0423853
3453,8843;0,0422554
3454,8484;0,0421337
3455,8127;0,042024
3456,7769;0,0419203
3457,7412;0,0418108
3458,7053;0,0416861
3459,6697;0,0415455
3460,6338;0,0413961
3461,5981;0,0412478
3462,5623;0,0411058
3463,5266;0,0409677
3464,4907;0,0408258
3465,4551;0,0406742
3466,4192;0,0405141
3467,3835;0,0403546
3468,3477;0,0402072
3469,3120;0,0400784
3470,2761;0,0399649
3471,2405;0,0398562
3472,2046;0,0397426
3473,1689;0,0396221
3474,1331;0,0395022
3475,0974;0,0393928
3476,0615;0,0392959
3477,0259;0,0392009
3477,9900;0,0390895
3478,9543;0,0389465
3479,9185;0,0387719
3480,8828;0,038583
3481,8469;0,038405
3482,8113;0,0382549
3483,7754;0,0381301
3484,7397;0,0380113
3485,7039;0,0378764
3486,6682;0,0377152
3487,6323;0,0375365
3488,5967;0,037363
3489,5608;0,0372165
3490,5251;0,0371033
3491,4893;0,0370109
3492,4536;0,0369171
3493,4177;0,0368048
3494,3821;0,0366742
3495,3462;0,0365437
3496,3105;0,036436
3497,2747;0,0363595
3498,2390;0,0362979
3499,2031;0,0362164
3500,1675;0,0360814
3501,1316;0,0358828
3502,0959;0,0356459
3503,0601;0,0354206
3504,0244;0,0352495
3504,9885;0,0351406
3505,9529;0,035065
3506,9170;0,0349801
3507,8813;0,0348557
3508,8455;0,0346889
3509,8098;0,0345023
3510,7739;0,0343264
3511,7383;0,0341783
3512,7024;0,0340547
3513,6667;0,0339412
3514,6309;0,033827
3515,5952;0,0337129
3516,5593;0,0336083
3517,5237;0,0335216
3518,4878;0,0334516
3519,4521;0,0333871
3520,4163;0,0333134
3521,3806;0,0332199
3522,3447;0,0331031
3523,3091;0,0329642
3524,2732;0,0328038
3525,2375;0,0326202
3526,2017;0,0324142
3527,1660;0,0321957
3528,1301;0,0319857
3529,0945;0,0318078
3530,0586;0,0316746
3531,0229;0,031579
3531,9871;0,0314974
3532,9514;0,0314027
3533,9155;0,0312768
3534,8799;0,0311207
3535,8440;0,0309554
3536,8083;0,0308142
3537,7725;0,030726
3538,7368;0,0307003
3539,7009;0,0307208
3540,6653;0,0307485
3541,6294;0,0307325
3542,5938;0,0306249
3543,5579;0,0304037
3544,5222;0,0300944
3545,4863;0,0297687
3546,4507;0,0295065
3547,4148;0,0293445
3548,3792;0,0292598
3549,3433;0,0291936
3550,3076;0,0290908
3551,2717;0,0289296
3552,2361;0,0287323
3553,2002;0,0285488
3554,1646;0,0284203
3555,1287;0,0283531
3556,0930;0,0283205
3557,0571;0,0282868
3558,0215;0,0282329
3558,9856;0,0281675
3559,9500;0,0281176
3560,9141;0,0281035
3561,8784;0,0281143
3562,8425;0,0281021
3563,8069;0,027996
3564,7710;0,0277331
3565,7354;0,0273106
3566,6995;0,0268271
3567,6638;0,0264361
3568,6279;0,0262238
3569,5923;0,0261604
3570,5564;0,0261595
3571,5208;0,0261477
3572,4849;0,0260921
3573,4492;0,0259969
3574,4133;0,025886
3575,3777;0,0257802
3576,3418;0,0256841
3577,3062;0,0255911
3578,2703;0,0255002
3579,2346;0,0254264
3580,1987;0,025393
3581,1631;0,0254092
3582,1272;0,0254534
3583,0916;0,0254736
3584,0557;0,0254037
3585,0200;0,025193
3585,9841;0,0248499
3586,9485;0,0244732
3587,9126;0,0242062
3588,8770;0,0241225
3589,8411;0,0241794
3590,8054;0,0242758
3591,7695;0,024322
3592,7339;0,0242742
3593,6980;0,0241422
3594,6624;0,0239758
3595,6265;0,023827
3596,5908;0,0237114
3597,5549;0,0236044
3598,5193;0,0234744
3599,4834;0,0233177
3600,4478;0,0231674
3601,4119;0,0230663
3602,3762;0,0230294
3603,3403;0,0230304
3604,3047;0,0230177
3605,2688;0,0229425
3606,2332;0,0227824
3607,1973;0,0225545
3608,1616;0,0223083
3609,1257;0,0220951
3610,0901;0,0219404
3611,0542;0,0218431
3612,0186;0,021793
3612,9827;0,0217787
3613,9470;0,0217827
3614,9111;0,0217713
3615,8755;0,0216981
3616,8396;0,0215232
3617,8040;0,0212462
3618,7681;0,0209354
3619,7324;0,0207105
3620,6965;0,0206654
3621,6609;0,0208054
3622,6250;0,02106
3623,5894;0,0213337
3624,5535;0,0215332
3625,5178;0,0215702
3626,4819;0,0213672
3627,4463;0,0209085
3628,4104;0,0203254
3629,3748;0,0198566
3630,3389;0,0196373
3631,3032;0,0196091
3632,2673;0,0196372
3633,2317;0,019622
3634,1958;0,0195294
3635,1602;0,0193773
3636,1243;0,019207
3637,0886;0,0190533
3638,0527;0,0189317
3639,0171;0,018846
3639,9812;0,0188026
3640,9456;0,0188151
3641,9097;0,0188939
3642,8740;0,0190307
3643,8381;0,0191912
3644,8025;0,0193149
3645,7666;0,0193151
3646,7310;0,0190856
3647,6951;0,018566
3648,6594;0,0178873
3649,6235;0,0173621
3650,5879;0,017169
3651,5520;0,0172201
3652,5164;0,0173373
3653,4805;0,0173902
3654,4448;0,0173246
3655,4089;0,0171606
3656,3733;0,0169748
3657,3374;0,0168482
3658,3018;0,0168074
3659,2659;0,0168194
3660,2302;0,0168375
3661,1943;0,0168446
3662,1587;0,0168613
3663,1228;0,0169209
3664,0872;0,0170333
3665,0513;0,0171687
3666,0156;0,017271
3666,9797;0,0172861
3667,9441;0,0171991
3668,9082;0,0170627
3669,8726;0,0169747
3670,8367;0,0169907
3671,8010;0,0170665
3672,7651;0,0170958
3673,7295;0,0169799
3674,6936;0,0166947
3675,6580;0,0163364
3676,6221;0,0160643
3677,5864;0,0159571
3678,5505;0,015976
3679,5149;0,0160481
3680,4790;0,0161339
3681,4434;0,016235
3682,4075;0,0163692
3683,3718;0,0165427
3684,3359;0,0167351
3685,3003;0,0169034
3686,2644;0,0169937
3687,2288;0,0169595
3688,1929;0,0167939
3689,1572;0,0165645
3690,1213;0,0163836
3691,0857;0,0163143
3692,0498;0,0163387
3693,0142;0,0164093
3693,9783;0,0164947
3694,9426;0,0165865
3695,9067;0,0166848
3696,8711;0,0167825
3697,8352;0,0168574
3698,7996;0,0168798
3699,7637;0,0168299
3700,7280;0,0167212
3701,6921;0,0166066
3702,6565;0,0165524
3703,6206;0,0165948
3704,5850;0,0167211
3705,5491;0,0168852
3706,5134;0,0170291
3707,4775;0,0170922
3708,4419;0,0170131
3709,4060;0,0167505
3710,3704;0,0163387
3711,3345;0,0159185
3712,2988;0,0156504
3713,2629;0,0155923
3714,2273;0,0156979
3715,1914;0,0158886
3716,1558;0,0161007
3717,1199;0,0162967
3718,0842;0,0164618
3719,0483;0,0165965
3720,0127;0,0167071
3720,9768;0,0167943
3721,9412;0,016849
3722,9053;0,0168599
3723,8696;0,0168309
3724,8337;0,0167918
3725,7981;0,0167873
3726,7622;0,0168488
3727,7266;0,0169761
3728,6907;0,0171419
3729,6550;0,0173075
3730,6191;0,0174311
3731,5835;0,0174666
3732,5476;0,0173621
3733,5120;0,0170847
3734,4761;0,0166817
3735,4404;0,0163061
3736,4045;0,0161157
3737,3689;0,0161512
3738,3330;0,0163392
3739,2974;0,0165668
3740,2615;0,01673
3741,2258;0,0167501
3742,1899;0,0165927
3743,1543;0,0163066
3744,1184;0,0160421
3745,0828;0,0159531
3746,0469;0,0160533
3747,0112;0,0162161
3747,9753;0,0162807
3748,9397;0,016135
3749,9038;0,0157857
3750,8682;0,0154038
3751,8323;0,0152104
3752,7966;0,0152701
3753,7607;0,0154801
3754,7251;0,0157013
3755,6892;0,0158355
3756,6536;0,0158392
3757,6177;0,0157272
3758,5820;0,0155684
3759,5461;0,0154487
3760,5105;0,0154167
3761,4746;0,0154641
3762,4390;0,0155513
3763,4031;0,01564
3764,3674;0,0157066
3765,3315;0,0157407
3766,2959;0,0157355
3767,2600;0,0156823
3768,2244;0,0155781
3769,1885;0,0154411
3770,1528;0,0153181
3771,1169;0,0152645
3772,0813;0,0153085
3773,0454;0,0154343
3774,0098;0,015593
3774,9739;0,0157263
3775,9382;0,015787
3776,9023;0,0157562
3777,8667;0,0156561
3778,8308;0,0155448
3779,7952;0,0154804
3780,7593;0,0154824
3781,7236;0,0155267
3782,6877;0,0155714
3783,6521;0,0155834
3784,6162;0,0155523
3785,5806;0,0154915
3786,5447;0,0154298
3787,5090;0,0153969
3788,4731;0,0154105
3789,4375;0,0154709
3790,4016;0,0155628
3791,3660;0,0156628
3792,3301;0,0157524
3793,2944;0,0158275
3794,2585;0,0159022
3795,2229;0,0159965
3796,1870;0,0161145
3797,1514;0,0162278
3798,1155;0,0162817
3799,0798;0,0162252
3800,0439;0,0160544
3801,0083;0,0158374
3801,9724;0,0156719
3802,9368;0,0155999
3803,9009;0,0155777
3804,8652;0,0155285
3805,8293;0,0154136
3806,7937;0,0152727
3807,7578;0,0152021
3808,7222;0,0152738
3809,6863;0,0154768
3810,6506;0,0157374
3811,6147;0,015973
3812,5791;0,0161281
3813,5432;0,0161898
3814,5076;0,016192
3815,4717;0,0161943
3816,4360;0,0162304
3817,4001;0,01627
3818,3645;0,0162395
3819,3286;0,0160844
3820,2930;0,0158275
3821,2571;0,0155724
3822,2214;0,0154232
3823,1855;0,0154039
3824,1499;0,0154664
3825,1140;0,0155498
3826,0784;0,0156185
3827,0425;0,0156696
3828,0068;0,0157201
3828,9709;0,0157892
3829,9353;0,0158859
3830,8994;0,0160065
3831,8638;0,0161389
3832,8279;0,0162663
3833,7922;0,0163662
3834,7563;0,016411
3835,7207;0,0163748
3836,6848;0,0162486
3837,6492;0,0160589
3838,6133;0,015863
3839,5776;0,0157124
3840,5417;0,0156187
3841,5061;0,0155618
3842,4702;0,0155245
3843,4346;0,0155162
3844,3987;0,0155689
3845,3630;0,0157117
3846,3271;0,0159464
3847,2915;0,0162404
3848,2556;0,0165338
3849,2200;0,0167467
3850,1841;0,0167793
3851,1484;0,0165268
3852,1125;0,0159691
3853,0769;0,0153203
3854,0410;0,0149332
3855,0054;0,0149322
3855,9695;0,0151762
3856,9338;0,0154905
3857,8979;0,0157718
3858,8623;0,0159763
3859,8264;0,0160897
3860,7908;0,016115
3861,7549;0,0160734
3862,7192;0,0160085
3863,6833;0,0159716
3864,6477;0,0159903
3865,6118;0,0160507
3866,5762;0,0161109
3867,5403;0,0161259
3868,5046;0,0160687
3869,4688;0,0159434
3870,4331;0,0157886
3871,3972;0,0156615
3872,3616;0,0156069
3873,3257;0,0156358
3874,2900;0,0157276
3875,2542;0,0158449
3876,2185;0,0159492
3877,1826;0,0160131
3878,1470;0,0160286
3879,1111;0,0160089
3880,0754;0,0159786
3881,0396;0,015951
3882,0039;0,015915
3882,9680;0,0158496
3883,9324;0,0157554
3884,8965;0,0156701
3885,8608;0,0156434
3886,8250;0,0156915
3887,7893;0,0157778
3888,7534;0,0158361
3889,7178;0,0158156
3890,6819;0,0157205
3891,6462;0,0156197
3892,6104;0,0155998
3893,5747;0,0156939
3894,5388;0,015865
3895,5032;0,016047
3896,4673;0,0161865
3897,4316;0,0162588
3898,3958;0,016266
3899,3601;0,0162235
3900,3242;0,0161406
3901,2886;0,0160125
3902,2527;0,0158381
3903,2170;0,0156449
3904,1812;0,0154863
3905,1455;0,0154052
3906,1096;0,0154053
3907,0740;0,015457
3908,0381;0,0155244
3909,0024;0,0155847
3909,9666;0,0156345
3910,9309;0,0156833
3911,8950;0,0157412
3912,8594;0,0158071
3913,8235;0,0158665
3914,7878;0,0158985
3915,7520;0,0158905
3916,7163;0,0158514
3917,6804;0,01581
3918,6448;0,0157954
3919,6089;0,0158144
3920,5732;0,0158487
3921,5374;0,0158703
3922,5017;0,0158621
3923,4658;0,0158306
3924,4302;0,0158029
3925,3943;0,0158068
3926,3586;0,0158483
3927,3228;0,0159063
3928,2871;0,0159454
3929,2512;0,0159349
3930,2156;0,0158663
3931,1797;0,0157606
3932,1440;0,0156598
3933,1082;0,0156022
3934,0725;0,0156022
3935,0366;0,0156499
3936,0010;0,0157233
3936,9651;0,0157992
3937,9294;0,0158582
3938,8936;0,015887
3939,8579;0,0158822
3940,8220;0,0158539
3941,7864;0,0158249
3942,7505;0,0158205
3943,7148;0,0158524
3944,6790;0,0159101
3945,6433;0,0159655
3946,6074;0,0159883
3947,5718;0,0159618
3948,5359;0,0158923
3949,5002;0,0158063
3950,4644;0,0157343
3951,4287;0,0156933
3952,3928;0,015682
3953,3572;0,0156889
3954,3213;0,0157037
3955,2856;0,0157227
3956,2498;0,0157469
3957,2141;0,0157757
3958,1782;0,0158027
3959,1426;0,0158172
3960,1067;0,0158114
3961,0710;0,0157864
3962,0352;0,0157539
3962,9995;0,0157302
3963,9636;0,0157272
3964,9280;0,015747
3965,8921;0,0157824
3966,8564;0,0158214
3967,8206;0,0158531
3968,7849;0,0158709
3969,7490;0,0158728
3970,7134;0,0158603
3971,6775;0,0158375
3972,6418;0,0158107
3973,6060;0,0157874
3974,5703;0,0157747
3975,5344;0,0157759
3976,4988;0,0157885
3977,4629;0,0158056
3978,4272;0,0158196
3979,3914;0,0158259
3980,3557;0,0158254
3981,3198;0,0158229
3982,2842;0,0158238
3983,2483;0,0158301
3984,2126;0,0158401
3985,1768;0,0158495
3986,1411;0,0158548
3987,1052;0,0158555
3988,0696;0,0158539
3989,0337;0,0158544
3989,9980;0,0158599
3990,9622;0,0158705
3991,9265;0,0158826
3992,8906;0,0158904
3993,8550;0,0158892
3994,8191;0,0158781
3995,7834;0,0158618
3996,7476;0,0158485
3997,7119;0,0158461
3998,6760;0,0158572
3999,6404;0,0158775
4000,6045;0,0159114

##### Extended Information
[Comments]
Sample name
Comment
Username
Division
Organization;UNIVERSIDAD INDUSTRIAL DE SANTANDER

[Detailed Information]
Creation date;28/03/2025 5:53 p.m.

Data array type;Linear data array
Horizontal axis;Wavenumber [cm-1]
Vertical axis;Abs
Start;399,193 cm-1
End;4000,6 cm-1
Data interval;0,964233 cm-1
Data points;3736    

[Measurement Information]
Model name;FT/IR-4X1typeA
Serial No.;A035162111

Accessory;ATR PRO 4X
Accessory S/N;A021162126
Incident angle;45 deg

Measurement date;28/03/2025 5:47 p.m.

Light source;Standard
Detector;TGS
Accumulation;40
Resolution;4 cm-1
Zero filling;On
Apodization;Cosine
Gain;Auto (8)
Aperture;Auto (7 mm)
Scan speed;Auto (2 mm/sec)
Filter;Auto (12800 Hz)

