TITLE;
DATA TYPE;INFRARED SPECTRUM
ORIGIN;JASCO
OWNER;
DATE;25/03/17
TIME;11:13:16
SPECTROMETER/DATA SYSTEM;
LOCALE;9226
RESOLUTION;
DELTAX;0,964233
XUNITS;1/CM
YUNITS;ABSORBANCE
FIRSTX;  399,1927
LASTX; 4000,6047
NPOINTS;    3736
FIRSTY;     0,20003
MAXY;     0,28037
MINY;     0,01088
XYDATA
399,1927;0,200028
400,1569;0,200753
401,1211;0,201562
402,0854;0,202415
403,0496;0,203268
404,0138;0,204099
404,9781;0,204889
405,9423;0,205644
406,9065;0,206405
407,8708;0,207262
408,8350;0,208305
409,7992;0,209562
410,7635;0,210938
411,7277;0,212221
412,6919;0,213185
413,6562;0,213702
414,6204;0,213788
415,5846;0,21358
416,5489;0,213343
417,5131;0,213501
418,4773;0,214504
419,4416;0,216394
420,4058;0,218598
421,3700;0,220451
422,3343;0,221685
423,2985;0,222381
424,2627;0,222772
425,2270;0,223102
426,1912;0,22353
427,1554;0,224056
428,1197;0,224535
429,0839;0,224769
430,0481;0,22463
431,0124;0,224141
431,9766;0,223486
432,9408;0,222931
433,9051;0,222707
434,8693;0,222916
435,8335;0,223495
436,7978;0,224252
437,7620;0,224952
438,7262;0,225413
439,6905;0,22555
440,6547;0,225388
441,6189;0,225034
442,5832;0,224623
443,5474;0,224248
444,5116;0,223897
445,4759;0,223478
446,4401;0,222905
447,4043;0,222188
448,3686;0,221452
449,3328;0,220892
450,2970;0,220669
451,2613;0,220812
452,2255;0,221185
453,1897;0,221555
454,1540;0,221714
455,1182;0,221565
456,0824;0,221167
457,0467;0,220692
458,0109;0,220336
458,9751;0,220194
459,9394;0,220231
460,9036;0,220356
461,8678;0,220511
462,8321;0,220689
463,7963;0,22089
464,7605;0,221081
465,7248;0,221184
466,6890;0,221128
467,6532;0,220897
468,6175;0,220552
469,5817;0,220189
470,5459;0,219893
471,5102;0,219696
472,4744;0,219576
473,4386;0,21951
474,4029;0,219513
475,3671;0,219645
476,3313;0,219955
477,2956;0,220433
478,2598;0,220994
479,2240;0,221505
480,1883;0,221846
481,1525;0,221973
482,1167;0,221935
483,0810;0,221843
484,0452;0,22181
485,0094;0,221902
485,9737;0,222127
486,9379;0,222458
487,9021;0,222864
488,8664;0,223315
489,8306;0,223765
490,7948;0,224144
491,7591;0,224386
492,7233;0,224471
493,6875;0,224458
494,6518;0,224455
495,6160;0,224559
496,5802;0,224794
497,5445;0,225108
498,5087;0,225407
499,4729;0,225618
500,4372;0,225731
501,4014;0,225803
502,3656;0,225923
503,3299;0,226146
504,2941;0,226467
505,2583;0,226831
506,2226;0,227182
507,1868;0,227495
508,1510;0,227786
509,1153;0,22809
510,0795;0,228432
511,0437;0,228806
512,0080;0,229172
512,9722;0,22948
513,9365;0,229695
514,9007;0,229822
515,8649;0,229905
516,8292;0,230012
517,7934;0,230192
518,7576;0,230435
519,7219;0,230686
520,6861;0,23088
521,6503;0,230987
522,6146;0,231008
523,5788;0,230953
524,5430;0,230812
525,5073;0,230557
526,4715;0,230169
527,4357;0,229677
528,4000;0,229155
529,3642;0,228687
530,3284;0,228315
531,2927;0,228024
532,2569;0,227759
533,2211;0,227468
534,1854;0,227149
535,1496;0,226848
536,1138;0,226633
537,0781;0,226535
538,0423;0,226529
539,0065;0,226548
539,9708;0,226525
540,9350;0,226434
541,8992;0,226304
542,8635;0,2262
543,8277;0,226188
544,7919;0,22631
545,7562;0,226573
546,7204;0,226954
547,6846;0,227413
548,6489;0,227911
549,6131;0,22842
550,5773;0,228929
551,5416;0,229425
552,5058;0,229893
553,4700;0,230303
554,4343;0,230614
555,3985;0,230783
556,3627;0,230769
557,3270;0,230538
558,2912;0,23006
559,2554;0,229311
560,2197;0,228289
561,1839;0,227038
562,1481;0,225658
563,1124;0,224291
564,0766;0,223084
565,0408;0,222134
566,0051;0,221461
566,9693;0,221005
567,9335;0,220656
568,8978;0,220302
569,8620;0,219874
570,8262;0,21936
571,7905;0,218792
572,7547;0,218224
573,7189;0,217704
574,6832;0,217265
575,6474;0,216925
576,6116;0,216676
577,5759;0,216499
578,5401;0,216366
579,5043;0,216251
580,4686;0,216139
581,4328;0,216017
582,3970;0,215873
583,3613;0,215689
584,3255;0,215453
585,2897;0,215171
586,2540;0,214879
587,2182;0,214629
588,1824;0,214467
589,1467;0,214405
590,1109;0,21441
591,0751;0,214422
592,0394;0,214381
593,0036;0,214257
593,9678;0,214049
594,9321;0,213767
595,8963;0,213413
596,8605;0,212981
597,8248;0,212478
598,7890;0,211935
599,7532;0,211404
600,7175;0,21093
601,6817;0,210523
602,6459;0,210156
603,6102;0,209788
604,5744;0,209389
605,5386;0,208947
606,5029;0,208455
607,4671;0,207893
608,4313;0,207227
609,3956;0,206426
610,3598;0,205491
611,3240;0,204461
612,2883;0,203407
613,2525;0,20239
614,2167;0,201441
615,1810;0,200548
616,1452;0,199663
617,1094;0,198731
618,0737;0,197709
619,0379;0,196583
620,0021;0,195364
620,9664;0,194077
621,9306;0,192748
622,8948;0,191413
623,8591;0,190117
624,8233;0,1889
625,7875;0,187861
626,7518;0,187039
627,7160;0,186427
628,6802;0,185962
629,6445;0,18554
630,6087;0,185047
631,5729;0,184397
632,5372;0,183575
633,5014;0,18264
634,4656;0,181705
635,4299;0,180884
636,3941;0,180243
637,3583;0,179773
638,3226;0,179403
639,2868;0,179037
640,2510;0,178595
641,2153;0,178033
642,1795;0,17735
643,1437;0,176584
644,1080;0,175788
645,0722;0,175021
646,0364;0,17433
647,0007;0,173735
647,9649;0,173231
648,9291;0,172793
649,8934;0,172395
650,8576;0,172033
651,8218;0,17173
652,7861;0,171529
653,7503;0,171465
654,7145;0,171539
655,6788;0,171699
656,6430;0,171869
657,6072;0,171982
658,5715;0,172023
659,5357;0,172023
660,4999;0,172014
661,4642;0,17197
662,4284;0,17178
663,3926;0,17128
664,3569;0,170318
665,3211;0,168834
666,2853;0,166918
667,2496;0,164853
668,2138;0,163054
669,1780;0,161888
670,1423;0,16136
671,1065;0,161049
672,0707;0,160479
673,0350;0,1594
673,9992;0,157829
674,9634;0,155968
675,9277;0,154077
676,8919;0,152343
677,8561;0,150807
678,8204;0,149418
679,7846;0,148125
680,7488;0,146927
681,7131;0,145855
682,6773;0,144922
683,6415;0,144115
684,6058;0,143406
685,5700;0,142784
686,5342;0,142251
687,4985;0,141805
688,4627;0,141429
689,4269;0,141087
690,3912;0,140754
691,3554;0,140422
692,3196;0,140099
693,2839;0,13979
694,2481;0,139488
695,2123;0,139179
696,1766;0,138848
697,1408;0,138491
698,1050;0,138116
699,0693;0,13773
700,0335;0,137335
700,9977;0,136924
701,9620;0,136479
702,9262;0,135985
703,8904;0,135434
704,8547;0,134845
705,8189;0,134254
706,7831;0,133695
707,7474;0,133181
708,7116;0,132698
709,6758;0,132209
710,6401;0,131675
711,6043;0,131068
712,5685;0,130386
713,5328;0,129643
714,4970;0,12886
715,4612;0,127644
716,4255;0,12691
717,3897;0,126187
718,3539;0,125441
719,3182;0,124633
720,2824;0,123744
721,2466;0,122791
722,2109;0,121819
723,1751;0,120871
724,1393;0,11997
725,1036;0,119111
726,0678;0,118275
727,0320;0,11744
727,9963;0,116599
728,9605;0,115759
729,9247;0,114936
730,8890;0,114148
731,8532;0,113406
732,8174;0,112715
733,7817;0,112071
734,7459;0,111468
735,7101;0,110899
736,6744;0,110361
737,6386;0,109858
738,6028;0,109389
739,5671;0,108945
740,5313;0,108508
741,4955;0,108052
742,4598;0,107564
743,4240;0,107041
744,3882;0,106497
745,3525;0,105951
746,3167;0,105415
747,2809;0,104892
748,2452;0,104382
749,2094;0,103885
750,1736;0,103403
751,1379;0,102935
752,1021;0,102473
753,0663;0,102006
754,0306;0,101522
754,9948;0,101021
755,9590;0,100516
756,9233;0,100023
757,8875;0,0995557
758,8517;0,0991147
759,8160;0,0986913
760,7802;0,0982753
761,7444;0,0978619
762,7087;0,0974526
763,6729;0,0970521
764,6371;0,0966628
765,6014;0,0962841
766,5656;0,0959152
767,5298;0,0955587
768,4941;0,0952212
769,4583;0,0949088
770,4225;0,0946209
771,3868;0,0943475
772,3510;0,0940714
773,3152;0,0937771
774,2795;0,0934592
775,2437;0,0931276
776,2079;0,0928027
777,1722;0,0925043
778,1364;0,0922378
779,1006;0,0919875
780,0649;0,0917199
781,0291;0,0913965
781,9933;0,0909891
782,9576;0,0904901
783,9218;0,0899139
784,8860;0,0892909
785,8503;0,0886593
786,8145;0,0880561
787,7787;0,0875103
788,7430;0,0870379
789,7072;0,086638
790,6714;0,0862946
791,6357;0,0859841
792,5999;0,0856856
793,5641;0,0853898
794,5284;0,0851003
795,4926;0,0848268
796,4568;0,0845755
797,4211;0,0843438
798,3853;0,0841217
799,3495;0,0838982
800,3138;0,0836676
801,2780;0,0834316
802,2422;0,0831971
803,2065;0,0829715
804,1707;0,0827598
805,1349;0,0825635
806,0992;0,0823814
807,0634;0,0822105
808,0276;0,0820471
808,9919;0,0818881
809,9561;0,0817318
810,9203;0,0815791
811,8846;0,0814328
812,8488;0,081297
813,8130;0,081174
814,7773;0,0810619
815,7415;0,0809531
816,7057;0,0808373
817,6700;0,080707
818,6342;0,0805633
819,5984;0,0804179
820,5627;0,0802884
821,5269;0,0801881
822,4911;0,0801168
823,4554;0,0800592
824,4196;0,0799924
825,3839;0,0798983
826,3481;0,0797735
827,3123;0,0796293
828,2766;0,0794826
829,2408;0,0793428
830,2050;0,079204
831,1693;0,0790464
832,1335;0,0788472
833,0977;0,0785944
834,0620;0,0782944
835,0262;0,0779705
835,9904;0,0776521
836,9547;0,077361
837,9189;0,077102
838,8831;0,0768637
839,8474;0,0766271
840,8116;0,0763768
841,7758;0,0761082
842,7401;0,0758274
843,7043;0,0755447
844,6685;0,075269
845,6328;0,0750066
846,5970;0,0747636
847,5612;0,0745495
848,5255;0,0743744
849,4897;0,0742434
850,4539;0,0741505
851,4182;0,0740777
852,3824;0,0740024
853,3466;0,0739081
854,3109;0,0737915
855,2751;0,0736632
856,2393;0,0735403
857,2036;0,0734374
858,1678;0,0733601
859,1320;0,0733041
860,0963;0,07326
861,0605;0,0732194
862,0247;0,0731814
862,9890;0,073155
863,9532;0,073157
864,9174;0,0732058
865,8817;0,0733125
866,8459;0,0734756
867,8101;0,0736807
868,7744;0,0739073
869,7386;0,0741371
870,7028;0,0743598
871,6671;0,0745733
872,6313;0,0747788
873,5955;0,0749765
874,5598;0,0751641
875,5240;0,0753399
876,4882;0,0755079
877,4525;0,0756799
878,4167;0,0758747
879,3809;0,0761147
880,3452;0,0764212
881,3094;0,0768109
882,2736;0,0772931
883,2379;0,077869
884,2021;0,0785329
885,1663;0,0792755
886,1306;0,0800884
887,0948;0,0809661
888,0590;0,0819047
889,0233;0,0828965
889,9875;0,0839253
890,9517;0,0849633
891,9160;0,0859735
892,8802;0,0869149
893,8444;0,0877483
894,8087;0,08844
895,7729;0,0889636
896,7371;0,0892994
897,7014;0,0894342
898,6656;0,0893615
899,6298;0,089082
900,5941;0,0886062
901,5583;0,087958
902,5225;0,0871771
903,4868;0,0863193
904,4510;0,0854498
905,4152;0,0846316
906,3795;0,0839111
907,3437;0,08331
908,3079;0,0828264
909,2722;0,0824466
910,2364;0,082159
911,2007;0,0819633
912,1649;0,0818681
913,1292;0,0818807
914,0934;0,0819965
915,0576;0,0821963
916,0219;0,0824542
916,9861;0,08275
917,9503;0,0830759
918,9146;0,083434
919,8788;0,0838254
920,8430;0,084241
921,8073;0,0846599
922,7715;0,0850585
923,7357;0,0854214
924,7000;0,0857478
925,6642;0,0860475
926,6284;0,0863314
927,5927;0,0866044
928,5569;0,0868647
929,5211;0,08711
930,4854;0,0873436
931,4496;0,0875768
932,4138;0,0878243
933,3781;0,0880992
934,3423;0,0884101
935,3065;0,0887632
936,2708;0,0891659
937,2350;0,08963
938,1992;0,0901708
939,1635;0,0908031
940,1277;0,0915379
941,0919;0,092379
942,0562;0,0933232
943,0204;0,0943622
943,9846;0,0954854
944,9489;0,0966836
945,9131;0,0979506
946,8773;0,0992833
947,8416;0,100679
948,8058;0,102135
949,7700;0,103646
950,7343;0,105204
951,6985;0,106808
952,6627;0,108462
953,6270;0,110179
954,5912;0,111972
955,5554;0,113855
956,5197;0,11583
957,4839;0,11789
958,4481;0,120014
959,4124;0,122175
960,3766;0,124348
961,3408;0,12652
962,3051;0,12869
963,2693;0,130871
964,2335;0,133075
965,1978;0,135312
966,1620;0,137584
967,1262;0,139895
968,0905;0,142263
969,0547;0,144725
970,0189;0,147333
970,9832;0,150135
971,9474;0,153166
972,9116;0,156435
973,8759;0,159934
974,8401;0,16365
975,8043;0,167572
976,7686;0,171692
977,7328;0,175998
978,6970;0,180454
979,6613;0,185
980,6255;0,189542
981,5897;0,193968
982,5540;0,198159
983,5182;0,202016
984,4824;0,205476
985,4467;0,208526
986,4109;0,2112
987,3751;0,213562
988,3394;0,215674
989,3036;0,217579
990,2678;0,219284
991,2321;0,220775
992,1963;0,222038
993,1605;0,223076
994,1248;0,223926
995,0890;0,224647
996,0532;0,225301
997,0175;0,225935
997,9817;0,226569
998,9459;0,227208
999,9102;0,227856
1000,8744;0,228541
1001,8386;0,229314
1002,8029;0,230242
1003,7671;0,231387
1004,7313;0,232787
1005,6956;0,234454
1006,6598;0,236381
1007,6240;0,238551
1008,5883;0,240953
1009,5525;0,243572
1010,5167;0,246383
1011,4810;0,249343
1012,4452;0,252388
1013,4094;0,255441
1014,3737;0,258422
1015,3379;0,261263
1016,3021;0,263912
1017,2664;0,266333
1018,2306;0,268511
1019,1948;0,270441
1020,1591;0,272132
1021,1233;0,273605
1022,0875;0,274888
1023,0518;0,276012
1024,0160;0,277005
1024,9802;0,277884
1025,9445;0,278657
1026,9087;0,279314
1027,8729;0,279838
1028,8372;0,280205
1029,8014;0,280374
1030,7656;0,280288
1031,7299;0,279871
1032,6941;0,279049
1033,6583;0,277778
1034,6226;0,27607
1035,5868;0,274013
1036,5510;0,271762
1037,5153;0,269498
1038,4795;0,267392
1039,4437;0,265566
1040,4080;0,264081
1041,3722;0,26294
1042,3364;0,262099
1043,3007;0,261478
1044,2649;0,260983
1045,2291;0,260516
1046,1934;0,259991
1047,1576;0,259345
1048,1218;0,258536
1049,0861;0,257533
1050,0503;0,256307
1051,0145;0,254821
1051,9788;0,25305
1052,9430;0,250991
1053,9072;0,248675
1054,8715;0,246156
1055,8357;0,243482
1056,7999;0,240673
1057,7642;0,237702
1058,7284;0,23452
1059,6926;0,231086
1060,6569;0,227404
1061,6211;0,223544
1062,5853;0,219624
1063,5496;0,215787
1064,5138;0,21215
1065,4780;0,208786
1066,4423;0,20571
1067,4065;0,202892
1068,3707;0,20028
1069,3350;0,197816
1070,2992;0,195452
1071,2634;0,19314
1072,2277;0,190838
1073,1919;0,1885
1074,1561;0,186086
1075,1204;0,183568
1076,0846;0,180941
1077,0488;0,178228
1078,0131;0,175479
1078,9773;0,172764
1079,9415;0,170166
1080,9058;0,16776
1081,8700;0,165607
1082,8342;0,163734
1083,7985;0,162136
1084,7627;0,16078
1085,7269;0,159621
1086,6912;0,158617
1087,6554;0,157744
1088,6196;0,156995
1089,5839;0,156373
1090,5481;0,155878
1091,5123;0,155502
1092,4766;0,15523
1093,4408;0,155042
1094,4050;0,154922
1095,3693;0,154858
1096,3335;0,154839
1097,2977;0,15485
1098,2620;0,154873
1099,2262;0,154885
1100,1904;0,154862
1101,1547;0,154787
1102,1189;0,154644
1103,0831;0,154424
1104,0474;0,154124
1105,0116;0,153744
1105,9758;0,153289
1106,9401;0,152765
1107,9043;0,152171
1108,8685;0,151491
1109,8328;0,150698
1110,7970;0,149756
1111,7612;0,148633
1112,7255;0,147321
1113,6897;0,145842
1114,6539;0,144255
1115,6182;0,14264
1116,5824;0,141081
1117,5466;0,139639
1118,5109;0,138332
1119,4751;0,137128
1120,4393;0,135949
1121,4036;0,1347
1122,3678;0,133291
1123,3320;0,13166
1124,2963;0,129789
1125,2605;0,127693
1126,2247;0,125407
1127,1890;0,122974
1128,1532;0,120436
1129,1174;0,117831
1130,0817;0,115201
1131,0459;0,112589
1132,0101;0,110042
1132,9744;0,107607
1133,9386;0,105332
1134,9028;0,103264
1135,8671;0,101446
1136,8313;0,0999128
1137,7955;0,0986823
1138,7598;0,0977525
1139,7240;0,0971031
1140,6882;0,0967024
1141,6525;0,0965165
1142,6167;0,0965157
1143,5809;0,0966757
1144,5452;0,0969753
1145,5094;0,0973924
1146,4736;0,097903
1147,4379;0,0984833
1148,4021;0,0991129
1149,3663;0,0997758
1150,3306;0,100457
1151,2948;0,101136
1152,2590;0,101782
1153,2233;0,102352
1154,1875;0,102799
1155,1517;0,103072
1156,1160;0,103126
1157,0802;0,102917
1158,0444;0,102398
1159,0087;0,101517
1159,9729;0,100223
1160,9371;0,0984751
1161,9014;0,0962596
1162,8656;0,0936029
1163,8298;0,0905736
1164,7941;0,0872747
1165,7583;0,083829
1166,7225;0,0803625
1167,6868;0,0769893
1168,6510;0,0738
1169,6152;0,0708557
1170,5795;0,0681871
1171,5437;0,0658004
1172,5079;0,0636862
1173,4722;0,0618285
1174,4364;0,0602094
1175,4006;0,0588098
1176,3649;0,0576085
1177,3291;0,0565817
1178,2933;0,055707
1179,2576;0,0549669
1180,2218;0,0543496
1181,1860;0,0538478
1182,1503;0,0534533
1183,1145;0,0531556
1184,0787;0,0529428
1185,0430;0,052806
1186,0072;0,0527431
1186,9714;0,0527589
1187,9357;0,0528626
1188,8999;0,053063
1189,8641;0,0533657
1190,8284;0,0537719
1191,7926;0,0542793
1192,7568;0,0548815
1193,7211;0,0555682
1194,6853;0,0563249
1195,6495;0,0571339
1196,6138;0,0579766
1197,5780;0,0588346
1198,5422;0,0596918
1199,5065;0,0604662
1200,4707;0,0612918
1201,4349;0,0620864
1202,3992;0,0628475
1203,3634;0,0635754
1204,3276;0,064271
1205,2919;0,0649355
1206,2561;0,0655729
1207,2203;0,0661945
1208,1846;0,0668218
1209,1488;0,0674852
1210,1130;0,0682158
1211,0773;0,069036
1212,0415;0,0699518
1213,0057;0,0709537
1213,9700;0,0720225
1214,9342;0,0731382
1215,8984;0,0742845
1216,8627;0,0754477
1217,8269;0,0766135
1218,7911;0,0777653
1219,7554;0,078885
1220,7196;0,0799564
1221,6838;0,0809687
1222,6481;0,081917
1223,6123;0,082801
1224,5765;0,0836228
1225,5408;0,0843854
1226,5050;0,0850925
1227,4692;0,0857479
1228,4335;0,0863547
1229,3977;0,0869143
1230,3619;0,0874248
1231,3262;0,0878809
1232,2904;0,0882757
1233,2546;0,0886035
1234,2189;0,0888631
1235,1831;0,0890596
1236,1473;0,0892037
1237,1116;0,0893081
1238,0758;0,0893827
1239,0400;0,0894307
1240,0043;0,0894482
1240,9685;0,0894268
1241,9327;0,0893568
1242,8970;0,0892308
1243,8612;0,0890445
1244,8254;0,0887976
1245,7897;0,0884939
1246,7539;0,0881426
1247,7181;0,0877582
1248,6824;0,0873566
1249,6466;0,0869505
1250,6108;0,0865449
1251,5751;0,086138
1252,5393;0,0857255
1253,5035;0,0853063
1254,4678;0,0848846
1255,4320;0,0844655
1256,3962;0,0840489
1257,3605;0,0836258
1258,3247;0,0831813
1259,2889;0,0827015
1260,2532;0,0821801
1261,2174;0,0816193
1262,1816;0,0810241
1263,1459;0,0803955
1264,1101;0,0797275
1265,0743;0,0790113
1266,0386;0,0782403
1267,0028;0,0774143
1267,9670;0,076539
1268,9313;0,0756225
1269,8955;0,0746723
1270,8597;0,0736954
1271,8240;0,0726996
1272,7882;0,0716956
1273,7524;0,0706973
1274,7167;0,0697196
1275,6809;0,0687758
1276,6451;0,0678741
1277,6094;0,067015
1278,5736;0,0661918
1279,5378;0,0653934
1280,5021;0,0646099
1281,4663;0,0638382
1282,4305;0,0630844
1283,3948;0,062361
1284,3590;0,0616822
1285,3232;0,0610606
1286,2875;0,060506
1287,2517;0,0600266
1288,2159;0,0596296
1289,1802;0,05932
1290,1444;0,0590978
1291,1086;0,0589572
1292,0729;0,0588889
1293,0371;0,0588848
1294,0013;0,0589418
1294,9656;0,0590631
1295,9298;0,0592553
1296,8940;0,0595243
1297,8583;0,0598722
1298,8225;0,060296
1299,7867;0,0607876
1300,7510;0,0613357
1301,7152;0,0619294
1302,6794;0,0625599
1303,6437;0,0632234
1304,6079;0,0639217
1305,5721;0,0646596
1306,5364;0,0654404
1307,5006;0,0662636
1308,4648;0,0671237
1309,4291;0,0680116
1310,3933;0,068914
1311,3575;0,0698114
1312,3218;0,0706755
1313,2860;0,0714709
1314,2502;0,0721602
1315,2145;0,0727108
1316,1787;0,0730985
1317,1429;0,0733109
1318,1072;0,0733512
1319,0714;0,073242
1320,0356;0,0730247
1320,9999;0,0727484
1321,9641;0,0724565
1322,9283;0,0721772
1323,8926;0,0719239
1324,8568;0,0716997
1325,8210;0,0715031
1326,7853;0,0713295
1327,7495;0,0711706
1328,7137;0,0710137
1329,6780;0,0708419
1330,6422;0,0706378
1331,6064;0,0703886
1332,5707;0,0700888
1333,5349;0,0697396
1334,4991;0,069342
1335,4634;0,0688902
1336,4276;0,0683699
1337,3918;0,0677655
1338,3561;0,0670781
1339,3203;0,0663426
1340,2845;0,0656234
1341,2488;0,0649821
1342,2130;0,0644486
1343,1772;0,06402
1344,1415;0,0636803
1345,1057;0,0634173
1346,0699;0,0632294
1347,0342;0,0631226
1347,9984;0,0631055
1348,9626;0,0631839
1349,9269;0,0633575
1350,8911;0,0636182
1351,8553;0,0639529
1352,8196;0,0643488
1353,7838;0,064797
1354,7480;0,0652932
1355,7123;0,0658333
1356,6765;0,0664085
1357,6407;0,0670061
1358,6050;0,0676151
1359,5692;0,06823
1360,5334;0,0688471
1361,4977;0,0694551
1362,4619;0,0700341
1363,4261;0,0705684
1364,3904;0,0710561
1365,3546;0,0715032
1366,3188;0,0719121
1367,2831;0,072276
1368,2473;0,0725797
1369,2115;0,072804
1370,1758;0,0729291
1371,1400;0,0729352
1372,1042;0,0728022
1373,0685;0,0725152
1374,0327;0,0720797
1374,9969;0,0715307
1375,9612;0,0709125
1376,9254;0,0702413
1377,8896;0,0694922
1378,8539;0,0686273
1379,8181;0,0676391
1380,7823;0,0665729
1381,7466;0,0655058
1382,7108;0,0644968
1383,6750;0,0635507
1384,6393;0,0626254
1385,6035;0,0616766
1386,5677;0,0607116
1387,5320;0,0598108
1388,4962;0,0590753
1389,4604;0,0585462
1390,4247;0,0581858
1391,3889;0,0579254
1392,3531;0,0577124
1393,3174;0,0575268
1394,2816;0,0573711
1395,2458;0,0572537
1396,2101;0,0571789
1397,1743;0,0571516
1398,1385;0,0571839
1399,1028;0,0572919
1400,0670;0,0574827
1401,0313;0,0577447
1401,9955;0,0580529
1402,9597;0,0583836
1403,9240;0,0587271
1404,8882;0,0590912
1405,8524;0,0594925
1406,8167;0,0599422
1407,7809;0,0604398
1408,7451;0,0609796
1409,7094;0,061563
1410,6736;0,0621987
1411,6378;0,0628898
1412,6021;0,0636205
1413,5663;0,0643562
1414,5305;0,0650594
1415,4948;0,0657047
1416,4590;0,0662814
1417,4232;0,0667838
1418,3875;0,0672073
1419,3517;0,0675579
1420,3159;0,0678462
1421,2802;0,0680545
1422,2444;0,0681333
1423,2086;0,0680367
1424,1729;0,067756
1425,1371;0,0673201
1426,1013;0,0667618
1427,0656;0,0660834
1428,0298;0,0652597
1428,9940;0,0642857
1429,9583;0,0632246
1430,9225;0,0621901
1431,8867;0,0612605
1432,8510;0,0604156
1433,8152;0,059555
1434,7794;0,0585743
1435,7437;0,0574642
1436,7079;0,0563777
1437,6721;0,0555442
1438,6364;0,0550686
1439,6006;0,0548763
1440,5648;0,0548334
1441,5291;0,0548544
1442,4933;0,0549223
1443,4575;0,0550582
1444,4218;0,0552815
1445,3860;0,0555864
1446,3502;0,0559447
1447,3145;0,0563248
1448,2787;0,0567096
1449,2429;0,0570979
1450,2072;0,0574874
1451,1714;0,0578584
1452,1356;0,0581744
1453,0999;0,0583943
1454,0641;0,0584791
1455,0283;0,0583814
1455,9926;0,0580421
1456,9568;0,057489
1457,9210;0,0569702
1458,8853;0,0567371
1459,8495;0,0567602
1460,8137;0,0568408
1461,7780;0,0567874
1462,7422;0,056457
1463,7064;0,0557657
1464,6707;0,0547468
1465,6349;0,0535838
1466,5991;0,0524838
1467,5634;0,0515068
1468,5276;0,0505541
1469,4918;0,0494596
1470,4561;0,0480594
1471,4203;0,0462508
1472,3845;0,0441053
1473,3488;0,0419458
1474,3130;0,0401452
1475,2772;0,0388214
1476,2415;0,0378553
1477,2057;0,0370905
1478,1699;0,0364315
1479,1342;0,0358389
1480,0984;0,0353029
1481,0626;0,0348301
1482,0269;0,0344403
1482,9911;0,034157
1483,9553;0,0339912
1484,9196;0,0339322
1485,8838;0,0339501
1486,8480;0,0340076
1487,8123;0,0340707
1488,7765;0,034133
1489,7407;0,034241
1490,7050;0,0344639
1491,6692;0,0348236
1492,6334;0,035288
1493,5977;0,03582
1494,5619;0,0364117
1495,5261;0,0370819
1496,4904;0,0378502
1497,4546;0,0387075
1498,4188;0,0396182
1499,3831;0,0405403
1500,3473;0,0414268
1501,3115;0,042224
1502,2758;0,0428847
1503,2400;0,0433822
1504,2042;0,0437092
1505,1685;0,04384
1506,1327;0,0436705
1507,0969;0,043119
1508,0612;0,0424042
1509,0254;0,0418312
1509,9896;0,0414258
1510,9539;0,0410622
1511,9181;0,0406366
1512,8823;0,0400955
1513,8466;0,0394173
1514,8108;0,0386034
1515,7750;0,037684
1516,7393;0,0367125
1517,7035;0,0357353
1518,6677;0,0347612
1519,6320;0,0337727
1520,5962;0,0327781
1521,5604;0,0318519
1522,5247;0,0310928
1523,4889;0,0305374
1524,4531;0,0301394
1525,4174;0,0298302
1526,3816;0,0295796
1527,3458;0,0293997
1528,3101;0,0293062
1529,2743;0,0292861
1530,2385;0,0293024
1531,2028;0,0293202
1532,1670;0,0293313
1533,1312;0,0293639
1534,0955;0,0294605
1535,0597;0,0296321
1536,0239;0,0298411
1536,9882;0,0300353
1537,9524;0,0301839
1538,9166;0,0302781
1539,8809;0,030298
1540,8451;0,0302375
1541,8093;0,0301958
1542,7736;0,0302773
1543,7378;0,0304648
1544,7020;0,0307014
1545,6663;0,0309644
1546,6305;0,0312568
1547,5947;0,0315759
1548,5590;0,0319027
1549,5232;0,0322147
1550,4874;0,0325071
1551,4517;0,0328003
1552,4159;0,0331211
1553,3801;0,0334715
1554,3444;0,0338177
1555,3086;0,0341052
1556,2728;0,0342762
1557,2371;0,0342762
1558,2013;0,0341168
1559,1655;0,0340317
1560,1298;0,0343095
1561,0940;0,0349272
1562,0582;0,0356845
1563,0225;0,0364317
1563,9867;0,0371026
1564,9509;0,0376798
1565,9152;0,0381729
1566,8794;0,0386162
1567,8436;0,0390692
1568,8079;0,0395965
1569,7721;0,0402238
1570,7363;0,0409141
1571,7006;0,0416013
1572,6648;0,0422447
1573,6290;0,0428587
1574,5933;0,0435064
1575,5575;0,0442538
1576,5217;0,0451076
1577,4860;0,0460137
1578,4502;0,0469269
1579,4144;0,0478418
1580,3787;0,048775
1581,3429;0,0497453
1582,3071;0,0507591
1583,2714;0,051805
1584,2356;0,0528615
1585,1998;0,0539135
1586,1641;0,0549542
1587,1283;0,0559729
1588,0925;0,056943
1589,0568;0,0578261
1590,0210;0,0585853
1590,9852;0,0591936
1591,9495;0,0596319
1592,9137;0,0598837
1593,8779;0,0599407
1594,8422;0,0598157
1595,8064;0,0595481
1596,7706;0,059191
1597,7349;0,0587905
1598,6991;0,0583737
1599,6633;0,0579515
1600,6276;0,0575282
1601,5918;0,0571109
1602,5560;0,0567111
1603,5203;0,0563397
1604,4845;0,0559985
1605,4487;0,0556735
1606,4130;0,05534
1607,3772;0,0549793
1608,3414;0,0546021
1609,3057;0,0542552
1610,2699;0,0539947
1611,2341;0,0538403
1612,1984;0,0537578
1613,1626;0,0536787
1614,1268;0,0535343
1615,0911;0,0532938
1616,0553;0,0530096
1617,0195;0,0528153
1617,9838;0,0528133
1618,9480;0,0529761
1619,9122;0,0531915
1620,8765;0,0533541
1621,8407;0,0534097
1622,8049;0,0533633
1623,7692;0,053267
1624,7334;0,0531805
1625,6976;0,053128
1626,6619;0,0530977
1627,6261;0,0530782
1628,5903;0,0530808
1629,5546;0,053125
1630,5188;0,053208
1631,4830;0,0532956
1632,4473;0,0533334
1633,4115;0,0532604
1634,3757;0,0530202
1635,3400;0,0526128
1636,3042;0,0521711
1637,2684;0,0518786
1638,2327;0,0517836
1639,1969;0,0518111
1640,1611;0,0518805
1641,1254;0,051949
1642,0896;0,0519962
1643,0538;0,0519962
1644,0181;0,0518996
1644,9823;0,0516426
1645,9465;0,0512153
1646,9108;0,050748
1647,8750;0,0504246
1648,8392;0,0502812
1649,8035;0,0501871
1650,7677;0,0499411
1651,7319;0,0493251
1652,6962;0,0482423
1653,6604;0,047051
1654,6246;0,046349
1655,5889;0,0462156
1656,5531;0,046334
1657,5173;0,046436
1658,4816;0,0463914
1659,4458;0,0461487
1660,4100;0,0456953
1661,3743;0,0450679
1662,3385;0,0443826
1663,3027;0,0437931
1664,2670;0,0433801
1665,2312;0,043104
1666,1954;0,0428493
1667,1597;0,0424831
1668,1239;0,0419074
1669,0881;0,0411302
1670,0524;0,0403027
1671,0166;0,039604
1671,9808;0,0390733
1672,9451;0,0386092
1673,9093;0,0380948
1674,8735;0,0375058
1675,8378;0,036939
1676,8020;0,0365308
1677,7662;0,0363342
1678,7305;0,0362851
1679,6947;0,0362578
1680,6589;0,0361136
1681,6232;0,0357097
1682,5874;0,0349323
1683,5516;0,0338488
1684,5159;0,0328185
1685,4801;0,0321829
1686,4443;0,0319366
1687,4086;0,0318757
1688,3728;0,0318334
1689,3370;0,0317449
1690,3013;0,0316182
1691,2655;0,0314888
1692,2297;0,0313853
1693,1940;0,0313155
1694,1582;0,031266
1695,1224;0,0312052
1696,0867;0,0310886
1697,0509;0,0308776
1698,0151;0,0305763
1698,9794;0,0302626
1699,9436;0,0300645
1700,9078;0,0300737
1701,8721;0,030283
1702,8363;0,0306106
1703,8005;0,0309654
1704,7648;0,0312915
1705,7290;0,0315812
1706,6932;0,0318673
1707,6575;0,0321973
1708,6217;0,0326035
1709,5859;0,0330902
1710,5502;0,0336412
1711,5144;0,0342307
1712,4786;0,0348285
1713,4429;0,0354019
1714,4071;0,0359174
1715,3713;0,0363465
1716,3356;0,0366849
1717,2998;0,0369849
1718,2640;0,0373378
1719,2283;0,037792
1720,1925;0,0383249
1721,1567;0,0388876
1722,1210;0,0394421
1723,0852;0,0399682
1724,0494;0,0404609
1725,0137;0,0409265
1725,9779;0,0413793
1726,9421;0,0418312
1727,9064;0,0422801
1728,8706;0,0427016
1729,8348;0,043047
1730,7991;0,0432446
1731,7633;0,0432125
1732,7275;0,0429127
1733,6918;0,0424382
1734,6560;0,0419908
1735,6202;0,0416937
1736,5845;0,0414966
1737,5487;0,0412632
1738,5129;0,0408779
1739,4772;0,0402991
1740,4414;0,0395719
1741,4056;0,0387976
1742,3699;0,0380624
1743,3341;0,0373857
1744,2983;0,0367325
1745,2626;0,0360518
1746,2268;0,0352888
1747,1910;0,0343746
1748,1553;0,0332343
1749,1195;0,031857
1750,0837;0,0303757
1751,0480;0,0290163
1752,0122;0,0279276
1752,9764;0,0270967
1753,9407;0,026411
1754,9049;0,0257562
1755,8691;0,0250752
1756,8334;0,0243748
1757,7976;0,0236889
1758,7618;0,023029
1759,7261;0,0223682
1760,6903;0,0216771
1761,6545;0,0209745
1762,6188;0,0203321
1763,5830;0,0198213
1764,5472;0,0194586
1765,5115;0,0192033
1766,4757;0,0189933
1767,4399;0,0187786
1768,4042;0,0185298
1769,3684;0,0182297
1770,3326;0,0178643
1771,2969;0,0174361
1772,2611;0,0169939
1773,2253;0,016626
1774,1896;0,0163956
1775,1538;0,0162944
1776,1180;0,0162635
1777,0823;0,0162392
1778,0465;0,0161832
1779,0107;0,0160891
1779,9750;0,0159733
1780,9392;0,0158538
1781,9034;0,0157343
1782,8677;0,0156086
1783,8319;0,0154801
1784,7961;0,0153741
1785,7604;0,0153262
1786,7246;0,0153545
1787,6888;0,0154431
1788,6531;0,0155451
1789,6173;0,0155993
1790,5815;0,0155525
1791,5458;0,0153933
1792,5100;0,0151815
1793,4742;0,0150161
1794,4385;0,0149534
1795,4027;0,0149742
1796,3669;0,0150215
1797,3312;0,0150437
1798,2954;0,0150146
1799,2596;0,0149362
1800,2239;0,0148319
1801,1881;0,0147323
1802,1523;0,0146587
1803,1166;0,0146176
1804,0808;0,0146062
1805,0450;0,0146191
1806,0093;0,0146493
1806,9735;0,0146845
1807,9377;0,0147051
1808,9020;0,0146891
1809,8662;0,0146249
1810,8304;0,014523
1811,7947;0,0144127
1812,7589;0,0143232
1813,7231;0,0142655
1814,6874;0,0142317
1815,6516;0,0142069
1816,6158;0,0141835
1817,5801;0,0141679
1818,5443;0,014175
1819,5085;0,0142121
1820,4728;0,0142687
1821,4370;0,0143195
1822,4012;0,0143402
1823,3655;0,0143237
1824,3297;0,014288
1825,2939;0,0142631
1826,2582;0,0142655
1827,2224;0,0142811
1828,1866;0,0142744
1829,1509;0,014218
1830,1151;0,0141228
1831,0793;0,014036
1832,0436;0,0140006
1833,0078;0,0140217
1833,9720;0,0140693
1834,9363;0,0141066
1835,9005;0,0141154
1836,8647;0,0141078
1837,8290;0,0141157
1838,7932;0,0141622
1839,7574;0,0142407
1840,7217;0,014316
1841,6859;0,0143423
1842,6501;0,0142858
1843,6144;0,0141505
1844,5786;0,0139894
1845,5428;0,0138721
1846,5071;0,0138306
1847,4713;0,0138449
1848,4355;0,0138731
1849,3998;0,0138821
1850,3640;0,0138609
1851,3282;0,0138176
1852,2925;0,0137699
1853,2567;0,0137347
1854,2209;0,0137235
1855,1852;0,013741
1856,1494;0,0137854
1857,1136;0,0138487
1858,0779;0,0139176
1859,0421;0,0139786
1860,0063;0,0140245
1860,9706;0,0140582
1861,9348;0,0140893
1862,8990;0,014126
1863,8633;0,0141679
1864,8275;0,0142054
1865,7917;0,0142244
1866,7560;0,0142122
1867,7202;0,014165
1868,6844;0,0140923
1869,6487;0,0140127
1870,6129;0,0139397
1871,5771;0,0138743
1872,5414;0,0138123
1873,5056;0,0137547
1874,4698;0,0137122
1875,4341;0,0136983
1876,3983;0,0137185
1877,3625;0,0137628
1878,3268;0,0138098
1879,2910;0,0138396
1880,2552;0,0138463
1881,2195;0,0138416
1882,1837;0,0138469
1883,1479;0,0138786
1884,1122;0,0139361
1885,0764;0,0140005
1886,0406;0,0140446
1887,0049;0,0140485
1887,9691;0,0140131
1888,9333;0,0139622
1889,8976;0,0139298
1890,8618;0,0139357
1891,8260;0,0139705
1892,7903;0,0140005
1893,7545;0,013988
1894,7188;0,0139137
1895,6830;0,0137899
1896,6472;0,0136585
1897,6115;0,0135693
1898,5757;0,0135545
1899,5399;0,0136142
1900,5042;0,0137192
1901,4684;0,0138257
1902,4326;0,0138938
1903,3969;0,0139054
1904,3611;0,0138706
1905,3253;0,0138203
1906,2896;0,013789
1907,2538;0,0137973
1908,2180;0,01384
1909,1823;0,0138887
1910,1465;0,0139075
1911,1107;0,0138758
1912,0750;0,0137986
1913,0392;0,0137011
1914,0034;0,0136143
1914,9677;0,0135622
1915,9319;0,0135546
1916,8961;0,0135841
1917,8604;0,013631
1918,8246;0,0136736
1919,7888;0,0136971
1920,7531;0,0136951
1921,7173;0,0136665
1922,6815;0,013614
1923,6458;0,0135447
1924,6100;0,0134711
1925,5742;0,0134069
1926,5385;0,0133619
1927,5027;0,013339
1928,4669;0,0133362
1929,4312;0,0133513
1930,3954;0,0133843
1931,3596;0,0134348
1932,3239;0,0134957
1933,2881;0,0135482
1934,2523;0,0135654
1935,2166;0,0135264
1936,1808;0,0134318
1937,1450;0,013309
1938,1093;0,0132012
1939,0735;0,0131458
1940,0377;0,0131557
1941,0020;0,0132128
1941,9662;0,0132763
1942,9304;0,0133059
1943,8947;0,0132829
1944,8589;0,0132144
1945,8231;0,0131194
1946,7874;0,0130173
1947,7516;0,0129252
1948,7158;0,0128612
1949,6801;0,012843
1950,6443;0,0128792
1951,6085;0,0129609
1952,5728;0,0130613
1953,5370;0,0131463
1954,5012;0,0131896
1955,4655;0,0131816
1956,4297;0,0131271
1957,3939;0,013038
1958,3582;0,0129275
1959,3224;0,0128112
1960,2866;0,01271
1961,2509;0,0126465
1962,2151;0,0126351
1963,1793;0,0126719
1964,1436;0,0127344
1965,1078;0,0127923
1966,0720;0,0128228
1967,0363;0,0128196
1968,0005;0,0127911
1968,9647;0,0127476
1969,9290;0,0126918
1970,8932;0,0126186
1971,8574;0,0125246
1972,8217;0,0124193
1973,7859;0,0123304
1974,7501;0,0123012
1975,7144;0,0123811
1976,6786;0,0126073
1977,6428;0,0129833
1978,6071;0,0134645
1979,5713;0,0139627
1980,5355;0,0143706
1981,4998;0,0145948
1982,4640;0,0145861
1983,4282;0,0143586
1984,3925;0,0139913
1985,3567;0,0136047
1986,3209;0,0133175
1987,2852;0,0132021
1988,2494;0,013265
1989,2136;0,0134545
1990,1779;0,0136897
1991,1421;0,0138927
1992,1063;0,0140166
1993,0706;0,0140583
1994,0348;0,0140524
1994,9990;0,0140498
1995,9633;0,0140913
1996,9275;0,0141858
1997,8917;0,0142985
1998,8560;0,0143616
1999,8202;0,0143076
2000,7844;0,0141139
2001,7487;0,0138277
2002,7129;0,0135531
2003,6771;0,0134033
2004,6414;0,0134438
2005,6056;0,0136579
2006,5698;0,0139573
2007,5341;0,0142339
2008,4983;0,0144181
2009,4625;0,0145014
2010,4268;0,0145164
2011,3910;0,0145011
2012,3552;0,0144782
2013,3195;0,014458
2014,2837;0,0144493
2015,2479;0,0144632
2016,2122;0,014502
2017,1764;0,0145482
2018,1406;0,0145652
2019,1049;0,0145167
2020,0691;0,0143887
2021,0333;0,0141998
2021,9976;0,0139944
2022,9618;0,0138267
2023,9260;0,0137428
2024,8903;0,0137708
2025,8545;0,013916
2026,8187;0,0141615
2027,7830;0,01447
2028,7472;0,0147882
2029,7114;0,0150588
2030,6757;0,0152391
2031,6399;0,015321
2032,6041;0,0153355
2033,5684;0,0153352
2034,5326;0,0153604
2035,4968;0,0154127
2036,4611;0,0154581
2037,4253;0,0154567
2038,3895;0,0153981
2039,3538;0,0153143
2040,3180;0,0152634
2041,2822;0,0152936
2042,2465;0,0154144
2043,2107;0,015597
2044,1749;0,0157996
2045,1392;0,0159934
2046,1034;0,0161679
2047,0676;0,0163137
2048,0320;0,0164059
2048,9961;0,0164096
2049,9604;0,0163063
2050,9246;0,0161185
2051,8889;0,0159093
2052,8530;0,0157557
2053,8174;0,015712
2054,7815;0,0157809
2055,7458;0,0159123
2056,7100;0,016033
2057,6743;0,0160919
2058,6384;0,0160891
2059,6028;0,0160702
2060,5669;0,0160905
2061,5313;0,0161737
2062,4954;0,016295
2063,4597;0,0163972
2064,4238;0,0164316
2065,3882;0,0163926
2066,3523;0,0163205
2067,3167;0,0162724
2068,2808;0,0162828
2069,2451;0,0163435
2070,2092;0,0164142
2071,1736;0,0164513
2072,1377;0,0164348
2073,1021;0,0163746
2074,0662;0,016298
2075,0305;0,0162315
2075,9946;0,0161916
2076,9590;0,0161869
2077,9231;0,0162224
2078,8875;0,0162973
2079,8516;0,0163979
2080,8159;0,0164947
2081,7800;0,0165513
2082,7444;0,0165443
2083,7085;0,0164795
2084,6729;0,0163925
2085,6370;0,0163315
2086,6013;0,0163322
2087,5654;0,0164008
2088,5298;0,0165127
2089,4939;0,0166275
2090,4583;0,0167069
2091,4224;0,0167279
2092,3867;0,0166869
2093,3508;0,0165987
2094,3152;0,0164936
2095,2793;0,0164125
2096,2437;0,0163943
2097,2078;0,016458
2098,1721;0,0165887
2099,1362;0,0167382
2100,1006;0,0168451
2101,0647;0,016863
2102,0291;0,0167821
2102,9932;0,0166314
2103,9575;0,0164614
2104,9216;0,0163189
2105,8860;0,0162311
2106,8501;0,0162043
2107,8145;0,016233
2108,7786;0,0163072
2109,7429;0,0164131
2110,7070;0,0165296
2111,6714;0,0166308
2112,6355;0,0166946
2113,5999;0,0167135
2114,5640;0,0166972
2115,5283;0,0166638
2116,4924;0,0166266
2117,4568;0,0165886
2118,4209;0,0165485
2119,3853;0,0165128
2120,3494;0,0165028
2121,3137;0,0165469
2122,2778;0,0166628
2123,2422;0,0168416
2124,2063;0,0170462
2125,1707;0,017226
2126,1348;0,0173389
2127,0991;0,0173674
2128,0632;0,0173225
2129,0276;0,0172339
2129,9917;0,0171359
2130,9561;0,0170549
2131,9202;0,0170029
2132,8845;0,0169782
2133,8486;0,0169716
2134,8130;0,0169762
2135,7771;0,0169939
2136,7415;0,0170333
2137,7056;0,0170971
2138,6699;0,0171687
2139,6340;0,0172087
2140,5984;0,0171707
2141,5625;0,0170312
2142,5269;0,0168156
2143,4910;0,0166015
2144,4553;0,0164898
2145,4194;0,0165536
2146,3838;0,0167912
2147,3479;0,0171133
2148,3123;0,017377
2149,2764;0,0174512
2150,2407;0,0172807
2151,2048;0,0169118
2152,1692;0,0164682
2153,1333;0,0160925
2154,0977;0,0158916
2155,0618;0,0159121
2156,0261;0,0161519
2156,9902;0,0165812
2157,9546;0,0171447
2158,9187;0,0177436
2159,8831;0,0182362
2160,8472;0,0184862
2161,8115;0,0184327
2162,7756;0,0181259
2163,7400;0,0177051
2164,7041;0,017335
2165,6685;0,0171294
2166,6326;0,0171032
2167,5969;0,0171809
2168,5610;0,0172553
2169,5254;0,0172514
2170,4895;0,0171594
2171,4539;0,0170239
2172,4180;0,0169087
2173,3823;0,0168638
2174,3464;0,0169075
2175,3108;0,0170261
2176,2749;0,0171819
2177,2393;0,0173227
2178,2034;0,0173934
2179,1677;0,0173524
2180,1318;0,0171916
2181,0962;0,0169502
2182,0603;0,0167083
2183,0247;0,0165565
2183,9888;0,0165564
2184,9531;0,0167118
2185,9172;0,0169684
2186,8816;0,0172373
2187,8457;0,017428
2188,8101;0,0174801
2189,7742;0,0173817
2190,7385;0,0171713
2191,7026;0,016921
2192,6670;0,0167076
2193,6311;0,0165807
2194,5955;0,0165455
2195,5596;0,0165673
2196,5239;0,0165983
2197,4880;0,0166103
2198,4524;0,016612
2199,4165;0,0166387
2200,3809;0,0167207
2201,3450;0,0168539
2202,3093;0,0169932
2203,2734;0,0170768
2204,2378;0,0170634
2205,2019;0,0169556
2206,1663;0,0167958
2207,1304;0,0166377
2208,0947;0,0165161
2209,0588;0,0164369
2210,0232;0,0163882
2210,9873;0,0163617
2211,9517;0,0163623
2212,9158;0,0164
2213,8801;0,0164719
2214,8442;0,0165523
2215,8086;0,0166014
2216,7727;0,0165873
2217,7371;0,0165055
2218,7012;0,0163828
2219,6655;0,0162634
2220,6296;0,0161873
2221,5940;0,0161754
2222,5581;0,0162256
2223,5225;0,0163199
2224,4866;0,0164347
2225,4509;0,0165475
2226,4150;0,016641
2227,3794;0,0167047
2228,3435;0,0167371
2229,3079;0,0167444
2230,2720;0,0167373
2231,2363;0,0167246
2232,2004;0,0167077
2233,1648;0,016682
2234,1289;0,0166425
2235,0933;0,0165922
2236,0574;0,016544
2237,0217;0,016515
2237,9858;0,0165156
2238,9502;0,016542
2239,9143;0,0165783
2240,8787;0,0166065
2241,8428;0,0166178
2242,8071;0,0166159
2243,7712;0,0166107
2244,7356;0,0166096
2245,6997;0,0166121
2246,6641;0,0166141
2247,6282;0,0166141
2248,5925;0,0166161
2249,5566;0,0166244
2250,5210;0,0166363
2251,4851;0,0166407
2252,4495;0,0166263
2253,4136;0,0165929
2254,3779;0,0165558
2255,3420;0,0165369
2256,3064;0,0165479
2257,2705;0,0165801
2258,2349;0,0166096
2259,1990;0,0166151
2260,1633;0,0165938
2261,1274;0,0165646
2262,0918;0,0165541
2263,0559;0,0165779
2264,0203;0,0166297
2264,9844;0,016687
2265,9487;0,0167258
2266,9128;0,0167343
2267,8772;0,0167149
2268,8413;0,0166764
2269,8057;0,016625
2270,7698;0,0165629
2271,7341;0,0164932
2272,6982;0,0164257
2273,6626;0,0163763
2274,6267;0,0163596
2275,5911;0,0163808
2276,5552;0,0164325
2277,5195;0,0164983
2278,4836;0,0165609
2279,4480;0,0166084
2280,4121;0,0166369
2281,3765;0,0166502
2282,3406;0,0166585
2283,3049;0,0166758
2284,2690;0,0167154
2285,2334;0,0167844
2286,1975;0,0168793
2287,1619;0,0169867
2288,1260;0,0170902
2289,0903;0,0171792
2290,0544;0,0172546
2291,0188;0,017325
2291,9829;0,0173985
2292,9473;0,0174752
2293,9114;0,0175467
2294,8757;0,0176038
2295,8398;0,017645
2296,8042;0,0176794
2297,7683;0,0177218
2298,7327;0,017783
2299,6968;0,0178639
2300,6611;0,0179569
2301,6252;0,0180525
2302,5896;0,0181455
2303,5537;0,0182366
2304,5181;0,0183284
2305,4822;0,0184199
2306,4465;0,0185052
2307,4106;0,018576
2308,3750;0,018627
2309,3391;0,0186588
2310,3035;0,0186769
2311,2676;0,0186878
2312,2319;0,0186957
2313,1960;0,0187012
2314,1604;0,018702
2315,1245;0,0186953
2316,0889;0,0186796
2317,0530;0,0186563
2318,0173;0,0186327
2318,9814;0,0186227
2319,9458;0,0186438
2320,9099;0,0187095
2321,8743;0,0188181
2322,8384;0,0189481
2323,8027;0,019064
2324,7668;0,0191314
2325,7312;0,0191314
2326,6953;0,0190688
2327,6597;0,0189685
2328,6238;0,0188624
2329,5881;0,0187726
2330,5522;0,018701
2331,5166;0,0186353
2332,4807;0,0185648
2333,4451;0,0184909
2334,4092;0,0184267
2335,3735;0,0183876
2336,3376;0,0183834
2337,3020;0,0184147
2338,2661;0,0184724
2339,2305;0,0185362
2340,1946;0,0185718
2341,1589;0,0185331
2342,1230;0,0183847
2343,0874;0,0181511
2344,0515;0,0179495
2345,0159;0,0179291
2345,9800;0,0181503
2346,9443;0,0185426
2347,9084;0,0189719
2348,8728;0,0193217
2349,8369;0,0195336
2350,8013;0,0196104
2351,7654;0,0195974
2352,7297;0,0195499
2353,6938;0,0195001
2354,6582;0,0194495
2355,6223;0,0193892
2356,5867;0,0193178
2357,5508;0,0192385
2358,5151;0,0191466
2359,4792;0,0190253
2360,4436;0,0188526
2361,4077;0,0186141
2362,3721;0,0183149
2363,3362;0,0179859
2364,3005;0,017677
2365,2646;0,0174361
2366,2290;0,0172864
2367,1931;0,0172188
2368,1575;0,0172023
2369,1216;0,017204
2370,0859;0,017203
2371,0500;0,0171932
2372,0144;0,0171789
2372,9785;0,0171669
2373,9429;0,0171626
2374,9070;0,0171686
2375,8713;0,0171863
2376,8354;0,0172184
2377,7998;0,0172674
2378,7639;0,0173326
2379,7283;0,0174067
2380,6924;0,0174752
2381,6567;0,0175209
2382,6208;0,0175311
2383,5852;0,017504
2384,5493;0,0174496
2385,5137;0,0173853
2386,4778;0,0173278
2387,4421;0,0172874
2388,4063;0,017265
2389,3706;0,0172562
2390,3347;0,0172551
2391,2991;0,0172586
2392,2632;0,0172659
2393,2275;0,0172767
2394,1917;0,0172892
2395,1560;0,017301
2396,1201;0,0173107
2397,0845;0,0173197
2398,0486;0,0173312
2399,0129;0,0173471
2399,9771;0,0173663
2400,9414;0,0173841
2401,9055;0,0173957
2402,8699;0,0174
2403,8340;0,0174024
2404,7983;0,0174137
2405,7625;0,0174447
2406,7268;0,0174992
2407,6909;0,0175708
2408,6553;0,0176433
2409,6194;0,0176981
2410,5837;0,0177234
2411,5479;0,0177189
2412,5122;0,0176957
2413,4763;0,0176692
2414,4407;0,0176516
2415,4048;0,0176487
2416,3691;0,0176606
2417,3333;0,0176866
2418,2976;0,0177272
2419,2617;0,017782
2420,2261;0,0178462
2421,1902;0,0179081
2422,1545;0,0179534
2423,1187;0,0179731
2424,0830;0,0179692
2425,0471;0,0179552
2426,0115;0,0179481
2426,9756;0,0179588
2427,9399;0,0179865
2428,9041;0,0180202
2429,8684;0,0180468
2430,8325;0,0180585
2431,7969;0,0180559
2432,7610;0,0180466
2433,7253;0,0180401
2434,6895;0,0180442
2435,6538;0,0180632
2436,6179;0,0180964
2437,5823;0,018139
2438,5464;0,018183
2439,5107;0,018221
2440,4749;0,01825
2441,4392;0,0182733
2442,4033;0,018299
2443,3677;0,0183336
2444,3318;0,0183769
2445,2961;0,0184215
2446,2603;0,0184572
2447,2246;0,0184785
2448,1887;0,0184879
2449,1531;0,0184943
2450,1172;0,0185069
2451,0815;0,0185303
2452,0457;0,0185627
2453,0100;0,0185981
2453,9741;0,0186298
2454,9385;0,0186516
2455,9026;0,0186601
2456,8669;0,0186562
2457,8311;0,0186462
2458,7954;0,0186418
2459,7595;0,0186551
2460,7239;0,0186923
2461,6880;0,0187481
2462,6523;0,0188077
2463,6165;0,0188536
2464,5808;0,0188752
2465,5449;0,0188731
2466,5093;0,0188569
2467,4734;0,0188386
2468,4377;0,0188267
2469,4019;0,0188244
2470,3662;0,0188324
2471,3303;0,0188508
2472,2947;0,0188787
2473,2588;0,0189116
2474,2231;0,0189414
2475,1873;0,0189593
2476,1516;0,0189624
2477,1157;0,0189566
2478,0801;0,0189547
2479,0442;0,0189684
2480,0085;0,0190013
2480,9727;0,0190472
2481,9370;0,0190945
2482,9011;0,0191342
2483,8655;0,019165
2484,8296;0,0191908
2485,7939;0,0192156
2486,7581;0,0192381
2487,7224;0,0192527
2488,6865;0,0192552
2489,6509;0,0192482
2490,6150;0,019242
2491,5793;0,0192486
2492,5435;0,019273
2493,5078;0,0193095
2494,4719;0,0193436
2495,4363;0,0193617
2496,4004;0,0193597
2497,3647;0,0193456
2498,3289;0,0193351
2499,2932;0,0193418
2500,2573;0,0193689
2501,2217;0,0194082
2502,1858;0,0194452
2503,1501;0,0194681
2504,1143;0,0194741
2505,0786;0,0194701
2506,0427;0,0194678
2507,0071;0,0194764
2507,9712;0,0194988
2508,9355;0,0195308
2509,8997;0,0195658
2510,8640;0,0195977
2511,8281;0,0196229
2512,7925;0,0196391
2513,7566;0,0196438
2514,7209;0,0196341
2515,6851;0,01961
2516,6494;0,0195758
2517,6135;0,0195416
2518,5779;0,0195199
2519,5420;0,0195211
2520,5063;0,0195493
2521,4705;0,0196007
2522,4348;0,0196646
2523,3989;0,019727
2524,3633;0,0197743
2525,3274;0,0197975
2526,2917;0,0197955
2527,2559;0,0197755
2528,2202;0,0197509
2529,1843;0,0197363
2530,1487;0,0197409
2531,1128;0,019766
2532,0771;0,019806
2533,0413;0,0198525
2534,0056;0,0198992
2534,9697;0,0199424
2535,9341;0,0199797
2536,8982;0,0200074
2537,8625;0,0200217
2538,8267;0,0200211
2539,7910;0,0200097
2540,7551;0,0199961
2541,7195;0,0199889
2542,6836;0,0199912
2543,6479;0,019999
2544,6121;0,0200052
2545,5764;0,0200052
2546,5405;0,0200011
2547,5049;0,0199995
2548,4690;0,0200067
2549,4333;0,0200228
2550,3975;0,0200417
2551,3618;0,0200541
2552,3259;0,0200541
2553,2903;0,020042
2554,2544;0,0200241
2555,2188;0,0200088
2556,1829;0,0200039
2557,1472;0,0200141
2558,1113;0,0200408
2559,0757;0,0200816
2560,0398;0,0201309
2561,0042;0,0201799
2561,9683;0,0202188
2562,9326;0,0202403
2563,8967;0,0202425
2564,8611;0,0202299
2565,8252;0,0202122
2566,7896;0,0202002
2567,7537;0,0202015
2568,7180;0,0202175
2569,6821;0,0202431
2570,6465;0,0202697
2571,6106;0,0202891
2572,5750;0,0202978
2573,5391;0,0202986
2574,5034;0,0202977
2575,4675;0,0203012
2576,4319;0,0203104
2577,3960;0,0203221
2578,3604;0,0203313
2579,3245;0,0203364
2580,2888;0,020342
2581,2529;0,0203564
2582,2173;0,0203865
2583,1814;0,0204323
2584,1458;0,0204849
2585,1099;0,0205306
2586,0742;0,0205576
2587,0383;0,0205624
2588,0027;0,0205515
2588,9668;0,0205387
2589,9312;0,0205385
2590,8953;0,0205597
2591,8596;0,0206014
2592,8237;0,020654
2593,7881;0,0207033
2594,7522;0,0207377
2595,7166;0,0207527
2596,6807;0,0207531
2597,6450;0,0207493
2598,6091;0,0207513
2599,5735;0,0207632
2600,5376;0,0207823
2601,5020;0,0208019
2602,4661;0,0208169
2603,4304;0,020828
2604,3945;0,0208405
2605,3589;0,0208602
2606,3230;0,0208886
2607,2874;0,0209212
2608,2515;0,0209513
2609,2158;0,0209746
2610,1799;0,0209927
2611,1443;0,0210124
2612,1084;0,0210398
2613,0728;0,0210764
2614,0369;0,0211173
2615,0012;0,0211547
2615,9653;0,021184
2616,9297;0,0212063
2617,8938;0,021228
2618,8582;0,021256
2619,8223;0,0212929
2620,7866;0,0213362
2621,7507;0,0213804
2622,7151;0,0214205
2623,6792;0,021455
2624,6436;0,0214848
2625,6077;0,0215119
2626,5720;0,021537
2627,5361;0,0215598
2628,5005;0,0215797
2629,4646;0,0215981
2630,4290;0,0216178
2631,3931;0,0216432
2632,3574;0,0216772
2633,3215;0,0217197
2634,2859;0,0217671
2635,2500;0,0218128
2636,2144;0,0218502
2637,1785;0,0218756
2638,1428;0,0218898
2639,1069;0,0218982
2640,0713;0,0219081
2641,0354;0,0219262
2641,9998;0,0219562
2642,9639;0,0219985
2643,9282;0,0220513
2644,8923;0,0221111
2645,8567;0,022173
2646,8208;0,0222314
2647,7852;0,0222805
2648,7493;0,0223166
2649,7136;0,0223392
2650,6777;0,022352
2651,6421;0,0223611
2652,6062;0,0223727
2653,5706;0,0223911
2654,5347;0,0224181
2655,4990;0,0224527
2656,4631;0,0224925
2657,4275;0,0225337
2658,3916;0,0225726
2659,3560;0,0226058
2660,3201;0,0226321
2661,2844;0,0226524
2662,2485;0,0226697
2663,2129;0,0226875
2664,1770;0,0227082
2665,1414;0,0227334
2666,1055;0,0227639
2667,0698;0,0228005
2668,0339;0,022843
2668,9983;0,0228901
2669,9624;0,0229381
2670,9268;0,022982
2671,8909;0,0230173
2672,8552;0,023043
2673,8193;0,0230617
2674,7837;0,0230786
2675,7478;0,0230989
2676,7122;0,0231248
2677,6763;0,0231552
2678,6406;0,023187
2679,6047;0,0232178
2680,5691;0,0232482
2681,5332;0,0232814
2682,4976;0,0233215
2683,4617;0,0233699
2684,4260;0,023424
2685,3901;0,0234777
2686,3545;0,0235242
2687,3186;0,0235597
2688,2830;0,0235854
2689,2471;0,0236069
2690,2114;0,0236307
2691,1755;0,0236606
2692,1399;0,0236966
2693,1040;0,023735
2694,0684;0,0237718
2695,0325;0,0238053
2695,9968;0,023837
2696,9609;0,0238701
2697,9253;0,0239074
2698,8894;0,023949
2699,8538;0,023993
2700,8179;0,0240366
2701,7822;0,0240785
2702,7463;0,0241191
2703,7107;0,0241594
2704,6748;0,0241999
2705,6392;0,0242397
2706,6033;0,0242776
2707,5676;0,0243132
2708,5317;0,024348
2709,4961;0,0243842
2710,4602;0,0244234
2711,4246;0,024465
2712,3887;0,0245064
2713,3530;0,0245449
2714,3171;0,0245793
2715,2815;0,0246105
2716,2456;0,0246404
2717,2100;0,0246709
2718,1741;0,0247031
2719,1384;0,0247374
2720,1025;0,0247734
2721,0669;0,0248094
2722,0310;0,0248425
2722,9954;0,0248688
2723,9595;0,0248865
2724,9238;0,0248979
2725,8879;0,0249108
2726,8523;0,024935
2727,8164;0,0249776
2728,7808;0,0250382
2729,7449;0,0251084
2730,7092;0,0251755
2731,6733;0,0252283
2732,6377;0,0252625
2733,6018;0,0252807
2734,5662;0,0252903
2735,5303;0,0252986
2736,4946;0,0253106
2737,4587;0,0253275
2738,4231;0,0253489
2739,3872;0,0253736
2740,3516;0,0254011
2741,3157;0,0254312
2742,2800;0,0254636
2743,2441;0,025497
2744,2085;0,0255292
2745,1726;0,0255574
2746,1370;0,0255793
2747,1011;0,0255942
2748,0654;0,0256039
2749,0295;0,0256128
2749,9939;0,0256268
2750,9580;0,0256512
2751,9224;0,025689
2752,8865;0,0257401
2753,8508;0,0258008
2754,8149;0,0258651
2755,7793;0,0259258
2756,7434;0,0259767
2757,7078;0,0260141
2758,6719;0,0260385
2759,6362;0,0260546
2760,6003;0,0260698
2761,5647;0,0260914
2762,5288;0,0261235
2763,4932;0,0261655
2764,4573;0,0262131
2765,4216;0,0262607
2766,3857;0,0263043
2767,3501;0,0263433
2768,3142;0,0263797
2769,2786;0,0264161
2770,2427;0,0264543
2771,2070;0,0264945
2772,1711;0,0265364
2773,1355;0,0265802
2774,0996;0,0266274
2775,0640;0,0266803
2776,0281;0,0267401
2776,9924;0,0268058
2777,9565;0,0268747
2778,9209;0,0269431
2779,8850;0,0270084
2780,8494;0,02707
2781,8135;0,027129
2782,7778;0,0271869
2783,7419;0,0272434
2784,7063;0,0272967
2785,6704;0,0273442
2786,6348;0,0273853
2787,5989;0,0274224
2788,5632;0,0274617
2789,5273;0,0275104
2790,4917;0,0275741
2791,4558;0,0276543
2792,4202;0,0277469
2793,3843;0,0278443
2794,3486;0,0279387
2795,3127;0,028025
2796,2771;0,0281038
2797,2412;0,0281806
2798,2056;0,0282632
2799,1697;0,0283574
2800,1340;0,0284637
2801,0981;0,028577
2802,0625;0,0286893
2803,0266;0,0287941
2803,9910;0,0288896
2804,9551;0,0289784
2805,9194;0,0290656
2806,8835;0,0291556
2807,8479;0,0292502
2808,8120;0,0293498
2809,7764;0,0294549
2810,7405;0,0295672
2811,7048;0,0296892
2812,6689;0,0298221
2813,6333;0,0299638
2814,5974;0,0301099
2815,5618;0,0302556
2816,5259;0,0303986
2817,4902;0,0305406
2818,4543;0,0306859
2819,4187;0,0308391
2820,3828;0,0310027
2821,3472;0,0311755
2822,3113;0,0313546
2823,2756;0,0315371
2824,2397;0,0317221
2825,2041;0,0319113
2826,1682;0,0321074
2827,1326;0,0323122
2828,0967;0,0325258
2829,0610;0,032747
2830,0251;0,0329757
2830,9895;0,0332141
2831,9536;0,0334669
2832,9180;0,033738
2833,8821;0,0340276
2834,8464;0,0343309
2835,8105;0,0346401
2836,7749;0,0349484
2837,7390;0,0352545
2838,7034;0,0355645
2839,6675;0,0358889
2840,6318;0,0362387
2841,5959;0,036621
2842,5603;0,037037
2843,5244;0,0374827
2844,4888;0,0379509
2845,4529;0,0384313
2846,4172;0,0389096
2847,3813;0,0393659
2848,3457;0,0397752
2849,3098;0,0401116
2850,2742;0,0403559
2851,2383;0,0405027
2852,2026;0,0405639
2853,1667;0,0405654
2854,1311;0,0405382
2855,0952;0,0405089
2856,0596;0,0404936
2857,0237;0,0404975
2857,9880;0,0405206
2858,9521;0,0405637
2859,9165;0,0406302
2860,8806;0,0407253
2861,8450;0,040851
2862,8091;0,0410042
2863,7734;0,0411777
2864,7375;0,0413643
2865,7019;0,0415591
2866,6660;0,0417596
2867,6304;0,0419627
2868,5945;0,042162
2869,5588;0,0423484
2870,5229;0,042514
2871,4873;0,0426558
2872,4514;0,0427777
2873,4158;0,042887
2874,3799;0,0429908
2875,3442;0,0430929
2876,3083;0,0431942
2877,2727;0,0432956
2878,2368;0,0433994
2879,2012;0,0435088
2880,1653;0,0436249
2881,1296;0,0437441
2882,0938;0,0438592
2883,0581;0,0439619
2884,0222;0,0440475
2884,9866;0,0441171
2885,9507;0,0441766
2886,9150;0,0442344
2887,8792;0,0442982
2888,8435;0,0443737
2889,8076;0,0444631
2890,7720;0,0445648
2891,7361;0,0446728
2892,7004;0,044778
2893,6646;0,0448703
2894,6289;0,0449439
2895,5930;0,0450003
2896,5574;0,0450482
2897,5215;0,0450996
2898,4858;0,0451634
2899,4500;0,0452405
2900,4143;0,0453241
2901,3784;0,0454044
2902,3428;0,0454749
2903,3069;0,045537
2904,2712;0,045599
2905,2354;0,0456719
2906,1997;0,0457639
2907,1638;0,0458784
2908,1282;0,0460152
2909,0923;0,0461738
2910,0566;0,0463565
2911,0208;0,0465663
2911,9851;0,0468031
2912,9492;0,0470584
2913,9136;0,0473131
2914,8777;0,0475418
2915,8420;0,0477197
2916,8062;0,0478317
2917,7705;0,0478757
2918,7346;0,0478605
2919,6990;0,0477992
2920,6631;0,0477016
2921,6274;0,047572
2922,5916;0,0474109
2923,5559;0,0472198
2924,5200;0,047004
2925,4844;0,0467717
2926,4485;0,0465308
2927,4128;0,0462859
2928,3770;0,0460387
2929,3413;0,0457904
2930,3054;0,0455439
2931,2698;0,0453032
2932,2339;0,0450713
2933,1982;0,0448474
2934,1624;0,0446274
2935,1267;0,0444066
2936,0908;0,0441815
2937,0552;0,0439506
2938,0193;0,0437119
2938,9836;0,043461
2939,9478;0,0431913
2940,9121;0,0428974
2941,8762;0,0425796
2942,8406;0,0422464
2943,8047;0,0419128
2944,7690;0,0415944
2945,7332;0,0413003
2946,6975;0,0410295
2947,6616;0,0407722
2948,6260;0,0405158
2949,5901;0,0402531
2950,5544;0,0399859
2951,5186;0,0397243
2952,4829;0,0394801
2953,4470;0,0392592
2954,4114;0,0390578
2955,3755;0,0388646
2956,3398;0,0386676
2957,3040;0,0384613
2958,2683;0,0382494
2959,2324;0,0380425
2960,1968;0,0378509
2961,1609;0,037679
2962,1252;0,0375232
2963,0894;0,0373742
2964,0537;0,0372217
2965,0178;0,0370589
2965,9822;0,0368841
2966,9463;0,0366992
2967,9106;0,0365079
2968,8748;0,0363132
2969,8391;0,0361174
2970,8032;0,0359228
2971,7676;0,0357322
2972,7317;0,0355491
2973,6960;0,035376
2974,6602;0,0352131
2975,6245;0,0350583
2976,5886;0,0349081
2977,5530;0,0347608
2978,5171;0,0346178
2979,4814;0,0344831
2980,4456;0,0343614
2981,4099;0,0342551
2982,3740;0,0341638
2983,3384;0,0340848
2984,3025;0,034015
2985,2668;0,0339514
2986,2310;0,0338914
2987,1953;0,0338318
2988,1594;0,0337696
2989,1238;0,0337042
2990,0879;0,0336394
2991,0522;0,0335831
2992,0164;0,0335444
2992,9807;0,0335286
2993,9448;0,0335347
2994,9092;0,0335562
2995,8733;0,0335856
2996,8376;0,0336184
2997,8018;0,0336544
2998,7661;0,0336953
2999,7302;0,0337413
3000,6946;0,0337889
3001,6587;0,0338332
3002,6230;0,0338721
3003,5872;0,0339081
3004,5515;0,0339478
3005,5156;0,0339967
3006,4800;0,0340551
3007,4441;0,0341176
3008,4084;0,0341761
3009,3726;0,0342258
3010,3369;0,0342673
3011,3010;0,0343058
3012,2654;0,0343471
3013,2295;0,0343938
3014,1938;0,0344447
3015,1580;0,0344975
3016,1223;0,034552
3017,0864;0,0346108
3018,0508;0,034678
3019,0149;0,0347561
3019,9792;0,0348447
3020,9434;0,0349409
3021,9077;0,0350413
3022,8718;0,0351443
3023,8362;0,0352495
3024,8003;0,0353575
3025,7646;0,0354682
3026,7288;0,0355797
3027,6931;0,0356887
3028,6572;0,035792
3029,6216;0,0358869
3030,5857;0,0359738
3031,5500;0,0360561
3032,5142;0,03614
3033,4785;0,0362318
3034,4426;0,0363354
3035,4070;0,0364503
3036,3711;0,0365724
3037,3354;0,0366967
3038,2996;0,0368208
3039,2639;0,0369464
3040,2280;0,0370778
3041,1924;0,0372191
3042,1565;0,0373704
3043,1208;0,0375265
3044,0850;0,0376789
3045,0493;0,0378199
3046,0134;0,0379461
3046,9778;0,0380608
3047,9419;0,0381732
3048,9063;0,0382953
3049,8704;0,0384369
3050,8347;0,0386012
3051,7988;0,0387832
3052,7632;0,0389716
3053,7273;0,0391537
3054,6917;0,0393212
3055,6558;0,039474
3056,6201;0,0396194
3057,5842;0,0397672
3058,5486;0,0399241
3059,5127;0,0400905
3060,4771;0,0402621
3061,4412;0,040433
3062,4055;0,0405997
3063,3696;0,0407612
3064,3340;0,0409173
3065,2981;0,0410672
3066,2625;0,0412099
3067,2266;0,0413463
3068,1909;0,0414814
3069,1550;0,0416228
3070,1194;0,041777
3071,0835;0,0419454
3072,0479;0,0421227
3073,0120;0,0423003
3073,9763;0,0424709
3074,9404;0,0426326
3075,9048;0,0427889
3076,8689;0,0429455
3077,8333;0,0431066
3078,7974;0,0432726
3079,7617;0,0434417
3080,7258;0,0436111
3081,6902;0,0437786
3082,6543;0,0439422
3083,6187;0,0440996
3084,5828;0,0442496
3085,5471;0,0443943
3086,5112;0,0445403
3087,4756;0,0446972
3088,4397;0,0448729
3089,4041;0,0450683
3090,3682;0,0452754
3091,3325;0,0454814
3092,2966;0,0456747
3093,2610;0,0458513
3094,2251;0,0460158
3095,1895;0,0461779
3096,1536;0,0463453
3097,1179;0,0465196
3098,0820;0,0466964
3099,0464;0,0468698
3100,0105;0,0470374
3100,9749;0,047202
3101,9390;0,0473708
3102,9033;0,0475498
3103,8674;0,047741
3104,8318;0,0479408
3105,7959;0,0481432
3106,7603;0,0483425
3107,7244;0,0485364
3108,6887;0,0487258
3109,6528;0,0489131
3110,6172;0,0491006
3111,5813;0,0492894
3112,5457;0,0494805
3113,5098;0,0496756
3114,4741;0,0498772
3115,4382;0,0500865
3116,4026;0,0503014
3117,3667;0,0505155
3118,3311;0,0507202
3119,2952;0,0509095
3120,2595;0,051083
3121,2236;0,0512475
3122,1880;0,0514131
3123,1521;0,0515895
3124,1165;0,0517811
3125,0806;0,0519867
3126,0449;0,0522022
3127,0090;0,052423
3127,9734;0,0526469
3128,9375;0,0528729
3129,9019;0,0530988
3130,8660;0,0533205
3131,8303;0,0535321
3132,7944;0,0537295
3133,7588;0,0539134
3134,7229;0,05409
3135,6873;0,0542686
3136,6514;0,0544572
3137,6157;0,0546596
3138,5798;0,0548742
3139,5442;0,0550963
3140,5083;0,055321
3141,4727;0,0555453
3142,4368;0,0557693
3143,4011;0,0559944
3144,3652;0,056222
3145,3296;0,0564522
3146,2937;0,0566829
3147,2581;0,0569107
3148,2222;0,0571321
3149,1865;0,0573448
3150,1506;0,0575491
3151,1150;0,0577484
3152,0791;0,057948
3153,0435;0,0581536
3154,0076;0,0583689
3154,9719;0,0585941
3155,9360;0,0588261
3156,9004;0,0590598
3157,8645;0,0592909
3158,8289;0,059517
3159,7930;0,0597384
3160,7573;0,0599572
3161,7214;0,060176
3162,6858;0,0603957
3163,6499;0,0606158
3164,6143;0,0608345
3165,5784;0,0610512
3166,5427;0,0612673
3167,5068;0,0614861
3168,4712;0,0617113
3169,4353;0,0619152
3170,3997;0,0621545
3171,3638;0,0623951
3172,3281;0,0626316
3173,2922;0,0628608
3174,2566;0,0630829
3175,2207;0,063301
3176,1851;0,0635181
3177,1492;0,0637356
3178,1135;0,0639528
3179,0776;0,0641681
3180,0420;0,0643806
3181,0061;0,0645912
3181,9705;0,0648013
3182,9346;0,065012
3183,8989;0,0652231
3184,8630;0,0654337
3185,8274;0,0656427
3186,7915;0,0658498
3187,7559;0,0660557
3188,7200;0,066261
3189,6843;0,0664662
3190,6484;0,0666715
3191,6128;0,066877
3192,5769;0,0670831
3193,5413;0,0672903
3194,5054;0,0674986
3195,4697;0,0677073
3196,4338;0,0679149
3197,3982;0,0681192
3198,3623;0,0683191
3199,3267;0,0685149
3200,2908;0,0687096
3201,2551;0,0689083
3202,2192;0,0691159
3203,1836;0,0693343
3204,1477;0,0695595
3205,1121;0,0697821
3206,0762;0,0699915
3207,0405;0,0701816
3208,0046;0,0703551
3208,9690;0,0705228
3209,9331;0,0706979
3210,8975;0,0708882
3211,8616;0,0710913
3212,8259;0,0712964
3213,7900;0,0714901
3214,7544;0,0716648
3215,7185;0,0718218
3216,6829;0,0719706
3217,6470;0,0721233
3218,6113;0,0722889
3219,5754;0,0724692
3220,5398;0,0726601
3221,5039;0,0728544
3222,4683;0,073046
3223,4324;0,073233
3224,3967;0,0734171
3225,3608;0,0736014
3226,3252;0,0737881
3227,2893;0,0739776
3228,2537;0,0741688
3229,2178;0,0743599
3230,1821;0,0745487
3231,1462;0,074731
3232,1106;0,0749008
3233,0747;0,0750522
3234,0391;0,0751846
3235,0032;0,075306
3235,9675;0,0754316
3236,9316;0,0755771
3237,8960;0,0757491
3238,8601;0,0759409
3239,8245;0,0761359
3240,7886;0,0763171
3241,7529;0,0764775
3242,7170;0,0766225
3243,6814;0,076765
3244,6455;0,076917
3245,6099;0,077083
3246,5740;0,0772605
3247,5383;0,0774449
3248,5024;0,0776337
3249,4668;0,0778265
3250,4309;0,078022
3251,3953;0,0782158
3252,3594;0,0784008
3253,3237;0,0785723
3254,2878;0,0787305
3255,2522;0,0788816
3256,2163;0,0790325
3257,1807;0,0791865
3258,1448;0,079341
3259,1091;0,0794903
3260,0732;0,0796303
3261,0376;0,0797624
3262,0017;0,0798931
3262,9661;0,0800315
3263,9302;0,0801852
3264,8945;0,0803571
3265,8586;0,0805446
3266,8230;0,0807402
3267,7871;0,0809323
3268,7515;0,0811071
3269,7156;0,0812521
3270,6799;0,08136
3271,6440;0,0814322
3272,6084;0,08148
3273,5725;0,0815206
3274,5369;0,0815693
3275,5010;0,0816329
3276,4653;0,0817074
3277,4294;0,0817817
3278,3938;0,081846
3279,3579;0,0818979
3280,3223;0,0819446
3281,2864;0,0819979
3282,2507;0,0820677
3283,2148;0,0821557
3284,1792;0,0822546
3285,1433;0,0823518
3286,1077;0,0824363
3287,0718;0,0825026
3288,0361;0,0825526
3289,0002;0,0825926
3289,9646;0,0826281
3290,9287;0,0826608
3291,8931;0,0826876
3292,8572;0,0827041
3293,8215;0,0827092
3294,7856;0,0827082
3295,7500;0,0827113
3296,7141;0,0827293
3297,6785;0,0827673
3298,6426;0,0828223
3299,6069;0,0828849
3300,5710;0,0829442
3301,5354;0,0829929
3302,4995;0,0830288
3303,4639;0,0830527
3304,4280;0,0830661
3305,3923;0,0830702
3306,3564;0,0830674
3307,3208;0,0830635
3308,2849;0,0830672
3309,2493;0,0830862
3310,2134;0,0831228
3311,1777;0,0831722
3312,1418;0,0832262
3313,1062;0,0832782
3314,0703;0,083328
3315,0347;0,083381
3315,9988;0,0834446
3316,9631;0,0835228
3317,9272;0,0836149
3318,8916;0,0837165
3319,8557;0,0838232
3320,8201;0,0839323
3321,7842;0,0840423
3322,7485;0,084151
3323,7126;0,0842542
3324,6770;0,0843475
3325,6411;0,0844288
3326,6055;0,0845005
3327,5696;0,0845688
3328,5339;0,0846406
3329,4980;0,0847203
3330,4624;0,0848074
3331,4265;0,0848969
3332,3909;0,084981
3333,3550;0,0850502
3334,3193;0,0850954
3335,2834;0,0851095
3336,2478;0,0850889
3337,2119;0,0850352
3338,1763;0,0849547
3339,1404;0,084857
3340,1047;0,0847518
3341,0688;0,0846472
3342,0332;0,0845477
3342,9973;0,0844542
3343,9617;0,0843644
3344,9258;0,084274
3345,8901;0,0841783
3346,8542;0,0840735
3347,8186;0,0839577
3348,7827;0,0838309
3349,7471;0,0836942
3350,7112;0,083549
3351,6755;0,0833974
3352,6396;0,083244
3353,6040;0,0830958
3354,5681;0,0829611
3355,5325;0,082846
3356,4966;0,0827498
3357,4609;0,0826639
3358,4250;0,0825748
3359,3894;0,0824701
3360,3535;0,0823447
3361,3179;0,082203
3362,2820;0,0820563
3363,2463;0,0819159
3364,2104;0,0817882
3365,1748;0,0816716
3366,1389;0,0815592
3367,1033;0,0814421
3368,0674;0,0813138
3369,0317;0,081171
3369,9958;0,0810135
3370,9602;0,0808437
3371,9243;0,0806656
3372,8887;0,0804857
3373,8528;0,0803112
3374,8171;0,0801487
3375,7813;0,0800012
3376,7456;0,0798671
3377,7097;0,0797398
3378,6741;0,079611
3379,6382;0,0794732
3380,6025;0,0793225
3381,5667;0,07916
3382,5310;0,0789914
3383,4951;0,0788258
3384,4595;0,078672
3385,4236;0,0785353
3386,3879;0,0784149
3387,3521;0,0783032
3388,3164;0,0781891
3389,2805;0,0780622
3390,2449;0,0779168
3391,2090;0,077754
3392,1733;0,0775818
3393,1375;0,0774119
3394,1018;0,0772552
3395,0659;0,0771175
3396,0303;0,0769964
3396,9944;0,0768807
3397,9587;0,0767531
3398,9229;0,0765974
3399,8872;0,0764055
3400,8513;0,0761826
3401,8157;0,0759458
3402,7798;0,075717
3403,7441;0,0755126
3404,7083;0,0753367
3405,6726;0,0751809
3406,6367;0,0750298
3407,6011;0,0748692
3408,5652;0,0746908
3409,5295;0,0744932
3410,4937;0,0742785
3411,4580;0,0740502
3412,4221;0,0738116
3413,3865;0,0735668
3414,3506;0,0733211
3415,3149;0,0730795
3416,2791;0,0728458
3417,2434;0,0726202
3418,2075;0,0723998
3419,1719;0,0721796
3420,1360;0,0719547
3421,1003;0,0717224
3422,0645;0,071483
3423,0288;0,0712396
3423,9929;0,0709962
3424,9573;0,0707564
3425,9214;0,0705214
3426,8857;0,0702902
3427,8499;0,0700599
3428,8142;0,0698269
3429,7783;0,0695882
3430,7427;0,0693416
3431,7068;0,0690866
3432,6711;0,0688244
3433,6353;0,0685581
3434,5996;0,0682914
3435,5637;0,0680266
3436,5281;0,067764
3437,4922;0,0675022
3438,4565;0,0672412
3439,4207;0,066984
3440,3850;0,0667353
3441,3491;0,0664964
3442,3135;0,06626
3443,2776;0,0660108
3444,2419;0,0657325
3445,2061;0,0654199
3446,1704;0,0650854
3447,1345;0,0647559
3448,0989;0,0644574
3449,0630;0,0641995
3450,0273;0,0639709
3450,9915;0,0637488
3451,9558;0,063513
3452,9199;0,0632559
3453,8843;0,0629836
3454,8484;0,0627085
3455,8127;0,0624393
3456,7769;0,0621756
3457,7412;0,0619102
3458,7053;0,0616352
3459,6697;0,0613478
3460,6338;0,0610525
3461,5981;0,060757
3462,5623;0,0604673
3463,5266;0,0601846
3464,4907;0,0599063
3465,4551;0,0596304
3466,4192;0,0593581
3467,3835;0,0590931
3468,3477;0,0588364
3469,3120;0,0585827
3470,2761;0,05832
3471,2405;0,0580363
3472,2046;0,057729
3473,1689;0,0574096
3474,1331;0,0571011
3475,0974;0,0568258
3476,0615;0,0565916
3477,0259;0,0563874
3477,9900;0,0561891
3478,9543;0,0559726
3479,9185;0,0557254
3480,8828;0,0554519
3481,8469;0,0551672
3482,8113;0,0548859
3483,7754;0,0546123
3484,7397;0,0543395
3485,7039;0,054057
3486,6682;0,0537594
3487,6323;0,0534521
3488,5967;0,0531496
3489,5608;0,0528676
3490,5251;0,052613
3491,4893;0,05238
3492,4536;0,0521527
3493,4177;0,0519148
3494,3821;0,0516608
3495,3462;0,0514008
3496,3105;0,0511551
3497,2747;0,0509396
3498,2390;0,0507513
3499,2031;0,050566
3500,1675;0,0503499
3501,1316;0,0500791
3502,0959;0,0497567
3503,0601;0,0494141
3504,0244;0,0490903
3504,9885;0,0488047
3505,9529;0,0485463
3506,9170;0,0482856
3507,8813;0,0479979
3508,8455;0,0476803
3509,8098;0,0473538
3510,7739;0,0470482
3511,7383;0,0467812
3512,7024;0,0465486
3513,6667;0,0463313
3514,6309;0,0461108
3515,5952;0,0458798
3516,5593;0,0456441
3517,5237;0,0454154
3518,4878;0,0452022
3519,4521;0,0450058
3520,4163;0,0448218
3521,3806;0,0446424
3522,3447;0,0444584
3523,3091;0,0442568
3524,2732;0,0440213
3525,2375;0,0437367
3526,2017;0,0433994
3527,1660;0,0430254
3528,1301;0,0426501
3529,0945;0,0423127
3530,0586;0,0420354
3531,0229;0,0418111
3531,9871;0,0416091
3532,9514;0,0413924
3533,9155;0,0411373
3534,8799;0,0408444
3535,8440;0,0405383
3536,8083;0,0402551
3537,7725;0,0400246
3538,7368;0,0398567
3539,7009;0,0397383
3540,6653;0,0396396
3541,6294;0,0395211
3542,5938;0,0393433
3543,5579;0,0390791
3544,5222;0,0387314
3545,4863;0,0383392
3546,4507;0,0379602
3547,4148;0,0376357
3548,3792;0,0373682
3549,3433;0,0371284
3550,3076;0,0368795
3551,2717;0,036601
3552,2361;0,0363005
3553,2002;0,0360072
3554,1646;0,0357494
3555,1287;0,0355341
3556,0930;0,035346
3557,0571;0,0351648
3558,0215;0,0349842
3558,9856;0,0348215
3559,9500;0,0347073
3560,9141;0,0346597
3561,8784;0,0346601
3562,8425;0,0346455
3563,8069;0,0345204
3564,7710;0,034189
3565,7354;0,0336197
3566,6995;0,0329108
3567,6638;0,0322593
3568,6279;0,031812
3569,5923;0,0315717
3570,5564;0,0314444
3571,5208;0,031327
3572,4849;0,0311567
3573,4492;0,0309224
3574,4133;0,0306526
3575,3777;0,0303886
3576,3418;0,030156
3577,3062;0,029956
3578,2703;0,0297805
3579,2346;0,0296319
3580,1987;0,0295277
3581,1631;0,0294825
3582,1272;0,0294825
3583,0916;0,0294736
3584,0557;0,0293699
3585,0200;0,0290851
3585,9841;0,0285938
3586,9485;0,0279938
3587,9126;0,027476
3588,8770;0,0271792
3589,8411;0,0270921
3590,8054;0,0271003
3591,7695;0,0270788
3592,7339;0,0269512
3593,6980;0,0267116
3594,6624;0,0264153
3595,6265;0,0261306
3596,5908;0,0258841
3597,5549;0,025649
3598,5193;0,0253867
3599,4834;0,0250967
3600,4478;0,0248295
3601,4119;0,0246492
3602,3762;0,0245771
3603,3403;0,0245708
3604,3047;0,0245481
3605,2688;0,0244295
3606,2332;0,0241767
3607,1973;0,0238153
3608,1616;0,0234236
3609,1257;0,0230828
3610,0901;0,02283
3611,0542;0,0226567
3612,0186;0,0225387
3612,9827;0,022457
3613,9470;0,0223925
3614,9111;0,0223094
3615,8755;0,0221504
3616,8396;0,0218567
3617,8040;0,0214123
3618,7681;0,0208919
3619,7324;0,0204535
3620,6965;0,0202428
3621,6609;0,0202956
3622,6250;0,0205373
3623,5894;0,0208421
3624,5535;0,0210757
3625,5178;0,0211033
3626,4819;0,0208042
3627,4463;0,0201478
3628,4104;0,0193084
3629,3748;0,0186107
3630,3389;0,0182435
3631,3032;0,018136
3632,2673;0,0181123
3633,2317;0,0180446
3634,1958;0,0178949
3635,1602;0,0176941
3636,1243;0,0174978
3637,0886;0,0173429
3638,0527;0,0172322
3639,0171;0,0171518
3639,9812;0,0170997
3640,9456;0,0170976
3641,9097;0,0171749
3642,8740;0,0173411
3643,8381;0,0175648
3644,8025;0,0177658
3645,7666;0,0178116
3646,7310;0,0175281
3647,6951;0,0168006
3648,6594;0,015794
3649,6235;0,014962
3650,5879;0,014601
3651,5520;0,0146175
3652,5164;0,0147583
3653,4805;0,0148186
3654,4448;0,0146984
3655,4089;0,014411
3656,3733;0,014068
3657,3374;0,0138055
3658,3018;0,0136855
3659,2659;0,0136721
3660,2302;0,0136951
3661,1943;0,0137198
3662,1587;0,013767
3663,1228;0,0138806
3664,0872;0,0140742
3665,0513;0,014302
3666,0156;0,0144721
3666,9797;0,0144913
3667,9441;0,0143264
3668,9082;0,01406
3669,8726;0,0138605
3670,8367;0,0138327
3671,8010;0,0139164
3672,7651;0,0139422
3673,7295;0,0137503
3674,6936;0,013301
3675,6580;0,0127429
3676,6221;0,0123148
3677,5864;0,0121305
3678,5505;0,0121305
3679,5149;0,0122116
3680,4790;0,0123247
3681,4434;0,012482
3682,4075;0,0127143
3683,3718;0,0130231
3684,3359;0,0133571
3685,3003;0,0136193
3686,2644;0,0136924
3687,2288;0,0134838
3688,1929;0,0130047
3689,1572;0,0124334
3690,1213;0,01202
3691,0857;0,0118801
3692,0498;0,011952
3693,0142;0,0121187
3693,9783;0,0123006
3694,9426;0,0124685
3695,9067;0,0126182
3696,8711;0,0127426
3697,8352;0,0128171
3698,7996;0,0128063
3699,7637;0,0126918
3700,7280;0,0125048
3701,6921;0,0123357
3702,6565;0,0122891
3703,6206;0,0124161
3704,5850;0,0126871
3705,5491;0,0130182
3706,5134;0,013306
3707,4775;0,0134452
3708,4419;0,0133404
3709,4060;0,0129475
3710,3704;0,0123517
3711,3345;0,0117808
3712,2988;0,0114539
3713,2629;0,0114234
3714,2273;0,0116028
3715,1914;0,011877
3716,1558;0,0121623
3717,1199;0,0124146
3718,0842;0,0126193
3719,0483;0,0127789
3720,0127;0,0128983
3720,9768;0,0129734
3721,9412;0,0129896
3722,9053;0,0129378
3723,8696;0,0128371
3724,8337;0,0127439
3725,7981;0,0127279
3726,7622;0,0128308
3727,7266;0,0130447
3728,6907;0,0133232
3729,6550;0,0136043
3730,6191;0,0138216
3731,5835;0,0139033
3732,5476;0,0137742
3733,5120;0,013396
3734,4761;0,0128473
3735,4404;0,0123462
3736,4045;0,0121108
3737,3689;0,0121995
3738,3330;0,012516
3739,2974;0,0129048
3740,2615;0,013215
3741,2258;0,0133224
3742,1899;0,013159
3743,1543;0,0127819
3744,1184;0,0124138
3745,0828;0,012302
3746,0469;0,0124865
3747,0112;0,012781
3747,9753;0,012931
3748,9397;0,0127461
3749,9038;0,012219
3750,8682;0,0116081
3751,8323;0,0112666
3752,7966;0,0113142
3753,7607;0,0116038
3754,7251;0,0119224
3755,6892;0,0121167
3756,6536;0,0121201
3757,6177;0,0119588
3758,5820;0,0117408
3759,5461;0,0115942
3760,5105;0,0115852
3761,4746;0,0116941
3762,4390;0,0118571
3763,4031;0,0120132
3764,3674;0,012123
3765,3315;0,012166
3766,2959;0,0121306
3767,2600;0,01201
3768,2244;0,0118112
3769,1885;0,0115732
3770,1528;0,011369
3771,1169;0,0112746
3772,0813;0,0113243
3773,0454;0,0114917
3774,0098;0,0117085
3774,9739;0,0118955
3775,9382;0,0119895
3776,9023;0,0119656
3777,8667;0,0118535
3778,8308;0,0117282
3779,7952;0,0116621
3780,7593;0,0116754
3781,7236;0,0117338
3782,6877;0,0117838
3783,6521;0,0117873
3784,6162;0,0117372
3785,5806;0,0116548
3786,5447;0,0115761
3787,5090;0,0115355
3788,4731;0,011554
3789,4375;0,0116345
3790,4016;0,0117617
3791,3660;0,0119086
3792,3301;0,0120482
3793,2944;0,0121684
3794,2585;0,0122801
3795,2229;0,0124066
3796,1870;0,0125561
3797,1514;0,0126957
3798,1155;0,0127545
3799,0798;0,0126652
3800,0439;0,012427
3801,0083;0,0121406
3801,9724;0,0119439
3802,9368;0,0118862
3803,9009;0,0118895
3804,8652;0,0118292
3805,8293;0,0116421
3806,7937;0,011391
3807,7578;0,0112345
3808,7222;0,0113002
3809,6863;0,0115836
3810,6506;0,0119736
3811,6147;0,012336
3812,5791;0,012574
3813,5432;0,0126588
3814,5076;0,0126454
3815,4717;0,0126399
3816,4360;0,0127062
3817,4001;0,0127954
3818,3645;0,0127805
3819,3286;0,0125641
3820,2930;0,0121779
3821,2571;0,0117897
3822,2214;0,0115731
3823,1855;0,0115734
3824,1499;0,011717
3825,1140;0,0119025
3826,0784;0,0120629
3827,0425;0,0121781
3828,0068;0,0122612
3828,9709;0,0123365
3829,9353;0,012423
3830,8994;0,0125304
3831,8638;0,0126605
3832,8279;0,0128061
3833,7922;0,0129439
3834,7563;0,0130305
3835,7207;0,0130128
3836,6848;0,012857
3837,6492;0,0125839
3838,6133;0,012272
3839,5776;0,0120071
3840,5417;0,011826
3841,5061;0,0117161
3842,4702;0,0116592
3843,4346;0,0116645
3844,3987;0,0117684
3845,3630;0,0120058
3846,3271;0,0123805
3847,2915;0,0128535
3848,2556;0,0133484
3849,2200;0,0137522
3850,1841;0,0139059
3851,1484;0,0136186
3852,1125;0,0128058
3853,0769;0,0117509
3854,0410;0,0110186
3855,0054;0,0108814
3855,9695;0,0111796
3856,9338;0,0116532
3857,8979;0,0121261
3858,8623;0,0125043
3859,8264;0,0127395
3860,7908;0,0128151
3861,7549;0,0127566
3862,7192;0,0126403
3863,6833;0,0125639
3864,6477;0,0125845
3865,6118;0,0126849
3866,5762;0,012796
3867,5403;0,0128407
3868,5046;0,0127673
3869,4688;0,0125705
3870,4331;0,0122988
3871,3972;0,0120377
3872,3616;0,0118698
3873,3257;0,0118393
3874,2900;0,0119413
3875,2542;0,0121325
3876,2185;0,01235
3877,1826;0,0125318
3878,1470;0,0126369
3879,1111;0,0126609
3880,0754;0,0126329
3881,0396;0,0125868
3882,0039;0,0125285
3882,9680;0,0124383
3883,9324;0,0123113
3884,8965;0,012188
3885,8608;0,0121333
3886,8250;0,0121765
3887,7893;0,0122751
3888,7534;0,0123384
3889,7178;0,0122907
3890,6819;0,0121347
3891,6462;0,0119732
3892,6104;0,0119431
3893,5747;0,0121049
3894,5388;0,0124097
3895,5032;0,0127555
3896,4673;0,0130496
3897,4316;0,0132362
3898,3958;0,0132996
3899,3601;0,0132514
3900,3242;0,0131057
3901,2886;0,0128645
3902,2527;0,012536
3903,2170;0,0121683
3904,1812;0,0118464
3905,1455;0,011643
3906,1096;0,0115744
3907,0740;0,0116068
3908,0381;0,011693
3909,0024;0,0118013
3909,9666;0,0119234
3910,9309;0,0120647
3911,8950;0,0122257
3912,8594;0,0123881
3913,8235;0,0125144
3914,7878;0,0125636
3915,7520;0,0125164
3916,7163;0,0123975
3917,6804;0,0122708
3918,6448;0,0122002
3919,6089;0,0122077
3920,5732;0,0122655
3921,5374;0,0123229
3922,5017;0,012342
3923,4658;0,0123209
3924,4302;0,0122947
3925,3943;0,0123073
3926,3586;0,0123757
3927,3228;0,0124767
3928,2871;0,0125607
3929,2512;0,0125797
3930,2156;0,0125128
3931,1797;0,0123799
3932,1440;0,0122325
3933,1082;0,0121226
3934,0725;0,0120761
3935,0366;0,0120907
3936,0010;0,0121497
3936,9651;0,0122328
3937,9294;0,0123193
3938,8936;0,012388
3939,8579;0,0124208
3940,8220;0,012413
3941,7864;0,0123812
3942,7505;0,0123577
3943,7148;0,0123703
3944,6790;0,0124219
3945,6433;0,0124871
3946,6074;0,012527
3947,5718;0,0125116
3948,5359;0,0124376
3949,5002;0,0123306
3950,4644;0,0122288
3951,4287;0,0121592
3952,3928;0,0121271
3953,3572;0,0121224
3954,3213;0,0121331
3955,2856;0,0121533
3956,2498;0,0121824
3957,2141;0,0122193
3958,1782;0,0122564
3959,1426;0,0122812
3960,1067;0,0122829
3961,0710;0,01226
3962,0352;0,0122222
3962,9995;0,0121856
3963,9636;0,0121636
3964,9280;0,0121607
3965,8921;0,0121728
3966,8564;0,0121919
3967,8206;0,0122115
3968,7849;0,0122291
3969,7490;0,0122452
3970,7134;0,0122601
3971,6775;0,0122713
3972,6418;0,012274
3973,6060;0,0122645
3974,5703;0,0122436
3975,5344;0,0122179
3976,4988;0,0121969
3977,4629;0,0121889
3978,4272;0,0121964
3979,3914;0,012215
3980,3557;0,012236
3981,3198;0,0122506
3982,2842;0,0122538
3983,2483;0,0122469
3984,2126;0,0122355
3985,1768;0,0122255
3986,1411;0,0122205
3987,1052;0,01222
3988,0696;0,0122216
3989,0337;0,0122227
3989,9980;0,0122219
3990,9622;0,0122188
3991,9265;0,0122128
3992,8906;0,0122029
3993,8550;0,0121889
3994,8191;0,0121722
3995,7834;0,0121562
3996,7476;0,0121442
3997,7119;0,0121379
3998,6760;0,0121367
3999,6404;0,0121385
4000,6045;0,0121352

##### Extended Information
[Comments]
Sample name
Comment
Username
Division
Organization;UNIVERSIDAD INDUSTRIAL DE SANTANDER

[Detailed Information]
Creation date;17/03/2025 11:13 a.m.

Data array type;Linear data array
Horizontal axis;Wavenumber [cm-1]
Vertical axis;Abs
Start;399,193 cm-1
End;4000,6 cm-1
Data interval;0,964233 cm-1
Data points;3736    

[Measurement Information]
Model name;FT/IR-4X1typeA
Serial No.;A035162111

Accessory;ATR PRO 4X
Accessory S/N;A021162126
Incident angle;45 deg

Measurement date;17/03/2025 11:08 a.m.

Light source;Standard
Detector;TGS
Accumulation;40
Resolution;4 cm-1
Zero filling;On
Apodization;Cosine
Gain;Auto (8)
Aperture;Auto (7 mm)
Scan speed;Auto (2 mm/sec)
Filter;Auto (12800 Hz)

