TITLE;
DATA TYPE;INFRARED SPECTRUM
ORIGIN;JASCO
OWNER;
DATE;25/03/17
TIME;10:57:19
SPECTROMETER/DATA SYSTEM;
LOCALE;9226
RESOLUTION;
DELTAX;0,964233
XUNITS;1/CM
YUNITS;ABSORBANCE
FIRSTX;  399,1927
LASTX; 4000,6047
NPOINTS;    3736
FIRSTY;     0,16823
MAXY;     0,16823
MINY;     0,00051
XYDATA
399,1927;0,168234
400,1569;0,166217
401,1211;0,163415
402,0854;0,160137
403,0496;0,156821
404,0138;0,153928
404,9781;0,151798
405,9423;0,150511
406,9065;0,149841
407,8708;0,149397
408,8350;0,148884
409,7992;0,148277
410,7635;0,147813
411,7277;0,147814
412,6919;0,148485
413,6562;0,149829
414,6204;0,151714
415,5846;0,153932
416,5489;0,156155
417,5131;0,157833
418,4773;0,158322
419,4416;0,157484
420,4058;0,156025
421,3700;0,154809
422,3343;0,154157
423,2985;0,1539
424,2627;0,153722
425,2270;0,153407
426,1912;0,152959
427,1554;0,152557
428,1197;0,152393
429,0839;0,152533
430,0481;0,152896
431,0124;0,153341
431,9766;0,153776
432,9408;0,154201
433,9051;0,154646
434,8693;0,155074
435,8335;0,155341
436,7978;0,155274
437,7620;0,154795
438,7262;0,153978
439,6905;0,153014
440,6547;0,152123
441,6189;0,151468
442,5832;0,151107
443,5474;0,150972
444,5116;0,150895
445,4759;0,150675
446,4401;0,150164
447,4043;0,149313
448,3686;0,148197
449,3328;0,146989
450,2970;0,145911
451,2613;0,145157
452,2255;0,14482
453,1897;0,144869
454,1540;0,145188
455,1182;0,14562
456,0824;0,145997
457,0467;0,146139
458,0109;0,145891
458,9751;0,145205
459,9394;0,144195
460,9036;0,143085
461,8678;0,142106
462,8321;0,141426
463,7963;0,141112
464,7605;0,141124
465,7248;0,141337
466,6890;0,141603
467,6532;0,141827
468,6175;0,141986
469,5817;0,142096
470,5459;0,14216
471,5102;0,14215
472,4744;0,14203
473,4386;0,141807
474,4029;0,141537
475,3671;0,141288
476,3313;0,141108
477,2956;0,141017
478,2598;0,141028
479,2240;0,141156
480,1883;0,141404
481,1525;0,141735
482,1167;0,142065
483,0810;0,142287
484,0452;0,142333
485,0094;0,142222
485,9737;0,142055
486,9379;0,141956
487,9021;0,142006
488,8664;0,142222
489,8306;0,14257
490,7948;0,142987
491,7591;0,143398
492,7233;0,143725
493,6875;0,143914
494,6518;0,143956
495,6160;0,143907
496,5802;0,14387
497,5445;0,143958
498,5087;0,144232
499,4729;0,144676
500,4372;0,145202
501,4014;0,1457
502,3656;0,146098
503,3299;0,146394
504,2941;0,146631
505,2583;0,146834
506,2226;0,146988
507,1868;0,147059
508,1510;0,147046
509,1153;0,147015
510,0795;0,147082
511,0437;0,147352
512,0080;0,147867
512,9722;0,148598
513,9365;0,149463
514,9007;0,150358
515,8649;0,151168
516,8292;0,151766
517,7934;0,152031
518,7576;0,151901
519,7219;0,151419
520,6861;0,150733
521,6503;0,150023
522,6146;0,149434
523,5788;0,149032
524,5430;0,148802
525,5073;0,148671
526,4715;0,148555
527,4357;0,148405
528,4000;0,148213
529,3642;0,147986
530,3284;0,147729
531,2927;0,147436
532,2569;0,14711
533,2211;0,146778
534,1854;0,14648
535,1496;0,146251
536,1138;0,146099
537,0781;0,145999
538,0423;0,145916
539,0065;0,145823
539,9708;0,145721
540,9350;0,145635
541,8992;0,145608
542,8635;0,145687
543,8277;0,145912
544,7919;0,146301
545,7562;0,146839
546,7204;0,147468
547,6846;0,148106
548,6489;0,148667
549,6131;0,149096
550,5773;0,149386
551,5416;0,149573
552,5058;0,149717
553,4700;0,149876
554,4343;0,150071
555,3985;0,150279
556,3627;0,150427
557,3270;0,150422
558,2912;0,150178
559,2554;0,149644
560,2197;0,148826
561,1839;0,147785
562,1481;0,146623
563,1124;0,145457
564,0766;0,144387
565,0408;0,143469
566,0051;0,1427
566,9693;0,142035
567,9335;0,141424
568,8978;0,140844
569,8620;0,14032
570,8262;0,139909
571,7905;0,139661
572,7547;0,139588
573,7189;0,139658
574,6832;0,139807
575,6474;0,139967
576,6116;0,140083
577,5759;0,140119
578,5401;0,140046
579,5043;0,139848
580,4686;0,139528
581,4328;0,13913
582,3970;0,138734
583,3613;0,138428
584,3255;0,138261
585,2897;0,138222
586,2540;0,138244
587,2182;0,138256
588,1824;0,138221
589,1467;0,138154
590,1109;0,138097
591,0751;0,138077
592,0394;0,13807
593,0036;0,138012
593,9678;0,137839
594,9321;0,13753
595,8963;0,137118
596,8605;0,136669
597,8248;0,136245
598,7890;0,135875
599,7532;0,13555
600,7175;0,135246
601,6817;0,134946
602,6459;0,134654
603,6102;0,134388
604,5744;0,134156
605,5386;0,133945
606,5029;0,133711
607,4671;0,133396
608,4313;0,13295
609,3956;0,132363
610,3598;0,13169
611,3240;0,131047
612,2883;0,130575
613,2525;0,130376
614,2167;0,130443
615,1810;0,130618
616,1452;0,130626
617,1094;0,130185
618,0737;0,129158
619,0379;0,127637
620,0021;0,125891
620,9664;0,124226
621,9306;0,122852
622,8948;0,121834
623,8591;0,12111
624,8233;0,120497
625,7875;0,120008
626,7518;0,119576
627,7160;0,119171
628,6802;0,118763
629,6445;0,118326
630,6087;0,117827
631,5729;0,117257
632,5372;0,116636
633,5014;0,11601
634,4656;0,115437
635,4299;0,114965
636,3941;0,11462
637,3583;0,114398
638,3226;0,114265
639,2868;0,11417
640,2510;0,114061
641,2153;0,113902
642,1795;0,113692
643,1437;0,113459
644,1080;0,113247
645,0722;0,113086
646,0364;0,112976
647,0007;0,112883
647,9649;0,112765
648,9291;0,112596
649,8934;0,112389
650,8576;0,112192
651,8218;0,112065
652,7861;0,112054
653,7503;0,112174
654,7145;0,112397
655,6788;0,112667
656,6430;0,112913
657,6072;0,113083
658,5715;0,113152
659,5357;0,113112
660,4999;0,112928
661,4642;0,112514
662,4284;0,111737
663,3926;0,110464
664,3569;0,10869
665,3211;0,106752
666,2853;0,10541
667,2496;0,10541
668,2138;0,106452
669,1780;0,107286
670,1423;0,107427
671,1065;0,10717
672,0707;0,106612
673,0350;0,105702
673,9992;0,104533
674,9634;0,103322
675,9277;0,10224
676,8919;0,101295
677,8561;0,100382
678,8204;0,0994064
679,7846;0,0983617
680,7488;0,0973101
681,7131;0,0963273
682,6773;0,0954459
683,6415;0,0946608
684,6058;0,0939551
685,5700;0,0933236
686,5342;0,0927694
687,4985;0,0922868
688,4627;0,0918656
689,4269;0,0914743
690,3912;0,0911001
691,3554;0,0907523
692,3196;0,0904437
693,2839;0,0901661
694,2481;0,0898839
695,2123;0,089551
696,1766;0,0891398
697,1408;0,0886619
698,1050;0,0881642
699,0693;0,0877034
700,0335;0,0873142
700,9977;0,0869911
701,9620;0,0866934
702,9262;0,0863675
703,8904;0,0859532
704,8547;0,085453
705,8189;0,0849004
706,7831;0,0843447
707,7474;0,0838249
708,7116;0,0833519
709,6758;0,0829053
710,6401;0,0824422
711,6043;0,0819144
712,5685;0,0812888
713,5328;0,0805665
714,4970;0,07979
715,4612;0,0777351
716,4255;0,0773355
717,3897;0,0771499
718,3539;0,0770583
719,3182;0,0768476
720,2824;0,0763137
721,2466;0,0753798
722,2109;0,0741429
723,1751;0,0728134
724,1393;0,0715994
725,1036;0,0706164
726,0678;0,0698655
727,0320;0,0692697
727,9963;0,0687356
728,9605;0,0682031
729,9247;0,067659
730,8890;0,067118
731,8532;0,0665957
732,8174;0,0660937
733,7817;0,0656044
734,7459;0,0651227
735,7101;0,0646548
736,6744;0,0642146
737,6386;0,0638141
738,6028;0,0634552
739,5671;0,063128
740,5313;0,0628164
741,4955;0,062506
742,4598;0,0621888
743,4240;0,0618633
744,3882;0,06153
745,3525;0,0611883
746,3167;0,0608342
747,2809;0,0604637
748,2452;0,0600767
749,2094;0,0596807
750,1736;0,0592905
751,1379;0,0589222
752,1021;0,0585858
753,0663;0,058279
754,0306;0,0579877
754,9948;0,0576939
755,9590;0,0573859
756,9233;0,0570654
757,8875;0,0567451
758,8517;0,056439
759,8160;0,056152
760,7802;0,0558759
761,7444;0,0555949
762,7087;0,0552975
763,6729;0,0549848
764,6371;0,0546717
765,6014;0,0543778
766,5656;0,0541172
767,5298;0,053893
768,4941;0,0536985
769,4583;0,0535232
770,4225;0,0533583
771,3868;0,0531975
772,3510;0,0530351
773,3152;0,0528645
774,2795;0,0526797
775,2437;0,0524784
776,2079;0,0522644
777,1722;0,0520463
778,1364;0,0518325
779,1006;0,0516273
780,0649;0,0514284
781,0291;0,0512287
781,9933;0,0510201
782,9576;0,0507962
783,9218;0,050554
784,8860;0,0502943
785,8503;0,05002
786,8145;0,0497367
787,7787;0,0494514
788,7430;0,0491723
789,7072;0,048907
790,6714;0,0486607
791,6357;0,0484349
792,5999;0,0482271
793,5641;0,0480309
794,5284;0,0478387
795,4926;0,0476442
796,4568;0,0474451
797,4211;0,0472439
798,3853;0,047046
799,3495;0,0468563
800,3138;0,0466747
801,2780;0,046496
802,2422;0,046312
803,2065;0,0461179
804,1707;0,0459175
805,1349;0,0457233
806,0992;0,0455517
807,0634;0,0454143
808,0276;0,0453109
808,9919;0,0452276
809,9561;0,0451419
810,9203;0,0450331
811,8846;0,0448918
812,8488;0,0447251
813,8130;0,0445553
814,7773;0,0444107
815,7415;0,0443143
816,7057;0,0442736
817,6700;0,0442763
818,6342;0,0442942
819,5984;0,0442928
820,5627;0,044244
821,5269;0,044135
822,4911;0,0439709
823,4554;0,0437711
824,4196;0,0435607
825,3839;0,0433625
826,3481;0,0431911
827,3123;0,0430507
828,2766;0,0429369
829,2408;0,0428403
830,2050;0,0427508
831,1693;0,042661
832,1335;0,0425669
833,0977;0,0424668
834,0620;0,0423592
835,0262;0,0422407
835,9904;0,0421067
836,9547;0,0419529
837,9189;0,0417777
838,8831;0,0415829
839,8474;0,0413747
840,8116;0,0411632
841,7758;0,0409616
842,7401;0,0407842
843,7043;0,0406419
844,6685;0,0405367
845,6328;0,0404586
846,5970;0,0403878
847,5612;0,0403037
848,5255;0,0401963
849,4897;0,040071
850,4539;0,0399451
851,4182;0,0398348
852,3824;0,0397435
853,3466;0,0396585
854,3109;0,0395606
855,2751;0,0394393
856,2393;0,0393023
857,2036;0,0391736
858,1678;0,0390784
859,1320;0,0390276
860,0963;0,0390109
861,0605;0,0390042
862,0247;0,0389859
862,9890;0,0389503
863,9532;0,0389111
864,9174;0,0388918
865,8817;0,0389115
866,8459;0,038975
867,8101;0,0390723
868,7744;0,0391859
869,7386;0,0393009
870,7028;0,0394092
871,6671;0,0395099
872,6313;0,0396044
873,5955;0,0396939
874,5598;0,039779
875,5240;0,0398621
876,4882;0,0399496
877,4525;0,040052
878,4167;0,0401806
879,3809;0,0403456
880,3452;0,0405536
881,3094;0,040807
882,2736;0,0411054
883,2379;0,0414455
884,2021;0,0418217
885,1663;0,0422273
886,1306;0,0426557
887,0948;0,0431027
888,0590;0,0435677
889,0233;0,0440527
889,9875;0,0445587
890,9517;0,0450806
891,9160;0,0456025
892,8802;0,0460972
893,8444;0,0465309
894,8087;0,0468714
895,7729;0,0470979
896,7371;0,0472053
897,7014;0,0472029
898,6656;0,0471063
899,6298;0,0469288
900,5941;0,0466768
901,5583;0,0463534
902,5225;0,0459651
903,4868;0,0455298
904,4510;0,0450773
905,4152;0,0446424
906,3795;0,0442553
907,3437;0,0439333
908,3079;0,0436794
909,2722;0,0434872
910,2364;0,0433476
911,2007;0,0432535
912,1649;0,0432004
913,1292;0,0431844
914,0934;0,0432014
915,0576;0,0432472
916,0219;0,04332
916,9861;0,0434211
917,9503;0,0435528
918,9146;0,0437147
919,8788;0,0439009
920,8430;0,0440998
921,8073;0,0442984
922,7715;0,0444872
923,7357;0,0446636
924,7000;0,0448312
925,6642;0,0449949
926,6284;0,0451546
927,5927;0,0453035
928,5569;0,0454313
929,5211;0,0455321
930,4854;0,0456121
931,4496;0,0456904
932,4138;0,0457927
933,3781;0,0459403
934,3423;0,0461414
935,3065;0,0463897
936,2708;0,046672
937,2350;0,0469784
938,1992;0,0473097
939,1635;0,047676
940,1277;0,0480911
941,0919;0,0485652
942,0562;0,0491015
943,0204;0,0496978
943,9846;0,0503489
944,9489;0,0510466
945,9131;0,0517788
946,8773;0,0525285
947,8416;0,0532767
948,8058;0,05401
949,7700;0,0547276
950,7343;0,055443
951,6985;0,0561797
952,6627;0,0569605
953,6270;0,0577982
954,5912;0,0586915
955,5554;0,0596281
956,5197;0,060591
957,4839;0,0615662
958,4481;0,0625467
959,4124;0,0635333
960,3766;0,0645328
961,3408;0,0655543
962,3051;0,0666065
963,2693;0,0676942
964,2335;0,0688175
965,1978;0,0699717
966,1620;0,0711506
967,1262;0,0723496
968,0905;0,0735692
969,0547;0,0748174
970,0189;0,0761111
970,9832;0,077475
971,9474;0,0789403
972,9116;0,0805401
973,8759;0,0823026
974,8401;0,0842439
975,8043;0,0863627
976,7686;0,0886384
977,7328;0,0910338
978,6970;0,0934997
979,6613;0,0959781
980,6255;0,0984047
981,5897;0,100712
982,5540;0,102835
983,5182;0,104726
984,4824;0,106362
985,4467;0,107756
986,4109;0,108952
987,3751;0,110008
988,3394;0,11098
989,3036;0,111903
990,2678;0,112789
991,2321;0,113631
992,1963;0,114413
993,1605;0,115125
994,1248;0,115764
995,0890;0,116335
996,0532;0,116847
997,0175;0,117305
997,9817;0,117711
998,9459;0,118068
999,9102;0,118388
1000,8744;0,118694
1001,8386;0,119022
1002,8029;0,119416
1003,7671;0,119916
1004,7313;0,120552
1005,6956;0,121333
1006,6598;0,122258
1007,6240;0,123315
1008,5883;0,124492
1009,5525;0,125778
1010,5167;0,12716
1011,4810;0,12862
1012,4452;0,130129
1013,4094;0,131651
1014,3737;0,133154
1015,3379;0,134616
1016,3021;0,13603
1017,2664;0,137398
1018,2306;0,138726
1019,1948;0,140012
1020,1591;0,141246
1021,1233;0,142419
1022,0875;0,143527
1023,0518;0,144581
1024,0160;0,145603
1024,9802;0,146622
1025,9445;0,147654
1026,9087;0,148692
1027,8729;0,149697
1028,8372;0,150589
1029,8014;0,151265
1030,7656;0,151611
1031,7299;0,151532
1032,6941;0,150971
1033,6583;0,14993
1034,6226;0,148466
1035,5868;0,146684
1036,5510;0,144726
1037,5153;0,142743
1038,4795;0,140889
1039,4437;0,139295
1040,4080;0,138056
1041,3722;0,137216
1042,3364;0,136766
1043,3007;0,13665
1044,2649;0,136782
1045,2291;0,137066
1046,1934;0,137418
1047,1576;0,137771
1048,1218;0,138073
1049,0861;0,138279
1050,0503;0,138348
1051,0145;0,138241
1051,9788;0,13793
1052,9430;0,137406
1053,9072;0,136675
1054,8715;0,135748
1055,8357;0,134622
1056,7999;0,133268
1057,7642;0,13163
1058,7284;0,129651
1059,6926;0,127305
1060,6569;0,12462
1061,6211;0,12169
1062,5853;0,118649
1063,5496;0,115641
1064,5138;0,112783
1065,4780;0,110146
1066,4423;0,107753
1067,4065;0,10559
1068,3707;0,103625
1069,3350;0,101819
1070,2992;0,100127
1071,2634;0,098503
1072,2277;0,096903
1073,1919;0,0952878
1074,1561;0,0936294
1075,1204;0,091915
1076,0846;0,0901503
1077,0488;0,0883599
1078,0131;0,0865851
1078,9773;0,0848782
1079,9415;0,0832939
1080,9058;0,0818777
1081,8700;0,0806568
1082,8342;0,0796368
1083,7985;0,0788051
1084,7627;0,0781388
1085,7269;0,0776136
1086,6912;0,0772094
1087,6554;0,0769116
1088,6196;0,0767105
1089,5839;0,0765983
1090,5481;0,076567
1091,5123;0,0766073
1092,4766;0,0767079
1093,4408;0,0768567
1094,4050;0,0770426
1095,3693;0,077257
1096,3335;0,0774946
1097,2977;0,0777516
1098,2620;0,0780236
1099,2262;0,0783024
1100,1904;0,0785757
1101,1547;0,078827
1102,1189;0,0790383
1103,0831;0,0791924
1104,0474;0,0792762
1105,0116;0,0792838
1105,9758;0,0792177
1106,9401;0,0790845
1107,9043;0,0788867
1108,8685;0,0786123
1109,8328;0,0782286
1110,7970;0,0776876
1111,7612;0,0769432
1112,7255;0,075974
1113,6897;0,0748001
1114,6539;0,0734842
1115,6182;0,0721139
1116,5824;0,070776
1117,5466;0,0695319
1118,5109;0,0684061
1119,4751;0,0673874
1120,4393;0,0664385
1121,4036;0,0655074
1122,3678;0,0645374
1123,3320;0,063476
1124,2963;0,0622862
1125,2605;0,060957
1126,2247;0,059509
1127,1890;0,05799
1128,1532;0,056459
1129,1174;0,0549667
1130,0817;0,0535401
1131,0459;0,0521818
1132,0101;0,0508815
1132,9744;0,0496335
1133,9386;0,0484495
1134,9028;0,04736
1135,8671;0,0464052
1136,8313;0,045622
1137,7955;0,0450344
1138,7598;0,04465
1139,7240;0,0444618
1140,6882;0,0444511
1141,6525;0,0445908
1142,6167;0,0448476
1143,5809;0,0451867
1144,5452;0,0455771
1145,5094;0,0459966
1146,4736;0,0464332
1147,4379;0,0468842
1148,4021;0,0473518
1149,3663;0,0478403
1150,3306;0,0483527
1151,2948;0,0488888
1152,2590;0,0494418
1153,2233;0,0499955
1154,1875;0,0505238
1155,1517;0,0509925
1156,1160;0,0513632
1157,0802;0,051596
1158,0444;0,0516483
1159,0087;0,0514724
1159,9729;0,0510147
1160,9371;0,0502239
1161,9014;0,0490656
1162,8656;0,0475392
1163,8298;0,0456888
1164,7941;0,0435997
1165,7583;0,0413825
1166,7225;0,0391503
1167,6868;0,0369981
1168,6510;0,0349912
1169,6152;0,0331651
1170,5795;0,0315323
1171,5437;0,0300921
1172,5079;0,0288366
1173,4722;0,0277534
1174,4364;0,026825
1175,4006;0,026029
1176,3649;0,0253421
1177,3291;0,0247449
1178,2933;0,0242271
1179,2576;0,0237875
1180,2218;0,0234286
1181,1860;0,0231495
1182,1503;0,0229415
1183,1145;0,0227891
1184,0787;0,0226779
1185,0430;0,0226016
1186,0072;0,0225652
1186,9714;0,0225811
1187,9357;0,0226614
1188,8999;0,0228092
1189,8641;0,0230171
1190,8284;0,0232709
1191,7926;0,0235575
1192,7568;0,0238707
1193,7211;0,0242113
1194,6853;0,0245828
1195,6495;0,0249844
1196,6138;0,0254072
1197,5780;0,0258358
1198,5422;0,026253
1199,5065;0,0264728
1200,4707;0,0268541
1201,4349;0,0272029
1202,3992;0,0275173
1203,3634;0,0277944
1204,3276;0,0280311
1205,2919;0,0282252
1206,2561;0,0283789
1207,2203;0,0284992
1208,1846;0,0285983
1209,1488;0,028693
1210,1130;0,0288036
1211,0773;0,0289517
1212,0415;0,0291556
1213,0057;0,0294257
1213,9700;0,0297608
1214,9342;0,0301497
1215,8984;0,0305756
1216,8627;0,031021
1217,8269;0,0314717
1218,7911;0,0319201
1219,7554;0,0323615
1220,7196;0,0327929
1221,6838;0,0332103
1222,6481;0,0336096
1223,6123;0,0339875
1224,5765;0,0343423
1225,5408;0,0346741
1226,5050;0,0349851
1227,4692;0,0352786
1228,4335;0,0355578
1229,3977;0,0358239
1230,3619;0,0360747
1231,3262;0,0363043
1232,2904;0,0365046
1233,2546;0,0366688
1234,2189;0,0367941
1235,1831;0,0368825
1236,1473;0,0369402
1237,1116;0,0369749
1238,0758;0,0369941
1239,0400;0,0370047
1240,0043;0,0370121
1240,9685;0,03702
1241,9327;0,0370284
1242,8970;0,0370332
1243,8612;0,0370259
1244,8254;0,0369965
1245,7897;0,0369378
1246,7539;0,036848
1247,7181;0,0367315
1248,6824;0,0365967
1249,6466;0,0364522
1250,6108;0,0363048
1251,5751;0,03616
1252,5393;0,0360232
1253,5035;0,0359012
1254,4678;0,0358007
1255,4320;0,035725
1256,3962;0,0356707
1257,3605;0,0356273
1258,3247;0,03558
1259,2889;0,0355146
1260,2532;0,0354224
1261,2174;0,035301
1262,1816;0,0351526
1263,1459;0,0349813
1264,1101;0,0347907
1265,0743;0,0345846
1266,0386;0,0343673
1267,0028;0,0341435
1267,9670;0,0339159
1268,9313;0,0336833
1269,8955;0,0334398
1270,8597;0,0331786
1271,8240;0,0328958
1272,7882;0,0325956
1273,7524;0,0322907
1274,7167;0,0319996
1275,6809;0,0317403
1276,6451;0,0315223
1277,6094;0,031341
1278,5736;0,0311766
1279,5378;0,031001
1280,5021;0,0307897
1281,4663;0,0305337
1282,4305;0,0302446
1283,3948;0,029949
1284,3590;0,0296762
1285,3232;0,0294456
1286,2875;0,0292616
1287,2517;0,0291159
1288,2159;0,0289968
1289,1802;0,0288969
1290,1444;0,0288167
1291,1086;0,0287618
1292,0729;0,0287385
1293,0371;0,0287516
1294,0013;0,0288044
1294,9656;0,0289003
1295,9298;0,0290426
1296,8940;0,0292337
1297,8583;0,0294735
1298,8225;0,029759
1299,7867;0,0300852
1300,7510;0,0304458
1301,7152;0,0308362
1302,6794;0,0312502
1303,6437;0,0316811
1304,6079;0,0321252
1305,5721;0,032583
1306,5364;0,0330598
1307,5006;0,0335633
1308,4648;0,0340977
1309,4291;0,034658
1310,3933;0,0352281
1311,3575;0,035783
1312,3218;0,0362964
1313,2860;0,0367475
1314,2502;0,0371234
1315,2145;0,037413
1316,1787;0,0376008
1317,1429;0,0376656
1318,1072;0,0375908
1319,0714;0,0373805
1320,0356;0,0370675
1320,9999;0,036705
1321,9641;0,0363454
1322,9283;0,0360233
1323,8926;0,0357524
1324,8568;0,0355328
1325,8210;0,0353605
1326,7853;0,0352324
1327,7495;0,0351451
1328,7137;0,035091
1329,6780;0,0350563
1330,6422;0,0350239
1331,6064;0,0349804
1332,5707;0,0349217
1333,5349;0,0348561
1334,4991;0,0347963
1335,4634;0,0347472
1336,4276;0,0346906
1337,3918;0,0345779
1338,3561;0,0343421
1339,3203;0,0339424
1340,2845;0,0334083
1341,2488;0,0328301
1342,2130;0,032302
1343,1772;0,0318776
1344,1415;0,0315682
1345,1057;0,0313619
1346,0699;0,0312401
1347,0342;0,0311859
1347,9984;0,0311888
1348,9626;0,0312455
1349,9269;0,0313558
1350,8911;0,0315158
1351,8553;0,0317139
1352,8196;0,0319318
1353,7838;0,0321518
1354,7480;0,0323655
1355,7123;0,0325798
1356,6765;0,0328132
1357,6407;0,0330846
1358,6050;0,0334034
1359,5692;0,033761
1360,5334;0,0341227
1361,4977;0,0344292
1362,4619;0,0346332
1363,4261;0,0347462
1364,3904;0,0348331
1365,3546;0,034954
1366,3188;0,0351266
1367,2831;0,0353317
1368,2473;0,0355361
1369,2115;0,035711
1370,1758;0,0358388
1371,1400;0,0359082
1372,1042;0,0359032
1373,0685;0,0357976
1374,0327;0,0355688
1374,9969;0,0352258
1375,9612;0,0348129
1376,9254;0,0343726
1377,8896;0,0339138
1378,8539;0,0334223
1379,8181;0,0328958
1380,7823;0,0323635
1381,7466;0,0318731
1382,7108;0,0314574
1383,6750;0,0311133
1384,6393;0,0308072
1385,6035;0,0304951
1386,5677;0,03015
1387,5320;0,0297928
1388,4962;0,0294886
1389,4604;0,029291
1390,4247;0,0292011
1391,3889;0,0291912
1392,3531;0,0292459
1393,3174;0,0293665
1394,2816;0,0295386
1395,2458;0,0297096
1396,2101;0,0298095
1397,1743;0,0298018
1398,1385;0,0297128
1399,1028;0,0296153
1400,0670;0,0295822
1401,0313;0,0296482
1401,9955;0,0297996
1402,9597;0,0299937
1403,9240;0,0301855
1404,8882;0,0303509
1405,8524;0,0304981
1406,8167;0,0306563
1407,7809;0,0308477
1408,7451;0,0310712
1409,7094;0,0313156
1410,6736;0,0315798
1411,6378;0,0318767
1412,6021;0,0322165
1413,5663;0,0325863
1414,5305;0,0329498
1415,4948;0,0332685
1416,4590;0,0335158
1417,4232;0,0336709
1418,3875;0,0337283
1419,3517;0,0337442
1420,3159;0,0338148
1421,2802;0,033964
1422,2444;0,0341097
1423,2086;0,0341454
1424,1729;0,0340212
1425,1371;0,0337592
1426,1013;0,0334155
1427,0656;0,0330317
1428,0298;0,0326162
1428,9940;0,0321617
1429,9583;0,031676
1430,9225;0,0311857
1431,8867;0,0307014
1432,8510;0,0301904
1433,8152;0,0295964
1434,7794;0,0288846
1435,7437;0,0280845
1436,7079;0,027322
1437,6721;0,0267813
1438,6364;0,0265574
1439,6006;0,0265746
1440,5648;0,0266802
1441,5291;0,0267698
1442,4933;0,0268254
1443,4575;0,026883
1444,4218;0,0269783
1445,3860;0,0271134
1446,3502;0,027262
1447,3145;0,0274018
1448,2787;0,0275438
1449,2429;0,0277259
1450,2072;0,0279655
1451,1714;0,0282205
1452,1356;0,0284082
1453,0999;0,028468
1454,0641;0,0284125
1455,0283;0,0283059
1455,9926;0,0281283
1456,9568;0,0277208
1457,9210;0,0271454
1458,8853;0,0267779
1459,8495;0,026747
1460,8137;0,0268427
1461,7780;0,0268277
1462,7422;0,0265898
1463,7064;0,0261338
1464,6707;0,0255464
1465,6349;0,0249684
1466,5991;0,024512
1467,5634;0,024166
1468,5276;0,0238258
1469,4918;0,0233999
1470,4561;0,0228609
1471,4203;0,022202
1472,3845;0,021382
1473,3488;0,020402
1474,3130;0,0194237
1475,2772;0,0186429
1476,2415;0,018108
1477,2057;0,01775
1478,1699;0,0174859
1479,1342;0,0172638
1480,0984;0,0170618
1481,0626;0,0168811
1482,0269;0,0167406
1482,9911;0,0166674
1483,9553;0,0166822
1484,9196;0,0167936
1485,8838;0,0170011
1486,8480;0,0172813
1487,8123;0,0175434
1488,7765;0,0176347
1489,7407;0,0175032
1490,7050;0,0173065
1491,6692;0,0172263
1492,6334;0,0172969
1493,5977;0,0174646
1494,5619;0,0176968
1495,5261;0,018005
1496,4904;0,0183939
1497,4546;0,0188319
1498,4188;0,0193047
1499,3831;0,0198291
1500,3473;0,0203635
1501,3115;0,0207886
1502,2758;0,0209988
1503,2400;0,0210069
1504,2042;0,0210031
1505,1685;0,0212883
1506,1327;0,0219142
1507,0969;0,0223535
1508,0612;0,0222347
1509,0254;0,0219254
1509,9896;0,0217393
1510,9539;0,0216469
1511,9181;0,0215552
1512,8823;0,0214454
1513,8466;0,0213485
1514,8108;0,0212781
1515,7750;0,0211936
1516,7393;0,0210281
1517,7035;0,0207483
1518,6677;0,0203841
1519,6320;0,0200073
1520,5962;0,019689
1521,5604;0,0194701
1522,5247;0,0193527
1523,4889;0,0192991
1524,4531;0,0192508
1525,4174;0,0191712
1526,3816;0,0190763
1527,3458;0,0190146
1528,3101;0,0190167
1529,2743;0,0190736
1530,2385;0,0191654
1531,2028;0,0192957
1532,1670;0,0194813
1533,1312;0,0197128
1534,0955;0,0199459
1535,0597;0,0201224
1536,0239;0,0201967
1536,9882;0,0201922
1537,9524;0,0202668
1538,9166;0,0206594
1539,8809;0,0213555
1540,8451;0,0218281
1541,8093;0,021736
1542,7736;0,0214246
1543,7378;0,021227
1544,7020;0,0211827
1545,6663;0,0212477
1546,6305;0,0213937
1547,5947;0,0215908
1548,5590;0,0217913
1549,5232;0,02195
1550,4874;0,022056
1551,4517;0,0221397
1552,4159;0,0222372
1553,3801;0,022341
1554,3444;0,0223943
1555,3086;0,022343
1556,2728;0,0221782
1557,2371;0,0218591
1558,2013;0,0212195
1559,1655;0,0204245
1560,1298;0,0201996
1561,0940;0,0207808
1562,0582;0,0217456
1563,0225;0,0226554
1563,9867;0,0233061
1564,9509;0,0236821
1565,9152;0,0238673
1566,8794;0,0239727
1567,8436;0,0240836
1568,8079;0,0242385
1569,7721;0,0244498
1570,7363;0,0247143
1571,7006;0,0249936
1572,6648;0,0252316
1573,6290;0,0254126
1574,5933;0,0255774
1575,5575;0,0257679
1576,5217;0,0259875
1577,4860;0,0262596
1578,4502;0,0266214
1579,4144;0,0270396
1580,3787;0,0274358
1581,3429;0,0277689
1582,3071;0,0280574
1583,2714;0,0283478
1584,2356;0,0286736
1585,1998;0,0290392
1586,1641;0,0294257
1587,1283;0,0298077
1588,0925;0,0301661
1589,0568;0,030491
1590,0210;0,030779
1590,9852;0,0310269
1591,9495;0,0312239
1592,9137;0,0313493
1593,8779;0,0313793
1594,8422;0,0313039
1595,8064;0,0311419
1596,7706;0,0309374
1597,7349;0,0307394
1598,6991;0,0305775
1599,6633;0,0304519
1600,6276;0,0303401
1601,5918;0,0302168
1602,5560;0,030075
1603,5203;0,029932
1604,4845;0,0298117
1605,4487;0,0297208
1606,4130;0,0296397
1607,3772;0,0295378
1608,3414;0,0294017
1609,3057;0,0292546
1610,2699;0,0291375
1611,2341;0,0290625
1612,1984;0,0289938
1613,1626;0,0288831
1614,1268;0,0287153
1615,0911;0,0285167
1616,0553;0,0283397
1617,0195;0,0282689
1617,9838;0,0283867
1618,9480;0,0286701
1619,9122;0,0289924
1620,8765;0,0292344
1621,8407;0,0293524
1622,8049;0,029368
1623,7692;0,0293314
1624,7334;0,0292922
1625,6976;0,0292753
1626,6619;0,0292796
1627,6261;0,0293032
1628,5903;0,0293557
1629,5546;0,0294345
1630,5188;0,0294992
1631,4830;0,029492
1632,4473;0,0293975
1633,4115;0,0292772
1634,3757;0,0292077
1635,3400;0,0291611
1636,3042;0,0290712
1637,2684;0,0290242
1638,2327;0,0291263
1639,1969;0,0293304
1640,1611;0,0295158
1641,1254;0,0295969
1642,0896;0,0295535
1643,0538;0,0294326
1644,0181;0,0293356
1644,9823;0,0293532
1645,9465;0,0294535
1646,9108;0,0294941
1647,8750;0,0293807
1648,8392;0,0290749
1649,8035;0,028523
1650,7677;0,0277115
1651,7319;0,0267114
1652,6962;0,0256186
1653,6604;0,0246599
1654,6246;0,0242832
1655,5889;0,0245629
1656,5531;0,0250802
1657,5173;0,0254325
1658,4816;0,0254575
1659,4458;0,0251836
1660,4100;0,0247243
1661,3743;0,0241943
1662,3385;0,0236864
1663,3027;0,02328
1664,2670;0,0230079
1665,2312;0,0228279
1666,1954;0,0226645
1667,1597;0,0224622
1668,1239;0,0221867
1669,0881;0,0218078
1670,0524;0,0213292
1671,0166;0,0208091
1671,9808;0,020285
1672,9451;0,0197305
1673,9093;0,0191298
1674,8735;0,0185634
1675,8378;0,0181964
1676,8020;0,01815
1677,7662;0,0183731
1678,7305;0,018663
1679,6947;0,018799
1680,6589;0,0186496
1681,6232;0,0181876
1682,5874;0,0174395
1683,5516;0,0164913
1684,5159;0,0156211
1685,4801;0,0151739
1686,4443;0,0151738
1687,4086;0,0153565
1688,3728;0,0154622
1689,3370;0,0153732
1690,3013;0,0150986
1691,2655;0,0147134
1692,2297;0,0143127
1693,1940;0,0139877
1694,1582;0,0138052
1695,1224;0,013767
1696,0867;0,0137678
1697,0509;0,013618
1698,0151;0,0131781
1698,9794;0,0125249
1699,9436;0,011961
1700,9078;0,0117838
1701,8721;0,0120409
1702,8363;0,0125335
1703,8005;0,0129959
1704,7648;0,0132486
1705,7290;0,0132618
1706,6932;0,013141
1707,6575;0,0130459
1708,6217;0,0130799
1709,5859;0,0132436
1710,5502;0,0134753
1711,5144;0,0137151
1712,4786;0,0139372
1713,4429;0,0141415
1714,4071;0,0143126
1715,3713;0,0143585
1716,3356;0,0141207
1717,2998;0,0135937
1718,2640;0,0130857
1719,2283;0,0129063
1720,1925;0,0130598
1721,1567;0,0133537
1722,1210;0,0136071
1723,0852;0,01374
1724,0494;0,013773
1725,0137;0,0137897
1725,9779;0,0138827
1726,9421;0,0140985
1727,9064;0,0144087
1728,8706;0,014723
1729,8348;0,0149312
1730,7991;0,0149466
1731,7633;0,0147287
1732,7275;0,0143048
1733,6918;0,0138188
1734,6560;0,0135081
1735,6202;0,0134977
1736,5845;0,0136818
1737,5487;0,0138614
1738,5129;0,0139122
1739,4772;0,0138336
1740,4414;0,0137081
1741,4056;0,0136261
1742,3699;0,0136236
1743,3341;0,0136699
1744,2983;0,0137018
1745,2626;0,0136645
1746,2268;0,0135204
1747,1910;0,0132272
1748,1553;0,0127229
1749,1195;0,0119714
1750,0837;0,0110614
1751,0480;0,0102078
1752,0122;0,00959207
1752,9764;0,00923789
1753,9407;0,00905049
1754,9049;0,00891816
1755,8691;0,00877213
1756,8334;0,00859319
1757,7976;0,00839042
1758,7618;0,00817565
1759,7261;0,00795122
1760,6903;0,00771707
1761,6545;0,00748683
1762,6188;0,00729182
1763,5830;0,00716115
1764,5472;0,00709778
1765,5115;0,00707979
1766,4757;0,00708277
1767,4399;0,00709586
1768,4042;0,00711713
1769,3684;0,00713399
1770,3326;0,00710734
1771,2969;0,00698817
1772,2611;0,00677968
1773,2253;0,00657558
1774,1896;0,00648565
1775,1538;0,00653166
1776,1180;0,00664813
1777,0823;0,00675491
1778,0465;0,00680722
1779,0107;0,00679703
1779,9750;0,0067319
1780,9392;0,00662063
1781,9034;0,00647449
1782,8677;0,00631564
1783,8319;0,00618166
1784,7961;0,00611595
1785,7604;0,00614321
1786,7246;0,00624897
1787,6888;0,0063868
1788,6531;0,00651047
1789,6173;0,00659965
1790,5815;0,00665274
1791,5458;0,00666376
1792,5100;0,00663587
1793,4742;0,00661222
1794,4385;0,00663696
1795,4027;0,00669686
1796,3669;0,00673987
1797,3312;0,00672956
1798,2954;0,00666663
1799,2596;0,0065729
1800,2239;0,00646878
1801,1881;0,00636821
1802,1523;0,00628446
1803,1166;0,00622996
1804,0808;0,00621217
1805,0450;0,00623357
1806,0093;0,00629295
1806,9735;0,00638296
1807,9377;0,00648448
1808,9020;0,00656452
1809,8662;0,0065866
1810,8304;0,00653322
1811,7947;0,00642064
1812,7589;0,00628691
1813,7231;0,0061664
1814,6874;0,00607766
1815,6516;0,00602774
1816,6158;0,00601865
1817,5801;0,00604861
1818,5443;0,00611118
1819,5085;0,00619511
1820,4728;0,00628585
1821,4370;0,00637002
1822,4012;0,00644032
1823,3655;0,00649696
1824,3297;0,00654636
1825,2939;0,00659797
1826,2582;0,00665628
1827,2224;0,00671061
1828,1866;0,00673294
1829,1509;0,00669288
1830,1151;0,00658886
1831,0793;0,00646485
1832,0436;0,00637724
1833,0078;0,00634618
1833,9720;0,00635205
1834,9363;0,0063684
1835,9005;0,00638539
1836,8647;0,00640886
1837,8290;0,00644533
1838,7932;0,00648844
1839,7574;0,0065192
1840,7217;0,00652429
1841,6859;0,00651318
1842,6501;0,00650967
1843,6144;0,00652437
1844,5786;0,00654889
1845,5428;0,00657648
1846,5071;0,00660122
1847,4713;0,00660122
1848,4355;0,00655002
1849,3998;0,00644338
1850,3640;0,00630732
1851,3282;0,00618239
1852,2925;0,00609956
1853,2567;0,00606756
1854,2209;0,00607727
1855,1852;0,00611478
1856,1494;0,00617001
1857,1136;0,00623756
1858,0779;0,00631106
1859,0421;0,00638103
1860,0063;0,0064398
1860,9706;0,00648904
1861,9348;0,0065418
1862,8990;0,00661618
1863,8633;0,00672631
1864,8275;0,00687682
1865,7917;0,00705588
1866,7560;0,0072207
1867,7202;0,00729508
1868,6844;0,00721666
1869,6487;0,00700498
1870,6129;0,00675087
1871,5771;0,00653388
1872,5414;0,00637885
1873,5056;0,00627698
1874,4698;0,00621743
1875,4341;0,00619642
1876,3983;0,00621229
1877,3625;0,00625908
1878,3268;0,00632704
1879,2910;0,00640455
1880,2552;0,00648071
1881,2195;0,00654683
1882,1837;0,00659809
1883,1479;0,00663568
1884,1122;0,0066674
1885,0764;0,00670455
1886,0406;0,00675576
1887,0049;0,00681974
1887,9691;0,00688142
1888,9333;0,0069187
1889,8976;0,00692044
1890,8618;0,00689862
1891,8260;0,00687906
1892,7903;0,00688082
1893,7545;0,00690433
1894,7188;0,00693343
1895,6830;0,00694695
1896,6472;0,00693304
1897,6115;0,00689689
1898,5757;0,00685586
1899,5399;0,00682837
1900,5042;0,00682673
1901,4684;0,00685634
1902,4326;0,00691744
1903,3969;0,00700551
1904,3611;0,00710929
1905,3253;0,00720904
1906,2896;0,00727907
1907,2538;0,00729666
1908,2180;0,00725468
1909,1823;0,00717095
1910,1465;0,00708431
1911,1107;0,00703402
1912,0750;0,00703608
1913,0392;0,00707709
1914,0034;0,00712973
1914,9677;0,00717463
1915,9319;0,00721165
1916,8961;0,00725612
1917,8604;0,00732557
1918,8246;0,00742469
1919,7888;0,00753655
1920,7531;0,00762699
1921,7173;0,00766134
1922,6815;0,00762278
1923,6458;0,0075216
1924,6100;0,00739028
1925,5742;0,00726698
1926,5385;0,0071801
1927,5027;0,00714527
1928,4669;0,00717121
1929,4312;0,00726113
1930,3954;0,00740645
1931,3596;0,00758073
1932,3239;0,00774155
1933,2881;0,00784484
1934,2523;0,00786516
1935,2166;0,00781071
1936,1808;0,00772355
1937,1450;0,00766283
1938,1093;0,00767971
1939,0735;0,00779663
1940,0377;0,00799617
1941,0020;0,00822079
1941,9662;0,00839045
1942,9304;0,00844143
1943,8947;0,00836206
1944,8589;0,00819182
1945,8231;0,00798792
1946,7874;0,00779624
1947,7516;0,00764698
1948,7158;0,00756461
1949,6801;0,00757317
1950,6443;0,00768658
1951,6085;0,00788941
1952,5728;0,00812599
1953,5370;0,00831435
1954,5012;0,00838422
1955,4655;0,00831747
1956,4297;0,00816145
1957,3939;0,00800252
1958,3582;0,00791581
1959,3224;0,00792521
1960,2866;0,00800129
1961,2509;0,00809629
1962,2151;0,00818578
1963,1793;0,00828248
1964,1436;0,00841497
1965,1078;0,00859467
1966,0720;0,00880046
1967,0363;0,00899466
1968,0005;0,00915602
1968,9647;0,00929607
1969,9290;0,00944112
1970,8932;0,00959831
1971,8574;0,00973668
1972,8217;0,00979736
1973,7859;0,00972527
1974,7501;0,00950286
1975,7144;0,00917076
1976,6786;0,00881774
1977,6428;0,00854362
1978,6071;0,00841536
1979,5713;0,00844277
1980,5355;0,00858372
1981,4998;0,00876745
1982,4640;0,00892138
1983,4282;0,00899411
1984,3925;0,00897267
1985,3567;0,00888842
1986,3209;0,00880523
1987,2852;0,00879119
1988,2494;0,00888664
1989,2136;0,00908374
1990,1779;0,00932783
1991,1421;0,00954246
1992,1063;0,00966801
1993,0706;0,00969031
1994,0348;0,00963848
1994,9990;0,0095571
1995,9633;0,00947798
1996,9275;0,00940996
1997,8917;0,0093466
1998,8560;0,00928192
1999,8202;0,0092229
2000,7844;0,00919176
2001,7487;0,0092181
2002,7129;0,00932775
2003,6771;0,00953397
2004,6414;0,00983167
2005,6056;0,0101923
2006,5698;0,0105632
2007,5341;0,0108753
2008,4983;0,0110636
2009,4625;0,0110926
2010,4268;0,010973
2011,3910;0,0107595
2012,3552;0,0105329
2013,3195;0,0103727
2014,2837;0,0103331
2015,2479;0,010428
2016,2122;0,0106316
2017,1764;0,0108932
2018,1406;0,0111597
2019,1049;0,011391
2020,0691;0,0115647
2021,0333;0,0116721
2021,9976;0,0117154
2022,9618;0,0117087
2023,9260;0,0116767
2024,8903;0,0116465
2025,8545;0,0116319
2026,8187;0,0116228
2027,7830;0,0115894
2028,7472;0,011502
2029,7114;0,0113542
2030,6757;0,0111698
2031,6399;0,0109889
2032,6041;0,0108416
2033,5684;0,0107337
2034,5326;0,0106557
2035,4968;0,0106053
2036,4611;0,0105968
2037,4253;0,0106488
2038,3895;0,0107552
2039,3538;0,0108683
2040,3180;0,0109129
2041,2822;0,0108283
2042,2465;0,0106128
2043,2107;0,0103356
2044,1749;0,0101058
2045,1392;0,0100132
2046,1034;0,0100784
2047,0676;0,0102378
2048,0320;0,0103779
2048,9961;0,0103998
2049,9604;0,0102718
2050,9246;0,010037
2051,8889;0,00977958
2052,8530;0,00957978
2053,8174;0,00948021
2054,7815;0,00947256
2055,7458;0,00951092
2056,7100;0,00954267
2057,6743;0,00954054
2058,6384;0,00951548
2059,6028;0,00950314
2060,5669;0,00953469
2061,5313;0,00961204
2062,4954;0,00970299
2063,4597;0,00975849
2064,4238;0,00974057
2065,3882;0,00964364
2066,3523;0,00949684
2067,3167;0,00934874
2068,2808;0,00924549
2069,2451;0,00921427
2070,2092;0,00925628
2071,1736;0,00934792
2072,1377;0,00944712
2073,1021;0,00950607
2074,0662;0,009487
2075,0305;0,00937713
2075,9946;0,00919579
2076,9590;0,00898924
2077,9231;0,00881335
2078,8875;0,00871137
2079,8516;0,00869719
2080,8159;0,00875202
2081,7800;0,00883549
2082,7444;0,00890492
2083,7085;0,00893296
2084,6729;0,00891525
2085,6370;0,0088664
2086,6013;0,00880773
2087,5654;0,00875518
2088,5298;0,00871364
2089,4939;0,00867966
2090,4583;0,0086489
2091,4224;0,00862224
2092,3867;0,00860661
2093,3508;0,0086111
2094,3152;0,00864163
2095,2793;0,0086979
2096,2437;0,00877336
2097,2078;0,00885647
2098,1721;0,00893253
2099,1362;0,00898638
2100,1006;0,0090092
2101,0647;0,00899824
2102,0291;0,00897088
2102,9932;0,00895069
2103,9575;0,00895539
2104,9216;0,00898361
2105,8860;0,00901392
2106,8501;0,00901976
2107,8145;0,00899072
2108,7786;0,00894348
2109,7429;0,00891149
2110,7070;0,00891903
2111,6714;0,00895929
2112,6355;0,00899482
2113,5999;0,00898201
2114,5640;0,00890232
2115,5283;0,008777
2116,4924;0,00865488
2117,4568;0,00858288
2118,4209;0,00858122
2119,3853;0,00863987
2120,3494;0,00873532
2121,3137;0,00885113
2122,2778;0,00898419
2123,2422;0,00913284
2124,2063;0,00928011
2125,1707;0,00939089
2126,1348;0,00942972
2127,0991;0,00938816
2128,0632;0,00930003
2129,0276;0,00923122
2129,9917;0,00924898
2130,9561;0,00938994
2131,9202;0,00964538
2132,8845;0,00996935
2133,8486;0,0103014
2134,8130;0,0105895
2135,7771;0,0108029
2136,7415;0,0109337
2137,7056;0,0109925
2138,6699;0,0110036
2139,6340;0,0109992
2140,5984;0,0110109
2141,5625;0,0110611
2142,5269;0,011159
2143,4910;0,0113051
2144,4553;0,0114974
2145,4194;0,0117345
2146,3838;0,0120101
2147,3479;0,0123072
2148,3123;0,012601
2149,2764;0,0128713
2150,2407;0,0131146
2151,2048;0,013343
2152,1692;0,0135678
2153,1333;0,0137837
2154,0977;0,0139674
2155,0618;0,0140989
2156,0261;0,0141899
2156,9902;0,0142933
2157,9546;0,0144717
2158,9187;0,0147379
2159,8831;0,0150227
2160,8472;0,0152118
2161,8115;0,0152169
2162,7756;0,0150144
2163,7400;0,0146333
2164,7041;0,0141228
2165,6685;0,013531
2166,6326;0,0129044
2167,5969;0,0123012
2168,5610;0,0117962
2169,5254;0,0114646
2170,4895;0,0113522
2171,4539;0,0114497
2172,4180;0,0116913
2173,3823;0,0119799
2174,3464;0,0122254
2175,3108;0,0123734
2176,2749;0,0124083
2177,2393;0,0123367
2178,2034;0,0121711
2179,1677;0,0119274
2180,1318;0,0116358
2181,0962;0,0113464
2182,0603;0,0111185
2183,0247;0,0109953
2183,9888;0,010984
2184,9531;0,0110571
2185,9172;0,0111715
2186,8816;0,0112882
2187,8457;0,0113776
2188,8101;0,0114154
2189,7742;0,0113808
2190,7385;0,0112664
2191,7026;0,0110934
2192,6670;0,0109149
2193,6311;0,0107959
2194,5955;0,0107771
2195,5596;0,0108463
2196,5239;0,0109387
2197,4880;0,0109726
2198,4524;0,0108969
2199,4165;0,0107226
2200,3809;0,0105167
2201,3450;0,0103641
2202,3093;0,0103216
2203,2734;0,0103908
2204,2378;0,0105211
2205,2019;0,010639
2206,1663;0,0106835
2207,1304;0,0106321
2208,0947;0,0105053
2209,0588;0,0103512
2210,0232;0,0102169
2210,9873;0,0101247
2211,9517;0,0100633
2212,9158;0,0100022
2213,8801;0,00991845
2214,8442;0,00981713
2215,8086;0,00972937
2216,7727;0,00968769
2217,7371;0,00969763
2218,7012;0,00972914
2219,6655;0,00973689
2220,6296;0,00969468
2221,5940;0,00961611
2222,5581;0,00954335
2223,5225;0,00951173
2224,4866;0,00951882
2225,4509;0,00952429
2226,4150;0,00948196
2227,3794;0,0093777
2228,3435;0,00924593
2229,3079;0,00914522
2230,2720;0,00911553
2231,2363;0,00914961
2232,2004;0,00920071
2233,1648;0,00922022
2234,1289;0,00919563
2235,0933;0,0091598
2236,0574;0,0091655
2237,0217;0,009245
2237,9858;0,00938411
2238,9502;0,00952816
2239,9143;0,00961387
2240,8787;0,00960479
2241,8428;0,00950801
2242,8071;0,00936491
2243,7712;0,00922568
2244,7356;0,00912538
2245,6997;0,00907466
2246,6641;0,00906639
2247,6282;0,00908929
2248,5925;0,00913754
2249,5566;0,00921074
2250,5210;0,00930675
2251,4851;0,00941487
2252,4495;0,00951575
2253,4136;0,00958883
2254,3779;0,00962232
2255,3420;0,00961863
2256,3064;0,00959148
2257,2705;0,00955721
2258,2349;0,00952678
2259,1990;0,00950378
2260,1633;0,00948802
2261,1274;0,00948005
2262,0918;0,009482
2263,0559;0,00949397
2264,0203;0,00951011
2264,9844;0,00951909
2265,9487;0,00951003
2266,9128;0,00947968
2267,8772;0,00943478
2268,8413;0,0093871
2269,8057;0,00934474
2270,7698;0,00930623
2271,7341;0,00926178
2272,6982;0,00920063
2273,6626;0,00911885
2274,6267;0,00902261
2275,5911;0,00892509
2276,5552;0,00884012
2277,5195;0,00877687
2278,4836;0,00873796
2279,4480;0,00872108
2280,4121;0,00872213
2281,3765;0,00873837
2282,3406;0,00877049
2283,3049;0,00882305
2284,2690;0,00890285
2285,2334;0,00901553
2286,1975;0,0091618
2287,1619;0,00933573
2288,1260;0,00952673
2289,0903;0,00972417
2290,0544;0,00992205
2291,0188;0,0101203
2291,9829;0,0103224
2292,9473;0,0105302
2293,9114;0,01074
2294,8757;0,0109414
2295,8398;0,0111187
2296,8042;0,0112556
2297,7683;0,0113387
2298,7327;0,011362
2299,6968;0,0113293
2300,6611;0,0112558
2301,6252;0,0111668
2302,5896;0,0110931
2303,5537;0,011065
2304,5181;0,0111029
2305,4822;0,0112073
2306,4465;0,0113515
2307,4106;0,0114826
2308,3750;0,0115337
2309,3391;0,011447
2310,3035;0,0111993
2311,2676;0,0108181
2312,2319;0,010376
2313,1960;0,00996257
2314,1604;0,00964618
2315,1245;0,00944675
2316,0889;0,00933535
2317,0530;0,00925755
2318,0173;0,00916552
2318,9814;0,00904332
2319,9458;0,00891684
2320,9099;0,00884611
2321,8743;0,00889996
2322,8384;0,00911738
2323,8027;0,00947305
2324,7668;0,00987331
2325,7312;0,0101921
2326,6953;0,0103258
2327,6597;0,0102361
2328,6238;0,00996108
2329,5881;0,00959684
2330,5522;0,00925998
2331,5166;0,00904261
2332,4807;0,00897709
2333,4451;0,00903164
2334,4092;0,00914292
2335,3735;0,00926458
2336,3376;0,00939993
2337,3020;0,009601
2338,2661;0,00993615
2339,2305;0,010438
2340,1946;0,0110484
2341,1589;0,0115851
2342,1230;0,0117812
2343,0874;0,0114724
2344,0515;0,0108677
2345,0159;0,0105211
2345,9800;0,0108436
2346,9443;0,0117246
2347,9084;0,0126822
2348,8728;0,0132527
2349,8369;0,0132527
2350,8013;0,0128306
2351,7654;0,0123427
2352,7297;0,0121112
2353,6938;0,0122111
2354,6582;0,0124797
2355,6223;0,0127245
2356,5867;0,0128506
2357,5508;0,0128114
2358,5151;0,0125593
2359,4792;0,0120977
2360,4436;0,0115323
2361,4077;0,0110085
2362,3721;0,0105886
2363,3362;0,0102095
2364,3005;0,00975261
2365,2646;0,00914299
2366,2290;0,00838699
2367,1931;0,00754364
2368,1575;0,00668301
2369,1216;0,00586972
2370,0859;0,00516439
2371,0500;0,00462308
2372,0144;0,00429065
2372,9785;0,00419571
2373,9429;0,00435008
2374,9070;0,00474758
2375,8713;0,0053585
2376,8354;0,0061238
2377,7998;0,00695725
2378,7639;0,00775912
2379,7283;0,00843749
2380,6924;0,00892828
2381,6567;0,00920626
2382,6208;0,00928452
2383,5852;0,00920476
2384,5493;0,00902329
2385,5137;0,00879717
2386,4778;0,00857369
2387,4421;0,00838494
2388,4063;0,00824726
2389,3706;0,00816434
2390,3347;0,00813144
2391,2991;0,00813917
2392,2632;0,00817565
2393,2275;0,00822783
2394,1917;0,00828253
2395,1560;0,00832837
2396,1201;0,00835801
2397,0845;0,00837007
2398,0486;0,00837108
2399,0129;0,00836932
2399,9771;0,00837253
2400,9414;0,00838598
2401,9055;0,00840952
2402,8699;0,00843979
2403,8340;0,00847143
2404,7983;0,00849913
2405,7625;0,00851905
2406,7268;0,0085292
2407,6909;0,00853128
2408,6553;0,00853061
2409,6194;0,00853329
2410,5837;0,00854433
2411,5479;0,0085646
2412,5122;0,00859048
2413,4763;0,00861627
2414,4407;0,00863817
2415,4048;0,00865644
2416,3691;0,00867458
2417,3333;0,00869594
2418,2976;0,00872057
2419,2617;0,00874511
2420,2261;0,0087656
2421,1902;0,00878035
2422,1545;0,00879269
2423,1187;0,0088084
2424,0830;0,00883169
2425,0471;0,00886187
2426,0115;0,00889348
2426,9756;0,0089199
2427,9399;0,0089381
2428,9041;0,00895105
2429,8684;0,00896607
2430,8325;0,0089896
2431,7969;0,00902173
2432,7610;0,00905394
2433,7253;0,00907225
2434,6895;0,00906452
2435,6538;0,00902809
2436,6179;0,00897315
2437,5823;0,00891947
2438,5464;0,00888788
2439,5107;0,00889125
2440,4749;0,00892981
2441,4392;0,0089929
2442,4033;0,00906506
2443,3677;0,0091323
2444,3318;0,00918538
2445,2961;0,00921963
2446,2603;0,00923347
2447,2246;0,00922778
2448,1887;0,00920643
2449,1531;0,00917652
2450,1172;0,00914736
2451,0815;0,00912804
2452,0457;0,00912517
2453,0100;0,00914182
2453,9741;0,00917768
2454,9385;0,00922955
2455,9026;0,00929173
2456,8669;0,00935658
2457,8311;0,00941583
2458,7954;0,00946244
2459,7595;0,00949205
2460,7239;0,00950312
2461,6880;0,00949629
2462,6523;0,00947422
2463,6165;0,00944233
2464,5808;0,00940954
2465,5449;0,00938691
2466,5093;0,00938359
2467,4734;0,00940199
2468,4377;0,00943577
2469,4019;0,00947267
2470,3662;0,009501
2471,3303;0,00951544
2472,2947;0,00951852
2473,2588;0,0095173
2474,2231;0,00951839
2475,1873;0,00952491
2476,1516;0,00953667
2477,1157;0,00955198
2478,0801;0,00956862
2479,0442;0,00958342
2480,0085;0,00959186
2480,9727;0,00958972
2481,9370;0,00957626
2482,9011;0,0095564
2483,8655;0,00953945
2484,8296;0,00953454
2485,7939;0,00954572
2486,7581;0,00957043
2487,7224;0,00960224
2488,6865;0,00963543
2489,6509;0,00966785
2490,6150;0,00970005
2491,5793;0,00973218
2492,5435;0,00976183
2493,5078;0,00978491
2494,4719;0,00979855
2495,4363;0,00980338
2496,4004;0,00980283
2497,3647;0,00980036
2498,3289;0,00979713
2499,2932;0,00979249
2500,2573;0,00978673
2501,2217;0,00978317
2502,1858;0,00978697
2503,1501;0,00980087
2504,1143;0,00982127
2505,0786;0,00983849
2506,0427;0,00984209
2507,0071;0,00982807
2507,9712;0,00980242
2508,9355;0,00977835
2509,8997;0,00976869
2510,8640;0,00977897
2511,8281;0,00980582
2512,7925;0,00984123
2513,7566;0,00987857
2514,7209;0,00991542
2515,6851;0,00995135
2516,6494;0,00998347
2517,6135;0,0100044
2518,5779;0,0100055
2519,5420;0,00998277
2520,5063;0,00994177
2521,4705;0,00989615
2522,4348;0,00986138
2523,3989;0,00984726
2524,3633;0,00985425
2525,3274;0,00987543
2526,2917;0,00990224
2527,2559;0,00992966
2528,2202;0,00995778
2529,1843;0,0099894
2530,1487;0,0100258
2531,1128;0,0100639
2532,0771;0,0100961
2533,0413;0,0101133
2534,0056;0,0101095
2534,9697;0,0100847
2535,9341;0,0100454
2536,8982;0,0100023
2537,8625;0,00996561
2538,8267;0,00994207
2539,7910;0,0099331
2540,7551;0,00993636
2541,7195;0,00994819
2542,6836;0,00996521
2543,6479;0,0099843
2544,6121;0,0100017
2545,5764;0,0100128
2546,5405;0,0100139
2547,5049;0,0100044
2548,4690;0,00998836
2549,4333;0,00997242
2550,3975;0,00996293
2551,3618;0,00996246
2552,3259;0,00996879
2553,2903;0,00997686
2554,2544;0,00998209
2555,2188;0,0099831
2556,1829;0,00998237
2557,1472;0,0099849
2558,1113;0,0099958
2559,0757;0,0100179
2560,0398;0,0100501
2561,0042;0,0100876
2561,9683;0,0101228
2562,9326;0,0101484
2563,8967;0,0101605
2564,8611;0,0101604
2565,8252;0,0101531
2566,7896;0,010145
2567,7537;0,0101394
2568,7180;0,0101359
2569,6821;0,0101318
2570,6465;0,0101258
2571,6106;0,0101199
2572,5750;0,0101185
2573,5391;0,0101246
2574,5034;0,0101362
2575,4675;0,0101454
2576,4319;0,0101433
2577,3960;0,0101252
2578,3604;0,0100953
2579,3245;0,0100657
2580,2888;0,0100501
2581,2529;0,0100566
2582,2173;0,0100824
2583,1814;0,0101151
2584,1458;0,0101391
2585,1099;0,0101435
2586,0742;0,0101272
2587,0383;0,0100991
2588,0027;0,0100731
2588,9668;0,0100611
2589,9312;0,0100685
2590,8953;0,0100924
2591,8596;0,010124
2592,8237;0,0101529
2593,7881;0,0101713
2594,7522;0,010177
2595,7166;0,0101745
2596,6807;0,0101731
2597,6450;0,0101824
2598,6091;0,0102077
2599,5735;0,0102464
2600,5376;0,0102883
2601,5020;0,0103205
2602,4661;0,0103339
2603,4304;0,0103284
2604,3945;0,0103128
2605,3589;0,0102997
2606,3230;0,0102987
2607,2874;0,0103109
2608,2515;0,0103285
2609,2158;0,0103404
2610,1799;0,0103388
2611,1443;0,010324
2612,1084;0,0103045
2613,0728;0,0102918
2614,0369;0,0102944
2615,0012;0,0103134
2615,9653;0,0103421
2616,9297;0,0103706
2617,8938;0,0103905
2618,8582;0,0103986
2619,8223;0,0103975
2620,7866;0,0103929
2621,7507;0,0103903
2622,7151;0,0103924
2623,6792;0,0103986
2624,6436;0,0104055
2625,6077;0,0104095
2626,5720;0,0104081
2627,5361;0,0104015
2628,5005;0,0103922
2629,4646;0,010384
2630,4290;0,0103806
2631,3931;0,0103841
2632,3574;0,010395
2633,3215;0,0104129
2634,2859;0,0104373
2635,2500;0,0104672
2636,2144;0,0105003
2637,1785;0,0105324
2638,1428;0,0105579
2639,1069;0,0105723
2640,0713;0,0105749
2641,0354;0,0105698
2641,9998;0,0105641
2642,9639;0,0105644
2643,9282;0,0105734
2644,8923;0,0105889
2645,8567;0,0106058
2646,8208;0,0106191
2647,7852;0,0106268
2648,7493;0,0106306
2649,7136;0,010634
2650,6777;0,0106403
2651,6421;0,0106505
2652,6062;0,0106633
2653,5706;0,0106764
2654,5347;0,0106879
2655,4990;0,0106978
2656,4631;0,0107073
2657,4275;0,0107187
2658,3916;0,0107339
2659,3560;0,0107536
2660,3201;0,0107775
2661,2844;0,0108038
2662,2485;0,0108298
2663,2129;0,0108524
2664,1770;0,0108693
2665,1414;0,0108798
2666,1055;0,010886
2667,0698;0,010892
2668,0339;0,0109022
2668,9983;0,0109183
2669,9624;0,010938
2670,9268;0,0109564
2671,8909;0,0109691
2672,8552;0,010975
2673,8193;0,0109776
2674,7837;0,0109827
2675,7478;0,0109945
2676,7122;0,011013
2677,6763;0,0110341
2678,6406;0,0110527
2679,6047;0,011066
2680,5691;0,0110752
2681,5332;0,0110846
2682,4976;0,0110986
2683,4617;0,0111195
2684,4260;0,0111464
2685,3901;0,0111761
2686,3545;0,0112045
2687,3186;0,0112287
2688,2830;0,0112476
2689,2471;0,0112613
2690,2114;0,011271
2691,1755;0,0112776
2692,1399;0,0112819
2693,1040;0,0112844
2694,0684;0,0112862
2695,0325;0,0112886
2695,9968;0,0112938
2696,9609;0,0113037
2697,9253;0,0113189
2698,8894;0,0113386
2699,8538;0,011361
2700,8179;0,0113838
2701,7822;0,0114053
2702,7463;0,0114249
2703,7107;0,0114426
2704,6748;0,0114595
2705,6392;0,0114773
2706,6033;0,0114982
2707,5676;0,0115238
2708,5317;0,0115537
2709,4961;0,0115845
2710,4602;0,0116108
2711,4246;0,011628
2712,3887;0,0116348
2713,3530;0,0116348
2714,3171;0,0116352
2715,2815;0,011643
2716,2456;0,0116612
2717,2100;0,0116875
2718,1741;0,0117157
2719,1384;0,0117395
2720,1025;0,0117555
2721,0669;0,0117646
2722,0310;0,0117705
2722,9954;0,0117779
2723,9595;0,0117903
2724,9238;0,0118091
2725,8879;0,0118333
2726,8523;0,0118605
2727,8164;0,0118872
2728,7808;0,0119102
2729,7449;0,0119276
2730,7092;0,0119402
2731,6733;0,0119506
2732,6377;0,0119622
2733,6018;0,0119763
2734,5662;0,0119916
2735,5303;0,0120046
2736,4946;0,0120125
2737,4587;0,0120155
2738,4231;0,0120178
2739,3872;0,0120247
2740,3516;0,0120394
2741,3157;0,0120607
2742,2800;0,0120828
2743,2441;0,012099
2744,2085;0,012105
2745,1726;0,0121013
2746,1370;0,0120922
2747,1011;0,0120835
2748,0654;0,01208
2749,0295;0,0120841
2749,9939;0,012096
2750,9580;0,0121149
2751,9224;0,012139
2752,8865;0,0121666
2753,8508;0,0121956
2754,8149;0,0122241
2755,7793;0,0122504
2756,7434;0,0122728
2757,7078;0,0122899
2758,6719;0,0123004
2759,6362;0,0123042
2760,6003;0,0123035
2761,5647;0,0123025
2762,5288;0,0123066
2763,4932;0,0123201
2764,4573;0,0123444
2765,4216;0,0123781
2766,3857;0,0124186
2767,3501;0,0124629
2768,3142;0,0125082
2769,2786;0,012551
2770,2427;0,0125866
2771,2070;0,0126095
2772,1711;0,0126166
2773,1355;0,0126098
2774,0996;0,0125971
2775,0640;0,0125898
2776,0281;0,0125982
2776,9924;0,0126272
2777,9565;0,0126746
2778,9209;0,012733
2779,8850;0,0127934
2780,8494;0,0128491
2781,8135;0,0128967
2782,7778;0,012936
2783,7419;0,0129681
2784,7063;0,0129948
2785,6704;0,0130175
2786,6348;0,0130381
2787,5989;0,0130588
2788,5632;0,0130817
2789,5273;0,0131079
2790,4917;0,0131378
2791,4558;0,0131701
2792,4202;0,0132034
2793,3843;0,0132362
2794,3486;0,0132677
2795,3127;0,0132979
2796,2771;0,0133275
2797,2412;0,0133579
2798,2056;0,0133903
2799,1697;0,0134263
2800,1340;0,0134669
2801,0981;0,0135127
2802,0625;0,0135635
2803,0266;0,0136184
2803,9910;0,0136757
2804,9551;0,013733
2805,9194;0,0137888
2806,8835;0,0138425
2807,8479;0,0138952
2808,8120;0,0139485
2809,7764;0,0140033
2810,7405;0,0140594
2811,7048;0,0141159
2812,6689;0,0141731
2813,6333;0,0142331
2814,5974;0,0142991
2815,5618;0,0143731
2816,5259;0,0144534
2817,4902;0,0145341
2818,4543;0,0146079
2819,4187;0,0146704
2820,3828;0,0147234
2821,3472;0,0147742
2822,3113;0,0148326
2823,2756;0,0149059
2824,2397;0,0149955
2825,2041;0,0150969
2826,1682;0,015203
2827,1326;0,0153083
2828,0967;0,0154117
2829,0610;0,0155166
2830,0251;0,015628
2830,9895;0,0157492
2831,9536;0,0158783
2832,9180;0,0160093
2833,8821;0,0161348
2834,8464;0,0162506
2835,8105;0,0163598
2836,7749;0,0164724
2837,7390;0,0166023
2838,7034;0,0167616
2839,6675;0,0169559
2840,6318;0,0171836
2841,5959;0,0174383
2842,5603;0,0177135
2843,5244;0,0180043
2844,4888;0,0183066
2845,4529;0,0186123
2846,4172;0,0189059
2847,3813;0,0191655
2848,3457;0,0193677
2849,3098;0,0194973
2850,2742;0,0195527
2851,2383;0,0195465
2852,2026;0,0194998
2853,1667;0,0194331
2854,1311;0,0193602
2855,0952;0,0192866
2856,0596;0,0192129
2857,0237;0,0191398
2857,9880;0,0190706
2858,9521;0,0190113
2859,9165;0,0189683
2860,8806;0,0189467
2861,8450;0,0189486
2862,8091;0,0189735
2863,7734;0,0190183
2864,7375;0,0190782
2865,7019;0,0191468
2866,6660;0,0192176
2867,6304;0,0192845
2868,5945;0,0193429
2869,5588;0,0193895
2870,5229;0,0194237
2871,4873;0,0194473
2872,4514;0,0194655
2873,4158;0,0194848
2874,3799;0,0195109
2875,3442;0,0195453
2876,3083;0,019584
2877,2727;0,0196201
2878,2368;0,0196477
2879,2012;0,0196657
2880,1653;0,0196787
2881,1296;0,0196948
2882,0938;0,0197211
2883,0581;0,0197608
2884,0222;0,0198135
2884,9866;0,0198769
2885,9507;0,0199489
2886,9150;0,0200278
2887,8792;0,0201111
2888,8435;0,0201947
2889,8076;0,0202727
2890,7720;0,0203401
2891,7361;0,0203951
2892,7004;0,0204403
2893,6646;0,0204817
2894,6289;0,0205258
2895,5930;0,020577
2896,5574;0,0206357
2897,5215;0,0206989
2898,4858;0,0207613
2899,4500;0,0208181
2900,4143;0,020867
2901,3784;0,0209093
2902,3428;0,0209506
2903,3069;0,0209983
2904,2712;0,0210595
2905,2354;0,021138
2906,1997;0,0212332
2907,1638;0,0213423
2908,1282;0,0214624
2909,0923;0,0215937
2910,0566;0,0217396
2911,0208;0,0219033
2911,9851;0,0220834
2912,9492;0,0222701
2913,9136;0,0224457
2914,8777;0,0225894
2915,8420;0,0226844
2916,8062;0,0227233
2917,7705;0,0227095
2918,7346;0,0226533
2919,6990;0,0225662
2920,6631;0,0224561
2921,6274;0,0223267
2922,5916;0,0221795
2923,5559;0,0220174
2924,5200;0,0218455
2925,4844;0,0216691
2926,4485;0,0214916
2927,4128;0,0213133
2928,3770;0,0211327
2929,3413;0,0209503
2930,3054;0,0207693
2931,2698;0,0205946
2932,2339;0,0204302
2933,1982;0,0202766
2934,1624;0,020131
2935,1267;0,0199899
2936,0908;0,0198513
2937,0552;0,0197148
2938,0193;0,0195808
2938,9836;0,0194476
2939,9478;0,0193119
2940,9121;0,0191703
2941,8762;0,0190212
2942,8406;0,0188663
2943,8047;0,0187092
2944,7690;0,0185536
2945,7332;0,0184028
2946,6975;0,0182597
2947,6616;0,0181284
2948,6260;0,0180144
2949,5901;0,017923
2950,5544;0,0178562
2951,5186;0,0178103
2952,4829;0,0177758
2953,4470;0,0177394
2954,4114;0,0176891
2955,3755;0,0176177
2956,3398;0,0175249
2957,3040;0,0174167
2958,2683;0,0173021
2959,2324;0,01719
2960,1968;0,0170864
2961,1609;0,0169937
2962,1252;0,0169114
2963,0894;0,0168369
2964,0537;0,0167662
2965,0178;0,0166953
2965,9822;0,0166199
2966,9463;0,016537
2967,9106;0,0164453
2968,8748;0,0163459
2969,8391;0,0162424
2970,8032;0,0161398
2971,7676;0,0160429
2972,7317;0,0159552
2973,6960;0,0158771
2974,6602;0,0158068
2975,6245;0,0157412
2976,5886;0,0156779
2977,5530;0,015616
2978,5171;0,0155568
2979,4814;0,015502
2980,4456;0,015453
2981,4099;0,0154105
2982,3740;0,0153747
2983,3384;0,015346
2984,3025;0,0153248
2985,2668;0,0153105
2986,2310;0,0153007
2987,1953;0,0152924
2988,1594;0,0152838
2989,1238;0,015276
2990,0879;0,0152724
2991,0522;0,0152756
2992,0164;0,0152847
2992,9807;0,0152945
2993,9448;0,0152987
2994,9092;0,0152942
2995,8733;0,0152848
2996,8376;0,0152798
2997,8018;0,0152895
2998,7661;0,0153185
2999,7302;0,0153638
3000,6946;0,0154156
3001,6587;0,0154631
3002,6230;0,0154998
3003,5872;0,015527
3004,5515;0,0155523
3005,5156;0,0155854
3006,4800;0,0156331
3007,4441;0,0156958
3008,4084;0,015768
3009,3726;0,0158409
3010,3369;0,0159058
3011,3010;0,0159567
3012,2654;0,0159918
3013,2295;0,016013
3014,1938;0,0160252
3015,1580;0,0160346
3016,1223;0,016048
3017,0864;0,0160705
3018,0508;0,0161043
3019,0149;0,016148
3019,9792;0,0161975
3020,9434;0,0162482
3021,9077;0,016297
3022,8718;0,0163441
3023,8362;0,0163931
3024,8003;0,0164497
3025,7646;0,0165202
3026,7288;0,0166082
3027,6931;0,016712
3028,6572;0,0168232
3029,6216;0,016928
3030,5857;0,0170119
3031,5500;0,0170669
3032,5142;0,0170958
3033,4785;0,0171109
3034,4426;0,0171278
3035,4070;0,0171566
3036,3711;0,0171985
3037,3354;0,017247
3038,2996;0,017294
3039,2639;0,0173353
3040,2280;0,0173733
3041,1924;0,017415
3042,1565;0,0174679
3043,1208;0,0175365
3044,0850;0,0176208
3045,0493;0,017716
3046,0134;0,017814
3046,9778;0,0179057
3047,9419;0,0179836
3048,9063;0,0180456
3049,8704;0,0180959
3050,8347;0,0181435
3051,7988;0,0181985
3052,7632;0,018267
3053,7273;0,0183489
3054,6917;0,0184381
3055,6558;0,0185258
3056,6201;0,018605
3057,5842;0,018674
3058,5486;0,0187367
3059,5127;0,0188008
3060,4771;0,0188741
3061,4412;0,0189599
3062,4055;0,0190542
3063,3696;0,0191463
3064,3340;0,0192227
3065,2981;0,0192737
3066,2625;0,0192994
3067,2266;0,0193101
3068,1909;0,0193228
3069,1550;0,0193526
3070,1194;0,0194068
3071,0835;0,019483
3072,0479;0,0195724
3073,0120;0,0196657
3073,9763;0,019758
3074,9404;0,0198494
3075,9048;0,0199417
3076,8689;0,0200346
3077,8333;0,020123
3078,7974;0,0201991
3079,7617;0,0202572
3080,7258;0,020297
3081,6902;0,0203244
3082,6543;0,0203486
3083,6187;0,0203773
3084,5828;0,0204144
3085,5471;0,0204602
3086,5112;0,0205143
3087,4756;0,0205771
3088,4397;0,0206497
3089,4041;0,0207318
3090,3682;0,0208202
3091,3325;0,0209091
3092,2966;0,0209926
3093,2610;0,0210682
3094,2251;0,0211381
3095,1895;0,0212078
3096,1536;0,0212826
3097,1179;0,0213646
3098,0820;0,0214521
3099,0464;0,0215406
3100,0105;0,0216265
3100,9749;0,0217079
3101,9390;0,0217855
3102,9033;0,0218606
3103,8674;0,0219331
3104,8318;0,0220013
3105,7959;0,0220629
3106,7603;0,0221177
3107,7244;0,0221695
3108,6887;0,0222258
3109,6528;0,0222948
3110,6172;0,0223817
3111,5813;0,022485
3112,5457;0,0225965
3113,5098;0,0227048
3114,4741;0,0228001
3115,4382;0,0228782
3116,4026;0,0229414
3117,3667;0,0229957
3118,3311;0,0230469
3119,2952;0,023098
3120,2595;0,0231499
3121,2236;0,0232035
3122,1880;0,0232616
3123,1521;0,0233275
3124,1165;0,0234029
3125,0806;0,0234857
3126,0449;0,0235712
3127,0090;0,0236548
3127,9734;0,0237353
3128,9375;0,0238151
3129,9019;0,0238977
3130,8660;0,0239849
3131,8303;0,0240749
3132,7944;0,0241636
3133,7588;0,0242478
3134,7229;0,0243268
3135,6873;0,0244026
3136,6514;0,0244774
3137,6157;0,0245515
3138,5798;0,0246227
3139,5442;0,0246877
3140,5083;0,0247444
3141,4727;0,0247951
3142,4368;0,0248462
3143,4011;0,0249069
3144,3652;0,0249852
3145,3296;0,0250835
3146,2937;0,0251972
3147,2581;0,0253159
3148,2222;0,0254287
3149,1865;0,0255293
3150,1506;0,0256174
3151,1150;0,0256978
3152,0791;0,0257764
3153,0435;0,0258566
3154,0076;0,0259393
3154,9719;0,0260239
3155,9360;0,0261098
3156,9004;0,0261965
3157,8645;0,0262828
3158,8289;0,0263666
3159,7930;0,0264476
3160,7573;0,0265283
3161,7214;0,026614
3162,6858;0,0267096
3163,6499;0,0268156
3164,6143;0,0269268
3165,5784;0,027035
3166,5427;0,0271338
3167,5068;0,0272215
3168,4712;0,0273013
3169,4353;0,0272319
3170,3997;0,0273105
3171,3638;0,0273926
3172,3281;0,0274781
3173,2922;0,0275678
3174,2566;0,0276638
3175,2207;0,0277671
3176,1851;0,0278755
3177,1492;0,0279837
3178,1135;0,0280855
3179,0776;0,0281773
3180,0420;0,0282605
3181,0061;0,0283399
3181,9705;0,0284204
3182,9346;0,0285038
3183,8989;0,028588
3184,8630;0,0286688
3185,8274;0,0287426
3186,7915;0,0288101
3187,7559;0,0288759
3188,7200;0,0289473
3189,6843;0,0290312
3190,6484;0,0291306
3191,6128;0,029243
3192,5769;0,0293602
3193,5413;0,0294714
3194,5054;0,0295667
3195,4697;0,0296422
3196,4338;0,0297019
3197,3982;0,0297559
3198,3623;0,0298158
3199,3267;0,0298882
3200,2908;0,0299714
3201,2551;0,0300573
3202,2192;0,0301373
3203,1836;0,0302074
3204,1477;0,0302706
3205,1121;0,0303342
3206,0762;0,0304043
3207,0405;0,030483
3208,0046;0,0305683
3208,9690;0,0306563
3209,9331;0,0307439
3210,8975;0,0308292
3211,8616;0,0309101
3212,8259;0,0309838
3213,7900;0,0310486
3214,7544;0,0311064
3215,7185;0,031163
3216,6829;0,0312263
3217,6470;0,0313014
3218,6113;0,0313872
3219,5754;0,0314771
3220,5398;0,0315627
3221,5039;0,0316384
3222,4683;0,0317044
3223,4324;0,0317647
3224,3967;0,0318246
3225,3608;0,0318879
3226,3252;0,031957
3227,2893;0,0320332
3228,2537;0,0321172
3229,2178;0,0322083
3230,1821;0,0323029
3231,1462;0,0323948
3232,1106;0,0324765
3233,0747;0,0325429
3234,0391;0,0325936
3235,0032;0,0326337
3235,9675;0,0326723
3236,9316;0,0327199
3237,8960;0,0327852
3238,8601;0,0328731
3239,8245;0,0329829
3240,7886;0,0331079
3241,7529;0,0332365
3242,7170;0,033355
3243,6814;0,0334515
3244,6455;0,0335207
3245,6099;0,0335672
3246,5740;0,0336046
3247,5383;0,0336505
3248,5024;0,0337201
3249,4668;0,0338203
3250,4309;0,0339475
3251,3953;0,0340894
3252,3594;0,0342301
3253,3237;0,0343565
3254,2878;0,0344631
3255,2522;0,0345536
3256,2163;0,0346365
3257,1807;0,0347198
3258,1448;0,0348059
3259,1091;0,0348909
3260,0732;0,034969
3261,0376;0,035037
3262,0017;0,0350977
3262,9661;0,0351586
3263,9302;0,0352266
3264,8945;0,0353042
3265,8586;0,0353878
3266,8230;0,0354707
3267,7871;0,0355483
3268,7515;0,0356201
3269,7156;0,0356888
3270,6799;0,0357567
3271,6440;0,0358224
3272,6084;0,0358803
3273,5725;0,0359243
3274,5369;0,0359511
3275,5010;0,0359623
3276,4653;0,0359637
3277,4294;0,0359614
3278,3938;0,0359602
3279,3579;0,0359623
3280,3223;0,0359688
3281,2864;0,0359796
3282,2507;0,0359939
3283,2148;0,0360089
3284,1792;0,0360199
3285,1433;0,0360223
3286,1077;0,0360141
3287,0718;0,0359975
3288,0361;0,0359788
3289,0002;0,0359647
3289,9646;0,0359589
3290,9287;0,0359596
3291,8931;0,0359607
3292,8572;0,0359552
3293,8215;0,0359393
3294,7856;0,0359139
3295,7500;0,0358837
3296,7141;0,0358539
3297,6785;0,0358276
3298,6426;0,0358044
3299,6069;0,035781
3300,5710;0,0357545
3301,5354;0,0357244
3302,4995;0,0356946
3303,4639;0,0356707
3304,4280;0,0356576
3305,3923;0,035655
3306,3564;0,0356569
3307,3208;0,0356529
3308,2849;0,0356342
3309,2493;0,0355981
3310,2134;0,0355505
3311,1777;0,0355032
3312,1418;0,0354686
3313,1062;0,0354536
3314,0703;0,0354581
3315,0347;0,0354759
3315,9988;0,0354993
3316,9631;0,0355234
3317,9272;0,0355475
3318,8916;0,0355744
3319,8557;0,035608
3320,8201;0,0356508
3321,7842;0,0357029
3322,7485;0,0357618
3323,7126;0,0358233
3324,6770;0,035882
3325,6411;0,0359334
3326,6055;0,0359745
3327,5696;0,0360058
3328,5339;0,0360321
3329,4980;0,0360607
3330,4624;0,0360974
3331,4265;0,0361422
3332,3909;0,0361864
3333,3550;0,0362141
3334,3193;0,0362082
3335,2834;0,0361587
3336,2478;0,0360689
3337,2119;0,035956
3338,1763;0,0358434
3339,1404;0,0357497
3340,1047;0,0356805
3341,0688;0,0356264
3342,0332;0,0355691
3342,9973;0,0354916
3343,9617;0,0353861
3344,9258;0,0352562
3345,8901;0,0351133
3346,8542;0,0349698
3347,8186;0,0348344
3348,7827;0,0347106
3349,7471;0,0345983
3350,7112;0,0344964
3351,6755;0,0344031
3352,6396;0,0343153
3353,6040;0,0342282
3354,5681;0,0341361
3355,5325;0,0340353
3356,4966;0,0339256
3357,4609;0,0338102
3358,4250;0,0336932
3359,3894;0,0335777
3360,3535;0,0334651
3361,3179;0,033356
3362,2820;0,0332509
3363,2463;0,03315
3364,2104;0,0330515
3365,1748;0,0329513
3366,1389;0,0328449
3367,1033;0,0327304
3368,0674;0,032611
3369,0317;0,0324945
3369,9958;0,0323879
3370,9602;0,0322927
3371,9243;0,0322036
3372,8887;0,0321109
3373,8528;0,032007
3374,8171;0,0318911
3375,7813;0,0317695
3376,7456;0,0316515
3377,7097;0,0315439
3378,6741;0,0314479
3379,6382;0,0313602
3380,6025;0,0312759
3381,5667;0,0311916
3382,5310;0,0311054
3383,4951;0,0310155
3384,4595;0,0309201
3385,4236;0,0308181
3386,3879;0,030712
3387,3521;0,0306081
3388,3164;0,0305135
3389,2805;0,0304323
3390,2449;0,0303619
3391,2090;0,030294
3392,1733;0,0302182
3393,1375;0,0301282
3394,1018;0,030024
3395,0659;0,0299099
3396,0303;0,0297907
3396,9944;0,0296693
3397,9587;0,0295472
3398,9229;0,0294265
3399,8872;0,0293099
3400,8513;0,0292
3401,8157;0,0290965
3402,7798;0,0289959
3403,7441;0,0288931
3404,7083;0,0287848
3405,6726;0,0286714
3406,6367;0,028556
3407,6011;0,028442
3408,5652;0,0283295
3409,5295;0,0282151
3410,4937;0,0280946
3411,4580;0,0279658
3412,4221;0,0278314
3413,3865;0,0276978
3414,3506;0,0275714
3415,3149;0,027455
3416,2791;0,0273469
3417,2434;0,0272403
3418,2075;0,0271273
3419,1719;0,027001
3420,1360;0,0268588
3421,1003;0,0267033
3422,0645;0,0265401
3423,0288;0,0263757
3423,9929;0,0262152
3424,9573;0,0260623
3425,9214;0,0259195
3426,8857;0,0257881
3427,8499;0,0256662
3428,8142;0,0255481
3429,7783;0,0254255
3430,7427;0,0252909
3431,7068;0,0251416
3432,6711;0,0249809
3433,6353;0,0248171
3434,5996;0,0246592
3435,5637;0,0245127
3436,5281;0,0243783
3437,4922;0,0242534
3438,4565;0,0241353
3439,4207;0,024024
3440,3850;0,0239209
3441,3491;0,0238269
3442,3135;0,0237385
3443,2776;0,0236466
3444,2419;0,0235391
3445,2061;0,0234047
3446,1704;0,0232382
3447,1345;0,0230447
3448,0989;0,0228384
3449,0630;0,0226367
3450,0273;0,0224521
3450,9915;0,0222898
3451,9558;0,0221476
3452,9199;0,0220191
3453,8843;0,021896
3454,8484;0,0217709
3455,8127;0,0216402
3456,7769;0,0215059
3457,7412;0,0213736
3458,7053;0,0212482
3459,6697;0,0211295
3460,6338;0,0210112
3461,5981;0,0208842
3462,5623;0,0207424
3463,5266;0,0205865
3464,4907;0,0204237
3465,4551;0,0202634
3466,4192;0,0201129
3467,3835;0,0199748
3468,3477;0,0198478
3469,3120;0,0197279
3470,2761;0,0196099
3471,2405;0,0194876
3472,2046;0,0193565
3473,1689;0,0192163
3474,1331;0,0190738
3475,0974;0,018942
3476,0615;0,0188339
3477,0259;0,0187539
3477,9900;0,0186927
3478,9543;0,0186296
3479,9185;0,0185414
3480,8828;0,0184148
3481,8469;0,0182548
3482,8113;0,0180825
3483,7754;0,0179213
3484,7397;0,0177826
3485,7039;0,0176607
3486,6682;0,0175382
3487,6323;0,017398
3488,5967;0,0172344
3489,5608;0,0170584
3490,5251;0,0168919
3491,4893;0,0167556
3492,4536;0,0166587
3493,4177;0,0165953
3494,3821;0,0165476
3495,3462;0,0164972
3496,3105;0,0164357
3497,2747;0,01637
3498,2390;0,0163134
3499,2031;0,0162735
3500,1675;0,0162413
3501,1316;0,016191
3502,0959;0,0160926
3503,0601;0,0159348
3504,0244;0,0157386
3504,9885;0,0155443
3505,9529;0,0153849
3506,9170;0,0152683
3507,8813;0,0151777
3508,8455;0,0150826
3509,8098;0,0149568
3510,7739;0,0147938
3511,7383;0,0146088
3512,7024;0,0144266
3513,6667;0,0142676
3514,6309;0,014142
3515,5952;0,0140504
3516,5593;0,0139888
3517,5237;0,0139511
3518,4878;0,0139325
3519,4521;0,0139298
3520,4163;0,0139399
3521,3806;0,0139573
3522,3447;0,0139723
3523,3091;0,013971
3524,2732;0,0139381
3525,2375;0,0138589
3526,2017;0,0137224
3527,1660;0,0135252
3528,1301;0,0132773
3529,0945;0,0130048
3530,0586;0,0127442
3531,0229;0,0125268
3531,9871;0,0123679
3532,9514;0,0122634
3533,9155;0,0121934
3534,8799;0,0121305
3535,8440;0,0120511
3536,8083;0,0119489
3537,7725;0,0118407
3538,7368;0,0117577
3539,7009;0,0117274
3540,6653;0,0117603
3541,6294;0,0118439
3542,5938;0,0119412
3543,5579;0,0119953
3544,5222;0,0119497
3545,4863;0,0117847
3546,4507;0,0115387
3547,4148;0,0112845
3548,3792;0,0110802
3549,3433;0,0109407
3550,3076;0,0108435
3551,2717;0,0107488
3552,2361;0,0106236
3553,2002;0,0104604
3554,1646;0,0102801
3555,1287;0,0101148
3556,0930;0,00998933
3557,0571;0,00991775
3558,0215;0,00990786
3558,9856;0,009963
3559,9500;0,0100786
3560,9141;0,0102389
3561,8784;0,0104172
3562,8425;0,0105818
3563,8069;0,0106955
3564,7710;0,0107037
3565,7354;0,010533
3566,6995;0,0101543
3567,6638;0,00966603
3568,6279;0,00924181
3569,5923;0,00897769
3570,5564;0,00884738
3571,5208;0,00877556
3572,4849;0,00870886
3573,4492;0,00863396
3574,4133;0,00856114
3575,3777;0,00850264
3576,3418;0,00846263
3577,3062;0,00844038
3578,2703;0,0084384
3579,2346;0,00846506
3580,1987;0,00852708
3581,1631;0,00861784
3582,1272;0,00871397
3583,0916;0,00878585
3584,0557;0,00881228
3585,0200;0,00878184
3585,9841;0,008685
3586,9485;0,00853292
3587,9126;0,0083975
3588,8770;0,00837922
3589,8411;0,00850949
3590,8054;0,00872615
3591,7695;0,0089355
3592,7339;0,00906943
3593,6980;0,00910396
3594,6624;0,00905838
3595,6265;0,00898263
3596,5908;0,00892396
3597,5549;0,00889269
3598,5193;0,00885974
3599,4834;0,00878551
3600,4478;0,0086537
3601,4119;0,00848273
3602,3762;0,00830417
3603,3403;0,00813222
3604,3047;0,00795588
3605,2688;0,00775118
3606,2332;0,00749443
3607,1973;0,00717694
3608,1616;0,00682697
3609,1257;0,00651571
3610,0901;0,00632357
3611,0542;0,00629254
3612,0186;0,00640478
3612,9827;0,00659357
3613,9470;0,00677337
3614,9111;0,00687467
3615,8755;0,00686904
3616,8396;0,00677567
3617,8040;0,00665116
3618,7681;0,00657218
3619,7324;0,00661473
3620,6965;0,00681752
3621,6609;0,00713957
3622,6250;0,0074644
3623,5894;0,00766052
3624,5535;0,00764861
3625,5178;0,00743279
3626,4819;0,00708057
3627,4463;0,00666358
3628,4104;0,00623744
3629,3748;0,00589779
3630,3389;0,00573893
3631,3032;0,00572317
3632,2673;0,00570855
3633,2317;0,00558116
3634,1958;0,00532363
3635,1602;0,00499724
3636,1243;0,00468365
3637,0886;0,00443337
3638,0527;0,00425345
3639,0171;0,00413131
3639,9812;0,00406222
3640,9456;0,00405192
3641,9097;0,00409636
3642,8740;0,00416554
3643,8381;0,00421553
3644,8025;0,00422353
3645,7666;0,00420913
3646,7310;0,00418864
3647,6951;0,00406449
3648,6594;0,0036643
3649,6235;0,00306492
3650,5879;0,00259275
3651,5520;0,00238632
3652,5164;0,00231539
3653,4805;0,00221222
3654,4448;0,00201425
3655,4089;0,00176782
3656,3733;0,0015674
3657,3374;0,00148303
3658,3018;0,00151488
3659,2659;0,0016059
3660,2302;0,00169883
3661,1943;0,00178052
3662,1587;0,00187478
3663,1228;0,00199864
3664,0872;0,00212889
3665,0513;0,00221907
3666,0156;0,00224682
3666,9797;0,00224681
3667,9441;0,00228315
3668,9082;0,00237768
3669,8726;0,00248461
3670,8367;0,00254267
3671,8010;0,00251685
3672,7651;0,00240797
3673,7295;0,00225682
3674,6936;0,00211972
3675,6580;0,00203897
3676,6221;0,00205138
3677,5864;0,00216952
3678,5505;0,00234356
3679,5149;0,00250402
3680,4790;0,00262924
3681,4434;0,00274798
3682,4075;0,00288865
3683,3718;0,00303674
3684,3359;0,00314441
3685,3003;0,00318259
3686,2644;0,00318552
3687,2288;0,00323452
3688,1929;0,00337588
3689,1572;0,00356969
3690,1213;0,00376233
3691,0857;0,00395255
3692,0498;0,00414642
3693,0142;0,00432489
3693,9783;0,00446587
3694,9426;0,00455977
3695,9067;0,0046035
3696,8711;0,00459483
3697,8352;0,00453975
3698,7996;0,00446448
3699,7637;0,00441502
3700,7280;0,00443729
3701,6921;0,0045518
3702,6565;0,00474336
3703,6206;0,00496876
3704,5850;0,00517252
3705,5491;0,00530739
3706,5134;0,00535176
3707,4775;0,00530714
3708,4419;0,0051636
3709,4060;0,00485683
3710,3704;0,00430844
3711,3345;0,00358818
3712,2988;0,00295931
3713,2629;0,00265246
3714,2273;0,00269209
3715,1914;0,00296401
3716,1558;0,00334727
3717,1199;0,00377654
3718,0842;0,00423705
3719,0483;0,00473081
3720,0127;0,00524729
3720,9768;0,00575613
3721,9412;0,00621805
3722,9053;0,00659822
3723,8696;0,0068732
3724,8337;0,00703514
3725,7981;0,00709266
3726,7622;0,00706099
3727,7266;0,00694855
3728,6907;0,00675956
3729,6550;0,0065135
3730,6191;0,00625846
3731,5835;0,00605398
3732,5476;0,00591774
3733,5120;0,00577525
3734,4761;0,00551086
3735,4404;0,00513106
3736,4045;0,00480146
3737,3689;0,00464137
3738,3330;0,0045771
3739,2974;0,00441785
3740,2615;0,00400617
3741,2258;0,00331967
3742,1899;0,00250737
3743,1543;0,00184348
3744,1184;0,00157623
3745,0828;0,00174838
3746,0469;0,00216477
3747,0112;0,00254325
3747,9753;0,00268415
3748,9397;0,00253219
3749,9038;0,00215872
3750,8682;0,00174687
3751,8323;0,00153522
3752,7966;0,00163028
3753,7607;0,00191405
3754,7251;0,00218431
3755,6892;0,0023098
3756,6536;0,0022693
3757,6177;0,00211783
3758,5820;0,00194121
3759,5461;0,00181942
3760,5105;0,00179248
3761,4746;0,00184467
3762,4390;0,00192581
3763,4031;0,00198731
3764,3674;0,00200182
3765,3315;0,00196326
3766,2959;0,00187946
3767,2600;0,00176516
3768,2244;0,00163741
3769,1885;0,00151521
3770,1528;0,00142331
3771,1169;0,00138774
3772,0813;0,00141824
3773,0454;0,00149424
3774,0098;0,0015756
3774,9739;0,00162942
3775,9382;0,00164862
3776,9023;0,00164779
3777,8667;0,0016461
3778,8308;0,00166037
3779,7952;0,00170734
3780,7593;0,00179457
3781,7236;0,00190516
3782,6877;0,00200024
3783,6521;0,00203821
3784,6162;0,0019961
3785,5806;0,00188383
3786,5447;0,00174148
3787,5090;0,00161805
3788,4731;0,00154432
3789,4375;0,00152044
3790,4016;0,00152675
3791,3660;0,00154843
3792,3301;0,00159523
3793,2944;0,00169937
3794,2585;0,00188783
3795,2229;0,00214761
3796,1870;0,00241666
3797,1514;0,00261461
3798,1155;0,00268883
3799,0798;0,00263806
3800,0439;0,00250089
3801,0083;0,00232877
3801,9724;0,00216199
3802,9368;0,00200362
3803,9009;0,00181395
3804,8652;0,00155599
3805,8293;0,00125788
3806,7937;0,00102599
3807,7578;0,000980977
3808,7222;0,00115475
3809,6863;0,00144891
3810,6506;0,00170601
3811,6147;0,0018225
3812,5791;0,00181257
3813,5432;0,00179076
3814,5076;0,00188379
3815,4717;0,00212778
3816,4360;0,00244048
3817,4001;0,00268708
3818,3645;0,00276264
3819,3286;0,00263633
3820,2930;0,00236724
3821,2571;0,00209159
3822,2214;0,00194617
3823,1855;0,00196606
3824,1499;0,00207476
3825,1140;0,00216746
3826,0784;0,00218655
3827,0425;0,00214061
3828,0068;0,00208098
3828,9709;0,00206365
3829,9353;0,00211855
3830,8994;0,00223844
3831,8638;0,00238739
3832,8279;0,00252098
3833,7922;0,00260818
3834,7563;0,00264412
3835,7207;0,00264409
3836,6848;0,00262132
3837,6492;0,00257076
3838,6133;0,00248292
3839,5776;0,00236532
3840,5417;0,00223598
3841,5061;0,00210762
3842,4702;0,00199633
3843,4346;0,00193748
3844,3987;0,00197613
3845,3630;0,00213008
3846,3271;0,00235726
3847,2915;0,00255976
3848,2556;0,00262543
3849,2200;0,00248157
3850,1841;0,0021324
3851,1484;0,00165251
3852,1125;0,00113268
3853,0769;0,000682853
3854,0410;0,000511541
3855,0054;0,000758651
3855,9695;0,00128215
3856,9338;0,00181118
3857,8979;0,00216479
3858,8623;0,00231028
3859,8264;0,00232379
3860,7908;0,00231969
3861,7549;0,00237421
3862,7192;0,0024796
3863,6833;0,00257016
3864,6477;0,00259227
3865,6118;0,00254023
3866,5762;0,00244342
3867,5403;0,00234406
3868,5046;0,00227712
3869,4688;0,00224977
3870,4331;0,00223662
3871,3972;0,00220403
3872,3616;0,00213895
3873,3257;0,00205097
3874,2900;0,00195531
3875,2542;0,00186384
3876,2185;0,00179181
3877,1826;0,00176586
3878,1470;0,00181687
3879,1111;0,00195273
3880,0754;0,00213293
3881,0396;0,00227819
3882,0039;0,00231461
3882,9680;0,0022154
3883,9324;0,00201454
3884,8965;0,00179121
3885,8608;0,00162905
3886,8250;0,00156799
3887,7893;0,00158775
3888,7534;0,00163913
3889,7178;0,0016885
3890,6819;0,00173514
3891,6462;0,00180064
3892,6104;0,00190759
3893,5747;0,00205355
3894,5388;0,00220055
3895,5032;0,00230297
3896,4673;0,00234608
3897,4316;0,00235259
3898,3958;0,00235278
3899,3601;0,00235241
3900,3242;0,00233054
3901,2886;0,00226296
3902,2527;0,00213984
3903,2170;0,00197174
3904,1812;0,00179037
3905,1455;0,00163441
3906,1096;0,00152361
3907,0740;0,00145055
3908,0381;0,00139898
3909,0024;0,00136442
3909,9666;0,00135689
3910,9309;0,00138805
3911,8950;0,00145742
3912,8594;0,00154966
3913,8235;0,00164265
3914,7878;0,00171741
3915,7520;0,0017635
3916,7163;0,00178268
3917,6804;0,00179271
3918,6448;0,00182116
3919,6089;0,00188482
3920,5732;0,00197332
3921,5374;0,00205541
3922,5017;0,00209882
3923,4658;0,00208925
3924,4302;0,00204139
3925,3943;0,00199329
3926,3586;0,00198179
3927,3228;0,00201797
3928,2871;0,00208248
3929,2512;0,00213687
3930,2156;0,00213932
3931,1797;0,00206461
3932,1440;0,00192419
3933,1082;0,00176473
3934,0725;0,00163801
3935,0366;0,00157107
3936,0010;0,00156158
3936,9651;0,0015915
3937,9294;0,00164101
3938,8936;0,001695
3939,8579;0,00174311
3940,8220;0,00177841
3941,7864;0,00179867
3942,7505;0,00180934
3943,7148;0,00182223
3944,6790;0,00184621
3945,6433;0,00187925
3946,6074;0,0019079
3947,5718;0,00191307
3948,5359;0,00187944
3949,5002;0,001806
3950,4644;0,00170976
3951,4287;0,00161682
3952,3928;0,0015482
3953,3572;0,00151214
3954,3213;0,00150486
3955,2856;0,00151499
3956,2498;0,00152893
3957,2141;0,00153634
3958,1782;0,00153342
3959,1426;0,00152247
3960,1067;0,00150808
3961,0710;0,00149311
3962,0352;0,00147738
3962,9995;0,00145956
3963,9636;0,00144009
3964,9280;0,00142312
3965,8921;0,00141483
3966,8564;0,0014204
3967,8206;0,00144057
3968,7849;0,0014702
3969,7490;0,00149992
3970,7134;0,00151979
3971,6775;0,00152272
3972,6418;0,00150627
3973,6060;0,00147283
3974,5703;0,00142895
3975,5344;0,00138403
3976,4988;0,00134819
3977,4629;0,00132939
3978,4272;0,00133072
3979,3914;0,00134879
3980,3557;0,00137432
3981,3198;0,00139501
3982,2842;0,00140049
3983,2483;0,00138704
3984,2126;0,00135945
3985,1768;0,00132876
3986,1411;0,00130694
3987,1052;0,00130146
3988,0696;0,00131201
3989,0337;0,00133163
3989,9980;0,0013504
3990,9622;0,00136065
3991,9265;0,00136004
3992,8906;0,00135112
3993,8550;0,00133814
3994,8191;0,0013238
3995,7834;0,00130797
3996,7476;0,001289
3997,7119;0,00126619
3998,6760;0,00124146
3999,6404;0,0012193
4000,6045;0,0014669

##### Extended Information
[Comments]
Sample name
Comment
Username
Division
Organization;UNIVERSIDAD INDUSTRIAL DE SANTANDER

[Detailed Information]
Creation date;17/03/2025 10:57 a.m.

Data array type;Linear data array
Horizontal axis;Wavenumber [cm-1]
Vertical axis;Abs
Start;399,193 cm-1
End;4000,6 cm-1
Data interval;0,964233 cm-1
Data points;3736    

[Measurement Information]
Model name;FT/IR-4X1typeA
Serial No.;A035162111

Accessory;ATR PRO 4X
Accessory S/N;A021162126
Incident angle;45 deg

Measurement date;17/03/2025 10:56 a.m.

Light source;Standard
Detector;TGS
Accumulation;40
Resolution;4 cm-1
Zero filling;On
Apodization;Cosine
Gain;Auto (8)
Aperture;Auto (7 mm)
Scan speed;Auto (2 mm/sec)
Filter;Auto (12800 Hz)

