TITLE;
DATA TYPE;INFRARED SPECTRUM
ORIGIN;JASCO
OWNER;
DATE;25/03/14
TIME;14:23:45
SPECTROMETER/DATA SYSTEM;
LOCALE;9226
RESOLUTION;
DELTAX;0,964233
XUNITS;1/CM
YUNITS;ABSORBANCE
FIRSTX;  399,1927
LASTX; 4000,6047
NPOINTS;    3736
FIRSTY;     0,19458
MAXY;     0,26160
MINY;     0,01087
XYDATA
399,1927;0,194579
400,1569;0,197497
401,1211;0,199064
402,0854;0,199183
403,0496;0,198274
404,0138;0,196901
404,9781;0,195609
405,9423;0,194806
406,9065;0,194652
407,8708;0,195044
408,8350;0,19573
409,7992;0,196483
410,7635;0,197195
411,7277;0,197868
412,6919;0,198537
413,6562;0,199213
414,6204;0,199892
415,5846;0,200598
416,5489;0,201405
417,5131;0,202382
418,4773;0,203447
419,4416;0,204289
420,4058;0,204627
421,3700;0,204489
422,3343;0,204132
423,2985;0,20383
424,2627;0,203768
425,2270;0,204009
426,1912;0,204498
427,1554;0,205125
428,1197;0,205792
429,0839;0,20644
430,0481;0,207015
431,0124;0,207436
431,9766;0,207605
432,9408;0,207491
433,9051;0,207186
434,8693;0,206877
435,8335;0,206721
436,7978;0,206697
437,7620;0,20659
438,7262;0,206128
439,6905;0,205192
440,6547;0,203943
441,6189;0,202794
442,5832;0,202211
443,5474;0,202394
444,5116;0,2031
445,4759;0,203785
446,4401;0,203956
447,4043;0,203452
448,3686;0,20247
449,3328;0,201407
450,2970;0,200631
451,2613;0,200312
452,2255;0,200371
453,1897;0,200587
454,1540;0,200752
455,1182;0,200775
456,0824;0,200696
457,0467;0,200605
458,0109;0,20055
458,9751;0,200481
459,9394;0,200297
460,9036;0,199943
461,8678;0,199445
462,8321;0,198892
463,7963;0,198388
464,7605;0,198015
465,7248;0,197814
466,6890;0,197784
467,6532;0,197898
468,6175;0,198121
469,5817;0,198406
470,5459;0,198684
471,5102;0,198861
472,4744;0,198873
473,4386;0,198745
474,4029;0,198599
475,3671;0,198574
476,3313;0,198745
477,2956;0,199074
478,2598;0,199443
479,2240;0,199715
480,1883;0,199809
481,1525;0,199749
482,1167;0,199635
483,0810;0,199593
484,0452;0,199697
485,0094;0,199945
485,9737;0,200271
486,9379;0,20059
487,9021;0,200838
488,8664;0,200987
489,8306;0,201042
490,7948;0,201051
491,7591;0,201092
492,7233;0,201235
493,6875;0,201483
494,6518;0,201759
495,6160;0,20194
496,5802;0,201942
497,5445;0,20178
498,5087;0,201566
499,4729;0,201446
500,4372;0,201518
501,4014;0,201771
502,3656;0,202109
503,3299;0,202437
504,2941;0,202733
505,2583;0,203039
506,2226;0,203388
507,1868;0,203744
508,1510;0,204014
509,1153;0,20413
510,0795;0,204128
511,0437;0,204152
512,0080;0,20437
512,9722;0,204873
513,9365;0,205624
514,9007;0,206484
515,8649;0,207283
516,8292;0,207912
517,7934;0,20836
518,7576;0,208693
519,7219;0,20898
520,6861;0,209236
521,6503;0,209421
522,6146;0,209482
523,5788;0,209391
524,5430;0,209175
525,5073;0,208907
526,4715;0,20867
527,4357;0,208502
528,4000;0,208361
529,3642;0,208154
530,3284;0,207791
531,2927;0,207239
532,2569;0,206549
533,2211;0,205832
534,1854;0,205205
535,1496;0,204723
536,1138;0,204357
537,0781;0,204031
538,0423;0,203681
539,0065;0,203309
539,9708;0,20298
540,9350;0,202775
541,8992;0,202736
542,8635;0,202839
543,8277;0,203009
544,7919;0,203167
545,7562;0,203273
546,7204;0,203338
547,6846;0,203406
548,6489;0,203517
549,6131;0,203686
550,5773;0,203912
551,5416;0,204202
552,5058;0,204583
553,4700;0,205083
554,4343;0,205694
555,3985;0,206343
556,3627;0,206894
557,3270;0,207191
558,2912;0,20712
559,2554;0,20665
560,2197;0,205844
561,1839;0,204834
562,1481;0,203775
563,1124;0,2028
564,0766;0,201994
565,0408;0,201373
566,0051;0,200889
566,9693;0,200459
567,9335;0,200002
568,8978;0,199482
569,8620;0,198923
570,8262;0,198388
571,7905;0,197932
572,7547;0,197565
573,7189;0,197244
574,6832;0,196903
575,6474;0,196492
576,6116;0,196012
577,5759;0,195508
578,5401;0,195036
579,5043;0,194629
580,4686;0,19428
581,4328;0,193959
582,3970;0,19364
583,3613;0,193317
584,3255;0,193006
585,2897;0,192734
586,2540;0,192524
587,2182;0,192389
588,1824;0,192327
589,1467;0,192322
590,1109;0,192339
591,0751;0,192327
592,0394;0,192236
593,0036;0,192045
593,9678;0,191769
594,9321;0,191451
595,8963;0,191127
596,8605;0,1908
597,8248;0,190446
598,7890;0,190034
599,7532;0,18956
600,7175;0,189063
601,6817;0,188598
602,6459;0,188203
603,6102;0,187874
604,5744;0,187567
605,5386;0,187224
606,5029;0,186795
607,4671;0,186254
608,4313;0,185595
609,3956;0,18483
610,3598;0,184003
611,3240;0,183186
612,2883;0,182464
613,2525;0,181897
614,2167;0,181479
615,1810;0,181115
616,1452;0,180649
617,1094;0,17993
618,0737;0,178892
619,0379;0,177578
620,0021;0,176105
620,9664;0,174586
621,9306;0,173097
622,8948;0,171682
623,8591;0,170375
624,8233;0,169193
625,7875;0,168228
626,7518;0,167486
627,7160;0,166924
628,6802;0,166462
629,6445;0,166021
630,6087;0,16555
631,5729;0,165035
632,5372;0,164494
633,5014;0,163949
634,4656;0,16342
635,4299;0,162915
636,3941;0,162442
637,3583;0,162009
638,3226;0,16162
639,2868;0,161276
640,2510;0,160964
641,2153;0,160666
642,1795;0,160368
643,1437;0,160071
644,1080;0,159788
645,0722;0,159531
646,0364;0,159297
647,0007;0,159058
647,9649;0,158777
648,9291;0,158433
649,8934;0,158046
650,8576;0,157673
651,8218;0,157386
652,7861;0,157229
653,7503;0,157203
654,7145;0,157271
655,6788;0,15738
656,6430;0,157491
657,6072;0,157593
658,5715;0,157686
659,5357;0,15775
660,4999;0,157728
661,4642;0,157528
662,4284;0,157062
663,3926;0,156275
664,3569;0,155185
665,3211;0,153962
666,2853;0,152959
667,2496;0,152529
668,2138;0,152529
669,1780;0,15236
670,1423;0,151817
671,1065;0,151057
672,0707;0,150088
673,0350;0,148834
673,9992;0,14731
674,9634;0,145638
675,9277;0,143965
676,8919;0,142378
677,8561;0,140888
678,8204;0,139471
679,7846;0,138124
680,7488;0,136877
681,7131;0,135758
682,6773;0,134765
683,6415;0,133864
684,6058;0,133023
685,5700;0,132233
686,5342;0,131511
687,4985;0,130868
688,4627;0,130304
689,4269;0,129787
690,3912;0,129286
691,3554;0,128786
692,3196;0,128288
693,2839;0,127797
694,2481;0,12731
695,2123;0,126816
696,1766;0,126304
697,1408;0,125778
698,1050;0,125256
699,0693;0,124761
700,0335;0,124313
700,9977;0,123907
701,9620;0,123517
702,9262;0,123103
703,8904;0,122624
704,8547;0,12207
705,8189;0,121462
706,7831;0,12084
707,7474;0,120243
708,7116;0,119686
709,6758;0,119161
710,6401;0,118632
711,6043;0,118061
712,5685;0,117422
713,5328;0,116721
714,4970;0,115997
715,4612;0,114735
716,4255;0,114246
717,3897;0,113884
718,3539;0,113564
719,3182;0,113144
720,2824;0,112496
721,2466;0,111577
722,2109;0,110449
723,1751;0,109245
724,1393;0,108091
725,1036;0,107063
726,0678;0,106181
727,0320;0,105427
727,9963;0,104761
728,9605;0,104141
729,9247;0,103531
730,8890;0,102902
731,8532;0,102245
732,8174;0,101573
733,7817;0,100919
734,7459;0,100319
735,7101;0,0997983
736,6744;0,0993525
737,6386;0,0989549
738,6028;0,09857
739,5671;0,0981692
740,5313;0,0977407
741,4955;0,0972884
742,4598;0,0968246
743,4240;0,0963623
744,3882;0,0959098
745,3525;0,0954692
746,3167;0,0950373
747,2809;0,0946075
748,2452;0,0941734
749,2094;0,0937334
750,1736;0,0932926
751,1379;0,092861
752,1021;0,0924486
753,0663;0,092059
754,0306;0,0916872
754,9948;0,0913227
755,9590;0,090956
756,9233;0,0905824
757,8875;0,0902035
758,8517;0,089822
759,8160;0,0894385
760,7802;0,0890499
761,7444;0,0886524
762,7087;0,0882445
763,6729;0,0878289
764,6371;0,0874092
765,6014;0,0869868
766,5656;0,0865593
767,5298;0,0861225
768,4941;0,0856747
769,4583;0,0852197
770,4225;0,0847662
771,3868;0,0843252
772,3510;0,083905
773,3152;0,0835095
774,2795;0,0831381
775,2437;0,0827868
776,2079;0,0824511
777,1722;0,0821256
778,1364;0,0818038
779,1006;0,0814753
780,0649;0,0811259
781,0291;0,0807404
781,9933;0,0803104
782,9576;0,0798426
783,9218;0,0793621
784,8860;0,0789053
785,8503;0,0785048
786,8145;0,0781734
787,7787;0,0778978
788,7430;0,0776479
789,7072;0,0773966
790,6714;0,0771363
791,6357;0,0768824
792,5999;0,0766596
793,5641;0,0764823
794,5284;0,0763434
795,4926;0,0762188
796,4568;0,0760832
797,4211;0,0759244
798,3853;0,0757459
799,3495;0,0755563
800,3138;0,0753577
801,2780;0,075143
802,2422;0,0749038
803,2065;0,0746418
804,1707;0,0743736
805,1349;0,074125
806,0992;0,0739181
807,0634;0,0737617
808,0276;0,073649
808,9919;0,073563
809,9561;0,0734843
810,9203;0,0733969
811,8846;0,0732922
812,8488;0,0731707
813,8130;0,0730416
814,7773;0,0729182
815,7415;0,0728104
816,7057;0,0727173
817,6700;0,072627
818,6342;0,0725239
819,5984;0,0724008
820,5627;0,0722662
821,5269;0,0721421
822,4911;0,0720518
823,4554;0,0720072
824,4196;0,072004
825,3839;0,072027
826,3481;0,0720605
827,3123;0,072095
828,2766;0,0721253
829,2408;0,0721436
830,2050;0,0721347
831,1693;0,0720788
832,1335;0,0719612
833,0977;0,0717818
834,0620;0,0715568
835,0262;0,071312
835,9904;0,071071
836,9547;0,0708471
837,9189;0,0706427
838,8831;0,0704538
839,8474;0,0702757
840,8116;0,0701054
841,7758;0,0699416
842,7401;0,0697832
843,7043;0,0696303
844,6685;0,0694853
845,6328;0,0693534
846,5970;0,0692399
847,5612;0,0691462
848,5255;0,0690682
849,4897;0,0689982
850,4539;0,0689297
851,4182;0,0688617
852,3824;0,0687988
853,3466;0,0687488
854,3109;0,0687177
855,2751;0,0687075
856,2393;0,0687152
857,2036;0,0687348
858,1678;0,0687595
859,1320;0,0687837
860,0963;0,0688044
861,0605;0,0688223
862,0247;0,0688419
862,9890;0,06887
863,9532;0,068913
864,9174;0,0689744
865,8817;0,069053
866,8459;0,069143
867,8101;0,0692363
868,7744;0,069326
869,7386;0,0694086
870,7028;0,0694849
871,6671;0,0695572
872,6313;0,0696244
873,5955;0,0696792
874,5598;0,0697098
875,5240;0,0697071
876,4882;0,0696737
877,4525;0,0696281
878,4167;0,0696011
879,3809;0,0696247
880,3452;0,0697208
881,3094;0,069897
882,2736;0,0701515
883,2379;0,070484
884,2021;0,070903
885,1663;0,0714262
886,1306;0,0720707
887,0948;0,0728426
888,0590;0,0737304
889,0233;0,0747056
889,9875;0,0757293
890,9517;0,0767601
891,9160;0,0777582
892,8802;0,0786871
893,8444;0,0795132
894,8087;0,0802071
895,7729;0,0807456
896,7371;0,0811142
897,7014;0,0813086
898,6656;0,081333
899,6298;0,0811976
900,5941;0,0809167
901,5583;0,0805088
902,5225;0,0799987
903,4868;0,0794196
904,4510;0,0788128
905,4152;0,078224
906,3795;0,077696
907,3437;0,0772616
908,3079;0,0769389
909,2722;0,076732
910,2364;0,076635
911,2007;0,0766372
912,1649;0,076727
913,1292;0,0768937
914,0934;0,0771273
915,0576;0,0774173
916,0219;0,0777526
916,9861;0,0781218
917,9503;0,0785149
918,9146;0,0789243
919,8788;0,0793454
920,8430;0,0797745
921,8073;0,080206
922,7715;0,080629
923,7357;0,0810277
924,7000;0,0813852
925,6642;0,0816902
926,6284;0,0819418
927,5927;0,0821485
928,5569;0,0823232
929,5211;0,0824762
930,4854;0,082613
931,4496;0,0827369
932,4138;0,0828547
933,3781;0,0829801
934,3423;0,0831306
935,3065;0,0833213
936,2708;0,0835596
937,2350;0,0838463
938,1992;0,0841813
939,1635;0,0845699
940,1277;0,085023
941,0919;0,0855526
942,0562;0,086164
943,0204;0,0868542
943,9846;0,0876147
944,9489;0,0884406
945,9131;0,0893361
946,8773;0,0903145
947,8416;0,0913913
948,8058;0,0925761
949,7700;0,0938672
950,7343;0,0952547
951,6985;0,0967273
952,6627;0,0982802
953,6270;0,0999186
954,5912;0,101654
955,5554;0,103494
956,5197;0,105439
957,4839;0,10747
958,4481;0,10956
959,4124;0,11168
960,3766;0,113811
961,3408;0,115946
962,3051;0,118093
963,2693;0,120262
964,2335;0,122462
965,1978;0,124698
966,1620;0,126969
967,1262;0,129283
968,0905;0,131654
969,0547;0,134111
970,0189;0,13669
970,9832;0,139425
971,9474;0,142342
972,9116;0,145457
973,8759;0,148781
974,8401;0,152321
975,8043;0,156089
976,7686;0,160089
977,7328;0,164307
978,6970;0,168703
979,6613;0,173196
980,6255;0,177674
981,5897;0,182014
982,5540;0,186099
983,5182;0,189847
984,4824;0,193215
985,4467;0,196202
986,4109;0,198833
987,3751;0,201146
988,3394;0,203179
989,3036;0,204959
990,2678;0,206503
991,2321;0,207818
992,1963;0,208914
993,1605;0,209805
994,1248;0,210525
995,0890;0,211122
996,0532;0,211656
997,0175;0,212177
997,9817;0,212724
998,9459;0,213312
999,9102;0,213942
1000,8744;0,214615
1001,8386;0,215344
1002,8029;0,216158
1003,7671;0,217103
1004,7313;0,218228
1005,6956;0,219575
1006,6598;0,22117
1007,6240;0,223021
1008,5883;0,225123
1009,5525;0,227457
1010,5167;0,229993
1011,4810;0,232688
1012,4452;0,235477
1013,4094;0,238282
1014,3737;0,241019
1015,3379;0,243611
1016,3021;0,246005
1017,2664;0,248175
1018,2306;0,25012
1019,1948;0,25185
1020,1591;0,253381
1021,1233;0,254732
1022,0875;0,255924
1023,0518;0,256985
1024,0160;0,257946
1024,9802;0,258831
1025,9445;0,259647
1026,9087;0,260378
1027,8729;0,260983
1028,8372;0,261411
1029,8014;0,261601
1030,7656;0,261489
1031,7299;0,26102
1032,6941;0,260152
1033,6583;0,258874
1034,6226;0,257219
1035,5868;0,255271
1036,5510;0,253153
1037,5153;0,25101
1038,4795;0,248976
1039,4437;0,247153
1040,4080;0,245592
1041,3722;0,2443
1042,3364;0,243244
1043,3007;0,242369
1044,2649;0,241606
1045,2291;0,240887
1046,1934;0,240146
1047,1576;0,239324
1048,1218;0,238367
1049,0861;0,237226
1050,0503;0,235863
1051,0145;0,234252
1051,9788;0,23239
1052,9430;0,230297
1053,9072;0,228013
1054,8715;0,225578
1055,8357;0,223013
1056,7999;0,220308
1057,7642;0,217423
1058,7284;0,214308
1059,6926;0,210938
1060,6569;0,207337
1061,6211;0,203588
1062,5853;0,199814
1063,5496;0,19615
1064,5138;0,192708
1065,4780;0,189556
1066,4423;0,186718
1067,4065;0,184183
1068,3707;0,181911
1069,3350;0,179852
1070,2992;0,177949
1071,2634;0,176142
1072,2277;0,174375
1073,1919;0,172593
1074,1561;0,170748
1075,1204;0,168804
1076,0846;0,16674
1077,0488;0,164557
1078,0131;0,162289
1078,9773;0,159991
1079,9415;0,157737
1080,9058;0,155594
1081,8700;0,153611
1082,8342;0,151808
1083,7985;0,150181
1084,7627;0,14871
1085,7269;0,147372
1086,6912;0,146152
1087,6554;0,145047
1088,6196;0,144066
1089,5839;0,143225
1090,5481;0,142541
1091,5123;0,142019
1092,4766;0,141652
1093,4408;0,141417
1094,4050;0,141285
1095,3693;0,141227
1096,3335;0,141224
1097,2977;0,141267
1098,2620;0,141354
1099,2262;0,141478
1100,1904;0,14162
1101,1547;0,14175
1102,1189;0,141827
1103,0831;0,141813
1104,0474;0,14168
1105,0116;0,141418
1105,9758;0,141035
1106,9401;0,140544
1107,9043;0,139957
1108,8685;0,139272
1109,8328;0,13847
1110,7970;0,137527
1111,7612;0,136424
1112,7255;0,135163
1113,6897;0,133775
1114,6539;0,132318
1115,6182;0,130864
1116,5824;0,129483
1117,5466;0,12822
1118,5109;0,127085
1119,4751;0,12605
1120,4393;0,125053
1121,4036;0,124014
1122,3678;0,122855
1123,3320;0,121512
1124,2963;0,119954
1125,2605;0,118179
1126,2247;0,116211
1127,1890;0,114093
1128,1532;0,111873
1129,1174;0,109597
1130,0817;0,10731
1131,0459;0,105047
1132,0101;0,102841
1132,9744;0,100725
1133,9386;0,098734
1134,9028;0,0969075
1135,8671;0,0952878
1136,8313;0,0939121
1137,7955;0,0928052
1138,7598;0,0919725
1139,7240;0,0913996
1140,6882;0,0910554
1141,6525;0,0909005
1142,6167;0,0908954
1143,5809;0,0910066
1144,5452;0,0912094
1145,5094;0,0914878
1146,4736;0,0918327
1147,4379;0,0922392
1148,4021;0,0927042
1149,3663;0,0932227
1150,3306;0,0937841
1151,2948;0,0943671
1152,2590;0,0949382
1153,2233;0,095452
1154,1875;0,0958562
1155,1517;0,096098
1156,1160;0,0961294
1157,0802;0,0959086
1158,0444;0,0953983
1159,0087;0,0945617
1159,9729;0,0933629
1160,9371;0,0917719
1161,9014;0,0897764
1162,8656;0,0873932
1163,8298;0,0846741
1164,7941;0,0817036
1165,7583;0,0785879
1166,7225;0,075439
1167,6868;0,0723603
1168,6510;0,0694352
1169,6152;0,0667216
1170,5795;0,0642512
1171,5437;0,0620336
1172,5079;0,0600635
1173,4722;0,0583271
1174,4364;0,0568081
1175,4006;0,0554889
1176,3649;0,0543509
1177,3291;0,0533745
1178,2933;0,0525399
1179,2576;0,0518301
1180,2218;0,051232
1181,1860;0,0507366
1182,1503;0,0503364
1183,1145;0,0500237
1184,0787;0,04979
1185,0430;0,0496289
1186,0072;0,049539
1186,9714;0,0495248
1187,9357;0,0495955
1188,8999;0,04976
1189,8641;0,050023
1190,8284;0,0503835
1191,7926;0,050836
1192,7568;0,0513735
1193,7211;0,0519893
1194,6853;0,0526767
1195,6495;0,0534267
1196,6138;0,0542259
1197,5780;0,0550573
1198,5422;0,055903
1199,5065;0,0565741
1200,4707;0,0574321
1201,4349;0,0582819
1202,3992;0,0591255
1203,3634;0,059966
1204,3276;0,0608047
1205,2919;0,0616418
1206,2561;0,0624785
1207,2203;0,0633208
1208,1846;0,06418
1209,1488;0,0650717
1210,1130;0,0660112
1211,0773;0,0670097
1212,0415;0,0680711
1213,0057;0,0691919
1213,9700;0,0703635
1214,9342;0,071574
1215,8984;0,0728094
1216,8627;0,0740523
1217,8269;0,0752818
1218,7911;0,0764782
1219,7554;0,0776259
1220,7196;0,0787169
1221,6838;0,0797514
1222,6481;0,080734
1223,6123;0,0816694
1224,5765;0,0825588
1225,5408;0,0834
1226,5050;0,0841893
1227,4692;0,0849241
1228,4335;0,0856036
1229,3977;0,0862272
1230,3619;0,0867932
1231,3262;0,0872983
1232,2904;0,0877393
1233,2546;0,0881146
1234,2189;0,0884244
1235,1831;0,0886702
1236,1473;0,0888544
1237,1116;0,0889803
1238,0758;0,0890528
1239,0400;0,0890785
1240,0043;0,089063
1240,9685;0,0890077
1241,9327;0,0889074
1242,8970;0,0887514
1243,8612;0,0885278
1244,8254;0,0882289
1245,7897;0,0878552
1246,7539;0,0874164
1247,7181;0,0869277
1248,6824;0,0864058
1249,6466;0,0858642
1250,6108;0,0853108
1251,5751;0,0847491
1252,5393;0,0841803
1253,5035;0,0836061
1254,4678;0,0830287
1255,4320;0,0824481
1256,3962;0,0818592
1257,3605;0,0812504
1258,3247;0,0806072
1259,2889;0,0799185
1260,2532;0,0791819
1261,2174;0,0784036
1262,1816;0,0775936
1263,1459;0,0767581
1264,1101;0,0758964
1265,0743;0,0750023
1266,0386;0,0740685
1267,0028;0,0730913
1267,9670;0,0720718
1268,9313;0,0710156
1269,8955;0,0699318
1270,8597;0,0688321
1271,8240;0,0677301
1272,7882;0,0666387
1273,7524;0,0655683
1274,7167;0,064526
1275,6809;0,0635172
1276,6451;0,0625469
1277,6094;0,061619
1278,5736;0,0607344
1279,5378;0,0598887
1280,5021;0,0590737
1281,4663;0,0582822
1282,4305;0,0575135
1283,3948;0,0567755
1284,3590;0,0560818
1285,3232;0,0554462
1286,2875;0,0548781
1287,2517;0,0543815
1288,2159;0,0539571
1289,1802;0,0536061
1290,1444;0,0533302
1291,1086;0,0531309
1292,0729;0,0530075
1293,0371;0,052957
1294,0013;0,0529759
1294,9656;0,0530626
1295,9298;0,0532178
1296,8940;0,0534435
1297,8583;0,0537406
1298,8225;0,0541072
1299,7867;0,0545385
1300,7510;0,0550274
1301,7152;0,055569
1302,6794;0,0561583
1303,6437;0,0567901
1304,6079;0,0574598
1305,5721;0,0581611
1306,5364;0,0588874
1307,5006;0,0596342
1308,4648;0,0604011
1309,4291;0,0611902
1310,3933;0,0620003
1311,3575;0,0628201
1312,3218;0,0636241
1313,2860;0,0643767
1314,2502;0,0650413
1315,2145;0,0655888
1316,1787;0,0659997
1317,1429;0,0662639
1318,1072;0,0663807
1319,0714;0,0663634
1320,0356;0,0662423
1320,9999;0,0660586
1321,9641;0,0658525
1322,9283;0,0656519
1323,8926;0,0654704
1324,8568;0,0653102
1325,8210;0,0651675
1326,7853;0,0650367
1327,7495;0,0649106
1328,7137;0,0647804
1329,6780;0,0646354
1330,6422;0,0644654
1331,6064;0,0642646
1332,5707;0,064032
1333,5349;0,0637717
1334,4991;0,0634844
1335,4634;0,0631604
1336,4276;0,0627759
1337,3918;0,0622975
1338,3561;0,0617029
1339,3203;0,0610135
1340,2845;0,0603045
1341,2488;0,0596672
1342,2130;0,0591569
1343,1772;0,058777
1344,1415;0,0585024
1345,1057;0,0583069
1346,0699;0,0581767
1347,0342;0,0581107
1347,9984;0,0581164
1348,9626;0,0582037
1349,9269;0,0583781
1350,8911;0,0586359
1351,8553;0,0589655
1352,8196;0,0593531
1353,7838;0,0597902
1354,7480;0,0602766
1355,7123;0,0608156
1356,6765;0,0614061
1357,6407;0,0620391
1358,6050;0,0627017
1359,5692;0,0633823
1360,5334;0,064065
1361,4977;0,0647199
1362,4619;0,0653137
1363,4261;0,0658382
1364,3904;0,0663152
1365,3546;0,0667675
1366,3188;0,0671977
1367,2831;0,0675914
1368,2473;0,0679289
1369,2115;0,0681912
1370,1758;0,0683618
1371,1400;0,068423
1372,1042;0,068353
1373,0685;0,0681294
1374,0327;0,0677456
1374,9969;0,0672277
1375,9612;0,066621
1376,9254;0,0659457
1377,8896;0,0651774
1378,8539;0,0642787
1379,8181;0,0632491
1380,7823;0,0621469
1381,7466;0,0610584
1382,7108;0,0600384
1383,6750;0,0590764
1384,6393;0,0581145
1385,6035;0,0571006
1386,5677;0,0560484
1387,5320;0,0550622
1388,4962;0,0542751
1389,4604;0,0537417
1390,4247;0,0534098
1391,3889;0,0531886
1392,3531;0,0530203
1393,3174;0,0528967
1394,2816;0,0528277
1395,2458;0,0528046
1396,2101;0,0527937
1397,1743;0,0527654
1398,1385;0,0527251
1399,1028;0,0527125
1400,0670;0,0527711
1401,0313;0,0529171
1401,9955;0,0531337
1402,9597;0,0533909
1403,9240;0,0536693
1404,8882;0,053973
1405,8524;0,0543244
1406,8167;0,0547442
1407,7809;0,0552331
1408,7451;0,0557742
1409,7094;0,0563556
1410,6736;0,056982
1411,6378;0,0576641
1412,6021;0,0583931
1413,5663;0,0591281
1414,5305;0,0598107
1415,4948;0,0603945
1416,4590;0,0608626
1417,4232;0,061221
1418,3875;0,061497
1419,3517;0,061755
1420,3159;0,0620587
1421,2802;0,0623848
1422,2444;0,0626228
1423,2086;0,0626633
1424,1729;0,0624692
1425,1371;0,062079
1426,1013;0,0615542
1427,0656;0,0609258
1428,0298;0,0601854
1428,9940;0,059329
1429,9583;0,0584057
1430,9225;0,0575047
1431,8867;0,0566771
1432,8510;0,0558816
1433,8152;0,0550147
1434,7794;0,053991
1435,7437;0,0528333
1436,7079;0,0517308
1437,6721;0,0509519
1438,6364;0,0506177
1439,6006;0,050619
1440,5648;0,0507614
1441,5291;0,050917
1442,4933;0,051062
1443,4575;0,0512355
1444,4218;0,0514796
1445,3860;0,0518018
1446,3502;0,0521777
1447,3145;0,0525803
1448,2787;0,0530074
1449,2429;0,0534775
1450,2072;0,05399
1451,1714;0,0544936
1452,1356;0,0549007
1453,0999;0,0551369
1454,0641;0,0551815
1455,0283;0,0550527
1455,9926;0,0547312
1456,9568;0,0541889
1457,9210;0,0536601
1458,8853;0,053515
1459,8495;0,0537552
1460,8137;0,0540803
1461,7780;0,054202
1462,7422;0,053955
1463,7064;0,0532901
1464,6707;0,0522907
1465,6349;0,051179
1466,5991;0,0501748
1467,5634;0,0493135
1468,5276;0,0484574
1469,4918;0,0474307
1470,4561;0,0461017
1471,4203;0,0443991
1472,3845;0,0423562
1473,3488;0,0402114
1474,3130;0,0383357
1475,2772;0,0369341
1476,2415;0,0359445
1477,2057;0,0352036
1478,1699;0,0345845
1479,1342;0,0340232
1480,0984;0,0334995
1481,0626;0,0330235
1482,0269;0,0326273
1482,9911;0,032349
1483,9553;0,0322094
1484,9196;0,0322018
1485,8838;0,0323011
1486,8480;0,0324687
1487,8123;0,0326373
1488,7765;0,0327281
1489,7407;0,0327555
1490,7050;0,0328584
1491,6692;0,0331396
1492,6334;0,0335743
1493,5977;0,0340917
1494,5619;0,0346663
1495,5261;0,0353275
1496,4904;0,0361048
1497,4546;0,0369835
1498,4188;0,0379337
1499,3831;0,038932
1500,3473;0,0399109
1501,3115;0,0407496
1502,2758;0,0413407
1503,2400;0,0416635
1504,2042;0,041816
1505,1685;0,0419489
1506,1327;0,0420202
1507,0969;0,041703
1508,0612;0,0410146
1509,0254;0,0404213
1509,9896;0,0400795
1510,9539;0,0398203
1511,9181;0,0394753
1512,8823;0,0389784
1513,8466;0,0383334
1514,8108;0,0375665
1515,7750;0,0367051
1516,7393;0,0357777
1517,7035;0,0348121
1518,6677;0,0338272
1519,6320;0,0328381
1520,5962;0,0318826
1521,5604;0,0310396
1522,5247;0,0303899
1523,4889;0,0299425
1524,4531;0,0296286
1525,4174;0,0293743
1526,3816;0,0291648
1527,3458;0,0290344
1528,3101;0,0290082
1529,2743;0,0290715
1530,2385;0,0291976
1531,2028;0,0293916
1532,1670;0,0296905
1533,1312;0,0301178
1534,0955;0,0306416
1535,0597;0,0311772
1536,0239;0,0316317
1536,9882;0,0319714
1537,9524;0,0322655
1538,9166;0,0326163
1539,8809;0,0329109
1540,8451;0,0327598
1541,8093;0,0321268
1542,7736;0,0314628
1543,7378;0,0310177
1544,7020;0,0307572
1545,6663;0,0306151
1546,6305;0,0305668
1547,5947;0,0305914
1548,5590;0,0306479
1549,5232;0,0306959
1550,4874;0,0307297
1551,4517;0,0307857
1552,4159;0,0309027
1553,3801;0,0310683
1554,3444;0,0312114
1555,3086;0,0312497
1556,2728;0,031129
1557,2371;0,0307789
1558,2013;0,0301083
1559,1655;0,0294122
1560,1298;0,02937
1561,0940;0,0301018
1562,0582;0,0311782
1563,0225;0,0322039
1563,9867;0,0329976
1564,9509;0,0335372
1565,9152;0,0338856
1566,8794;0,0341415
1567,8436;0,0344064
1568,8079;0,0347591
1569,7721;0,0352368
1570,7363;0,0358191
1571,7006;0,0364313
1572,6648;0,0369942
1573,6290;0,0374837
1574,5933;0,0379419
1575,5575;0,038425
1576,5217;0,0389601
1577,4860;0,0395732
1578,4502;0,0402858
1579,4144;0,0410624
1580,3787;0,0418381
1581,3429;0,0425804
1582,3071;0,0433025
1583,2714;0,0440393
1584,2356;0,0448182
1585,1998;0,045648
1586,1641;0,0465179
1587,1283;0,0474024
1588,0925;0,048266
1589,0568;0,04907
1590,0210;0,0497786
1590,9852;0,0503626
1591,9495;0,050795
1592,9137;0,0510503
1593,8779;0,0511126
1594,8422;0,0509932
1595,8064;0,0507382
1596,7706;0,0504149
1597,7349;0,050084
1598,6991;0,0497778
1599,6633;0,049499
1600,6276;0,0492336
1601,5918;0,0489697
1602,5560;0,0487124
1603,5203;0,0484816
1604,4845;0,0482934
1605,4487;0,0481412
1606,4130;0,0479947
1607,3772;0,0478227
1608,3414;0,047626
1609,3057;0,0474509
1610,2699;0,0473571
1611,2341;0,0473601
1612,1984;0,0474115
1613,1626;0,0474366
1614,1268;0,0473857
1615,0911;0,0472591
1616,0553;0,0471202
1617,0195;0,0470958
1617,9838;0,0472918
1618,9480;0,0476749
1619,9122;0,048099
1620,8765;0,0484274
1621,8407;0,0486022
1622,8049;0,0486443
1623,7692;0,0486236
1624,7334;0,048614
1625,6976;0,0486488
1626,6619;0,0487197
1627,6261;0,0488159
1628,5903;0,0489468
1629,5546;0,0491178
1630,5188;0,0492953
1631,4830;0,0494136
1632,4473;0,0494191
1633,4115;0,0493014
1634,3757;0,0490702
1635,3400;0,0487311
1636,3042;0,0483744
1637,2684;0,048197
1638,2327;0,0482797
1639,1969;0,0485163
1640,1611;0,0487614
1641,1254;0,0489259
1642,0896;0,0489803
1643,0538;0,0489324
1644,0181;0,0488078
1644,9823;0,0486234
1645,9465;0,0483768
1646,9108;0,0481074
1647,8750;0,0479015
1648,8392;0,0477469
1649,8035;0,047499
1650,7677;0,0469985
1651,7319;0,0461317
1652,6962;0,0448815
1653,6604;0,0436261
1654,6246;0,0430601
1655,5889;0,043296
1656,5531;0,0438576
1657,5173;0,0443031
1658,4816;0,0444318
1659,4458;0,0442173
1660,4100;0,0437206
1661,3743;0,0430513
1662,3385;0,0423672
1663,3027;0,0418322
1664,2670;0,0415122
1665,2312;0,0413375
1666,1954;0,0411745
1667,1597;0,0409013
1668,1239;0,0404406
1669,0881;0,0397897
1670,0524;0,0390536
1671,0166;0,0383783
1671,9808;0,0378031
1672,9451;0,0372404
1673,9093;0,036601
1674,8735;0,0359143
1675,8378;0,0353411
1676,8020;0,0350468
1677,7662;0,0350447
1678,7305;0,0351808
1679,6947;0,0352498
1680,6589;0,035091
1681,6232;0,034603
1682,5874;0,0337259
1683,5516;0,0325305
1684,5159;0,0313821
1685,4801;0,0307022
1686,4443;0,0305266
1687,4086;0,0305901
1688,3728;0,0306405
1689,3370;0,0305653
1690,3013;0,0303671
1691,2655;0,0301038
1692,2297;0,0298429
1693,1940;0,0296428
1694,1582;0,0295396
1695,1224;0,0295206
1696,0867;0,0294978
1697,0509;0,0293322
1698,0151;0,0289413
1698,9794;0,0284248
1699,9436;0,0280532
1700,9078;0,0280668
1701,8721;0,0284865
1702,8363;0,0291355
1703,8005;0,0297936
1704,7648;0,0303174
1705,7290;0,0306835
1706,6932;0,0309738
1707,6575;0,0313134
1708,6217;0,031789
1709,5859;0,0324103
1710,5502;0,0331338
1711,5144;0,033903
1712,4786;0,0346711
1713,4429;0,0354025
1714,4071;0,03606
1715,3713;0,036581
1716,3356;0,0368945
1717,2998;0,0370483
1718,2640;0,0372694
1719,2283;0,0377429
1720,1925;0,0384415
1721,1567;0,0392209
1722,1210;0,0399552
1723,0852;0,0405857
1724,0494;0,0411164
1725,0137;0,0415923
1725,9779;0,0420714
1726,9421;0,0425896
1727,9064;0,0431359
1728,8706;0,0436506
1729,8348;0,0440432
1730,7991;0,0442132
1731,7633;0,0440699
1732,7275;0,0435892
1733,6918;0,0429223
1734,6560;0,0423721
1735,6202;0,0421188
1736,5845;0,0420619
1737,5487;0,041969
1738,5129;0,0416622
1739,4772;0,0410967
1740,4414;0,0403558
1741,4056;0,0395864
1742,3699;0,0388982
1743,3341;0,038302
1744,2983;0,0377348
1745,2626;0,0371186
1746,2268;0,0363845
1747,1910;0,0354545
1748,1553;0,0342394
1749,1195;0,0327161
1750,0837;0,0310409
1751,0480;0,0295076
1752,0122;0,0283227
1752,9764;0,0274739
1753,9407;0,0268056
1754,9049;0,0261584
1755,8691;0,0254512
1756,8334;0,0246906
1757,7976;0,023925
1758,7618;0,0231809
1759,7261;0,0224397
1760,6903;0,0216721
1761,6545;0,0208952
1762,6188;0,0201822
1763,5830;0,0196074
1764,5472;0,0191856
1765,5115;0,0188714
1766,4757;0,0186033
1767,4399;0,0183413
1768,4042;0,0180706
1769,3684;0,0177779
1770,3326;0,0174285
1771,2969;0,0169857
1772,2611;0,0164782
1773,2253;0,0160284
1774,1896;0,0157584
1775,1538;0,0156829
1776,1180;0,0157182
1777,0823;0,0157614
1778,0465;0,0157474
1779,0107;0,0156611
1779,9750;0,015522
1780,9392;0,0153581
1781,9034;0,0151875
1782,8677;0,0150191
1783,8319;0,0148687
1784,7961;0,0147681
1785,7604;0,0147482
1786,7246;0,0148122
1787,6888;0,0149258
1788,6531;0,0150355
1789,6173;0,0150924
1790,5815;0,0150628
1791,5458;0,0149398
1792,5100;0,0147704
1793,4742;0,01465
1794,4385;0,0146414
1795,4027;0,0147196
1796,3669;0,0148102
1797,3312;0,0148508
1798,2954;0,0148169
1799,2596;0,0147169
1800,2239;0,0145767
1801,1881;0,0144294
1802,1523;0,0143037
1803,1166;0,0142163
1804,0808;0,0141712
1805,0450;0,0141662
1806,0093;0,0141974
1806,9735;0,0142557
1807,9377;0,0143211
1808,9020;0,0143616
1809,8662;0,0143453
1810,8304;0,0142627
1811,7947;0,0141362
1812,7589;0,0140033
1813,7231;0,0138903
1814,6874;0,0138033
1815,6516;0,0137379
1816,6158;0,0136929
1817,5801;0,0136754
1818,5443;0,0136955
1819,5085;0,0137535
1820,4728;0,0138337
1821,4370;0,0139108
1822,4012;0,0139653
1823,3655;0,0139961
1824,3297;0,0140211
1825,2939;0,0140618
1826,2582;0,0141207
1827,2224;0,0141681
1828,1866;0,0141538
1829,1509;0,0140425
1830,1151;0,0138539
1831,0793;0,0136627
1832,0436;0,0135429
1833,0078;0,0135128
1833,9720;0,0135405
1834,9363;0,0135872
1835,9005;0,0136365
1836,8647;0,0136966
1837,8290;0,0137801
1838,7932;0,0138811
1839,7574;0,0139694
1840,7217;0,0140088
1841,6859;0,0139801
1842,6501;0,0138898
1843,6144;0,0137657
1844,5786;0,0136495
1845,5428;0,0135793
1846,5071;0,0135605
1847,4713;0,0135606
1848,4355;0,0135412
1849,3998;0,0134907
1850,3640;0,0134291
1851,3282;0,0133887
1852,2925;0,0133889
1853,2567;0,0134244
1854,2209;0,0134722
1855,1852;0,0135079
1856,1494;0,0135197
1857,1136;0,0135112
1858,0779;0,0134952
1859,0421;0,0134863
1860,0063;0,0134957
1860,9706;0,0135305
1861,9348;0,0135923
1862,8990;0,0136763
1863,8633;0,0137728
1864,8275;0,0138705
1865,7917;0,0139581
1866,7560;0,0140185
1867,7202;0,0140259
1868,6844;0,0139651
1869,6487;0,0138574
1870,6129;0,0137478
1871,5771;0,0136633
1872,5414;0,0136006
1873,5056;0,0135452
1874,4698;0,0134902
1875,4341;0,0134383
1876,3983;0,0133954
1877,3625;0,0133644
1878,3268;0,0133459
1879,2910;0,0133404
1880,2552;0,0133502
1881,2195;0,0133765
1882,1837;0,0134152
1883,1479;0,0134564
1884,1122;0,0134885
1885,0764;0,0135062
1886,0406;0,0135135
1887,0049;0,0135213
1887,9691;0,013538
1888,9333;0,0135618
1889,8976;0,0135829
1890,8618;0,0135922
1891,8260;0,0135866
1892,7903;0,0135678
1893,7545;0,0135389
1894,7188;0,0135028
1895,6830;0,0134637
1896,6472;0,0134301
1897,6115;0,0134129
1898,5757;0,0134196
1899,5399;0,0134475
1900,5042;0,0134827
1901,4684;0,0135073
1902,4326;0,0135113
1903,3969;0,0135023
1904,3611;0,0135029
1905,3253;0,0135352
1906,2896;0,0136038
1907,2538;0,0136862
1908,2180;0,0137418
1909,1823;0,0137359
1910,1465;0,0136661
1911,1107;0,0135669
1912,0750;0,0134863
1913,0392;0,013457
1914,0034;0,0134841
1914,9677;0,0135527
1915,9319;0,0136412
1916,8961;0,0137329
1917,8604;0,0138224
1918,8246;0,0139103
1919,7888;0,0139893
1920,7531;0,0140347
1921,7173;0,0140128
1922,6815;0,0139028
1923,6458;0,013716
1924,6100;0,0134968
1925,5742;0,0133011
1926,5385;0,0131692
1927,5027;0,0131148
1928,4669;0,013132
1929,4312;0,0132056
1930,3954;0,0133147
1931,3596;0,0134318
1932,3239;0,013523
1933,2881;0,013555
1934,2523;0,0135092
1935,2166;0,0133937
1936,1808;0,0132435
1937,1450;0,0131052
1938,1093;0,013017
1939,0735;0,0129941
1940,0377;0,0130271
1941,0020;0,013087
1941,9662;0,0131362
1942,9304;0,0131463
1943,8947;0,0131127
1944,8589;0,013053
1945,8231;0,0129929
1946,7874;0,0129498
1947,7516;0,0129255
1948,7158;0,0129048
1949,6801;0,0128633
1950,6443;0,0127828
1951,6085;0,0126676
1952,5728;0,0125497
1953,5370;0,0124755
1954,5012;0,0124792
1955,4655;0,012559
1956,4297;0,0126735
1957,3939;0,0127626
1958,3582;0,0127817
1959,3224;0,0127268
1960,2866;0,0126335
1961,2509;0,0125489
1962,2151;0,0124973
1963,1793;0,0124654
1964,1436;0,0124171
1965,1078;0,0123214
1966,0720;0,0121715
1967,0363;0,0119816
1968,0005;0,0117682
1968,9647;0,011536
1969,9290;0,0112886
1970,8932;0,0110523
1971,8574;0,0108889
1972,8217;0,0108734
1973,7859;0,0110461
1974,7501;0,0113674
1975,7144;0,0117228
1976,6786;0,0119868
1977,6428;0,0121067
1978,6071;0,0121355
1979,5713;0,0121827
1980,5355;0,012331
1981,4998;0,0125867
1982,4640;0,0128893
1983,4282;0,0131549
1984,3925;0,0133209
1985,3567;0,0133697
1986,3209;0,0133256
1987,2852;0,0132363
1988,2494;0,0131523
1989,2136;0,0131149
1990,1779;0,0131478
1991,1421;0,0132511
1992,1063;0,0133995
1993,0706;0,0135511
1994,0348;0,0136653
1994,9990;0,0137144
1995,9633;0,0136841
1996,9275;0,0135658
1997,8917;0,013354
1998,8560;0,0130582
1999,8202;0,0127222
2000,7844;0,0124328
2001,7487;0,0122993
2002,7129;0,0124054
2003,6771;0,012757
2004,6414;0,013257
2005,6056;0,0137323
2006,5698;0,0140139
2007,5341;0,0140261
2008,4983;0,0138233
2009,4625;0,0135443
2010,4268;0,0133217
2011,3910;0,0132156
2012,3552;0,0132111
2013,3195;0,0132629
2014,2837;0,0133469
2015,2479;0,0134762
2016,2122;0,0136756
2017,1764;0,013936
2018,1406;0,0141934
2019,1049;0,0143543
2020,0691;0,0143515
2021,0333;0,0141871
2021,9976;0,013937
2022,9618;0,0137144
2023,9260;0,0136149
2024,8903;0,0136704
2025,8545;0,0138344
2026,8187;0,0140077
2027,7830;0,0140885
2028,7472;0,0140247
2029,7114;0,0138441
2030,6757;0,0136468
2031,6399;0,013559
2032,6041;0,0136659
2033,5684;0,0139606
2034,5326;0,0143444
2035,4968;0,0146855
2036,4611;0,0148956
2037,4253;0,0149734
2038,3895;0,0149871
2039,3538;0,0150153
2040,3180;0,0150888
2041,2822;0,0151739
2042,2465;0,0152041
2043,2107;0,0151368
2044,1749;0,0149909
2045,1392;0,01484
2046,1034;0,0147696
2047,0676;0,0148276
2048,0320;0,0149985
2048,9961;0,0152178
2049,9604;0,0154116
2050,9246;0,0155307
2051,8889;0,0155615
2052,8530;0,0155192
2053,8174;0,0154362
2054,7815;0,0153521
2055,7458;0,0153045
2056,7100;0,0153176
2057,6743;0,0153936
2058,6384;0,0155116
2059,6028;0,0156351
2060,5669;0,0157269
2061,5313;0,015764
2062,4954;0,015746
2063,4597;0,0156929
2064,4238;0,0156334
2065,3882;0,0155899
2066,3523;0,015568
2067,3167;0,0155586
2068,2808;0,0155474
2069,2451;0,0155282
2070,2092;0,0155082
2071,1736;0,0155048
2072,1377;0,0155345
2073,1021;0,0156014
2074,0662;0,0156925
2075,0305;0,0157817
2075,9946;0,0158403
2076,9590;0,0158485
2077,9231;0,015805
2078,8875;0,0157283
2079,8516;0,0156508
2080,8159;0,0156053
2081,7800;0,0156099
2082,7444;0,0156591
2083,7085;0,0157275
2084,6729;0,0157845
2085,6370;0,0158123
2086,6013;0,0158153
2087,5654;0,0158152
2088,5298;0,0158343
2089,4939;0,0158798
2090,4583;0,0159397
2091,4224;0,0159911
2092,3867;0,016015
2093,3508;0,0160053
2094,3152;0,0159684
2095,2793;0,0159154
2096,2437;0,0158565
2097,2078;0,0158005
2098,1721;0,0157583
2099,1362;0,015743
2100,1006;0,0157654
2101,0647;0,0158229
2102,0291;0,0159024
2102,9932;0,0159825
2103,9575;0,0160448
2104,9216;0,0160832
2105,8860;0,0161048
2106,8501;0,0161234
2107,8145;0,016151
2108,7786;0,0161925
2109,7429;0,0162445
2110,7070;0,0162973
2111,6714;0,0163375
2112,6355;0,0163506
2113,5999;0,0163263
2114,5640;0,016264
2115,5283;0,0161771
2116,4924;0,0160922
2117,4568;0,0160392
2118,4209;0,0160381
2119,3853;0,0160887
2120,3494;0,0161697
2121,3137;0,0162495
2122,2778;0,0163018
2123,2422;0,0163169
2124,2063;0,0163014
2125,1707;0,0162688
2126,1348;0,0162285
2127,0991;0,0161831
2128,0632;0,016135
2129,0276;0,0160956
2129,9917;0,0160871
2130,9561;0,0161325
2131,9202;0,0162381
2132,8845;0,0163809
2133,8486;0,0165126
2134,8130;0,0165828
2135,7771;0,0165679
2136,7415;0,0164862
2137,7056;0,0163881
2138,6699;0,0163269
2139,6340;0,016333
2140,5984;0,0164027
2141,5625;0,0165068
2142,5269;0,0166082
2143,4910;0,0166778
2144,4553;0,0167014
2145,4194;0,0166777
2146,3838;0,0166134
2147,3479;0,0165221
2148,3123;0,0164273
2149,2764;0,0163663
2150,2407;0,016386
2151,2048;0,0165264
2152,1692;0,016797
2153,1333;0,0171568
2154,0977;0,0175149
2155,0618;0,0177575
2156,0261;0,0177978
2156,9902;0,0176316
2157,9546;0,01736
2158,9187;0,0171409
2159,8831;0,0170851
2160,8472;0,0171865
2161,8115;0,0173502
2162,7756;0,0174758
2163,7400;0,0175212
2164,7041;0,0175116
2165,6685;0,0175075
2166,6326;0,0175545
2167,5969;0,0176496
2168,5610;0,0177394
2169,5254;0,0177513
2170,4895;0,0176351
2171,4539;0,0173956
2172,4180;0,0170984
2173,3823;0,0168443
2174,3464;0,0167191
2175,3108;0,0167437
2176,2749;0,0168579
2177,2393;0,016953
2178,2034;0,0169375
2179,1677;0,0167935
2180,1318;0,0165879
2181,0962;0,016429
2182,0603;0,0163953
2183,0247;0,0164823
2183,9888;0,0166092
2184,9531;0,0166783
2185,9172;0,0166409
2186,8816;0,016523
2187,8457;0,0163982
2188,8101;0,0163358
2189,7742;0,0163628
2190,7385;0,0164623
2191,7026;0,0165997
2192,6670;0,0167502
2193,6311;0,0169053
2194,5955;0,0170602
2195,5596;0,0171987
2196,5239;0,0172953
2197,4880;0,0173318
2198,4524;0,0173113
2199,4165;0,0172559
2200,3809;0,0171862
2201,3450;0,0171026
2202,3093;0,0169867
2203,2734;0,016824
2204,2378;0,0166297
2205,2019;0,016452
2206,1663;0,0163483
2207,1304;0,0163486
2208,0947;0,0164348
2209,0588;0,016551
2210,0232;0,0166385
2210,9873;0,0166679
2211,9517;0,0166487
2212,9158;0,0166132
2213,8801;0,0165899
2214,8442;0,0165865
2215,8086;0,0165915
2216,7727;0,0165861
2217,7371;0,0165569
2218,7012;0,0165022
2219,6655;0,0164322
2220,6296;0,0163678
2221,5940;0,0163359
2222,5581;0,01636
2223,5225;0,0164455
2224,4866;0,0165703
2225,4509;0,0166901
2226,4150;0,0167597
2227,3794;0,0167574
2228,3435;0,0166983
2229,3079;0,0166237
2230,2720;0,0165759
2231,2363;0,016577
2232,2004;0,0166251
2233,1648;0,0167052
2234,1289;0,0168019
2235,0933;0,016902
2236,0574;0,0169871
2237,0217;0,0170298
2237,9858;0,0170022
2238,9502;0,0168955
2239,9143;0,0167339
2240,8787;0,0165694
2241,8428;0,016457
2242,8071;0,0164254
2243,7712;0,0164642
2244,7356;0,0165359
2245,6997;0,0166028
2246,6641;0,0166488
2247,6282;0,0166803
2248,5925;0,0167115
2249,5566;0,0167468
2250,5210;0,0167771
2251,4851;0,0167923
2252,4495;0,016797
2253,4136;0,0168143
2254,3779;0,0168723
2255,3420;0,0169814
2256,3064;0,0171223
2257,2705;0,0172542
2258,2349;0,0173379
2259,1990;0,0173576
2260,1633;0,0173255
2261,1274;0,0172695
2262,0918;0,0172131
2263,0559;0,017165
2264,0203;0,0171219
2264,9844;0,0170819
2265,9487;0,0170536
2266,9128;0,0170521
2267,8772;0,0170856
2268,8413;0,0171444
2269,8057;0,0172034
2270,7698;0,0172366
2271,7341;0,0172338
2272,6982;0,0172068
2273,6626;0,0171787
2274,6267;0,0171669
2275,5911;0,0171699
2276,5552;0,0171689
2277,5195;0,0171429
2278,4836;0,0170844
2279,4480;0,0170064
2280,4121;0,0169358
2281,3765;0,0168999
2282,3406;0,0169148
2283,3049;0,0169822
2284,2690;0,0170929
2285,2334;0,0172322
2286,1975;0,0173837
2287,1619;0,0175319
2288,1260;0,017665
2289,0903;0,0177774
2290,0544;0,0178723
2291,0188;0,0179598
2291,9829;0,0180509
2292,9473;0,0181512
2293,9114;0,0182572
2294,8757;0,0183579
2295,8398;0,0184392
2296,8042;0,0184895
2297,7683;0,018502
2298,7327;0,0184749
2299,6968;0,0184118
2300,6611;0,0183231
2301,6252;0,018227
2302,5896;0,0181475
2303,5537;0,0181088
2304,5181;0,0181246
2305,4822;0,0181886
2306,4465;0,01827
2307,4106;0,0183207
2308,3750;0,0182919
2309,3391;0,0181557
2310,3035;0,0179201
2311,2676;0,0176289
2312,2319;0,0173439
2313,1960;0,0171186
2314,1604;0,0169756
2315,1245;0,016902
2316,0889;0,0168631
2317,0530;0,0168253
2318,0173;0,0167756
2318,9814;0,0167294
2319,9458;0,0167231
2320,9099;0,0167975
2321,8743;0,0169758
2322,8384;0,0172468
2323,8027;0,0175585
2324,7668;0,0178312
2325,7312;0,0179875
2326,6953;0,0179875
2327,6597;0,017852
2328,6238;0,0176592
2329,5881;0,0175149
2330,5522;0,0175071
2331,5166;0,0176666
2332,4807;0,0179547
2333,4451;0,0182864
2334,4092;0,0185749
2335,3735;0,018773
2336,3376;0,0188907
2337,3020;0,0189829
2338,2661;0,0191132
2339,2305;0,019306
2340,1946;0,019508
2341,1589;0,0195793
2342,1230;0,0193477
2343,0874;0,0187671
2344,0515;0,018096
2345,0159;0,0178029
2345,9800;0,0181557
2346,9443;0,018987
2347,9084;0,0198713
2348,8728;0,0204286
2349,8369;0,0204993
2350,8013;0,0201687
2351,7654;0,0196847
2352,7297;0,0193057
2353,6938;0,0191614
2354,6582;0,0192397
2355,6223;0,0194822
2356,5867;0,0198304
2357,5508;0,0201847
2358,5151;0,0203973
2359,4792;0,0203553
2360,4436;0,0200637
2361,4077;0,0196199
2362,3721;0,0191128
2363,3362;0,0185632
2364,3005;0,0179514
2365,2646;0,0172751
2366,2290;0,0165703
2367,1931;0,0158895
2368,1575;0,015274
2369,1216;0,0147459
2370,0859;0,0143143
2371,0500;0,0139831
2372,0144;0,0137552
2372,9785;0,0136353
2373,9429;0,0136327
2374,9070;0,0137589
2375,8713;0,0140203
2376,8354;0,0144087
2377,7998;0,0148954
2378,7639;0,0154332
2379,7283;0,015965
2380,6924;0,0164365
2381,6567;0,0168071
2382,6208;0,0170574
2383,5852;0,0171911
2384,5493;0,0172305
2385,5137;0,0172096
2386,4778;0,0171646
2387,4421;0,0171253
2388,4063;0,0171094
2389,3706;0,0171207
2390,3347;0,0171515
2391,2991;0,0171882
2392,2632;0,0172182
2393,2275;0,0172356
2394,1917;0,0172425
2395,1560;0,0172468
2396,1201;0,0172573
2397,0845;0,0172788
2398,0486;0,0173109
2399,0129;0,0173473
2399,9771;0,0173801
2400,9414;0,0174039
2401,9055;0,0174165
2402,8699;0,0174185
2403,8340;0,0174117
2404,7983;0,0173987
2405,7625;0,0173841
2406,7268;0,0173745
2407,6909;0,0173787
2408,6553;0,0174038
2409,6194;0,0174496
2410,5837;0,0175081
2411,5479;0,0175659
2412,5122;0,0176103
2413,4763;0,0176364
2414,4407;0,017649
2415,4048;0,0176594
2416,3691;0,0176784
2417,3333;0,0177107
2418,2976;0,0177532
2419,2617;0,0177987
2420,2261;0,01784
2421,1902;0,0178734
2422,1545;0,0178988
2423,1187;0,0179186
2424,0830;0,0179351
2425,0471;0,0179503
2426,0115;0,0179654
2426,9756;0,0179809
2427,9399;0,0179963
2428,9041;0,0180106
2429,8684;0,0180231
2430,8325;0,0180339
2431,7969;0,0180442
2432,7610;0,0180555
2433,7253;0,0180685
2434,6895;0,0180826
2435,6538;0,0180977
2436,6179;0,0181152
2437,5823;0,0181384
2438,5464;0,0181705
2439,5107;0,0182121
2440,4749;0,0182599
2441,4392;0,0183078
2442,4033;0,0183497
2443,3677;0,0183826
2444,3318;0,0184068
2445,2961;0,0184254
2446,2603;0,0184416
2447,2246;0,0184579
2448,1887;0,0184751
2449,1531;0,0184924
2450,1172;0,0185073
2451,0815;0,0185175
2452,0457;0,0185221
2453,0100;0,0185234
2453,9741;0,0185274
2454,9385;0,0185411
2455,9026;0,018569
2456,8669;0,0186095
2457,8311;0,018655
2458,7954;0,0186956
2459,7595;0,0187238
2460,7239;0,0187386
2461,6880;0,0187448
2462,6523;0,0187492
2463,6165;0,0187561
2464,5808;0,0187647
2465,5449;0,0187714
2466,5093;0,018773
2467,4734;0,018771
2468,4377;0,018771
2469,4019;0,0187804
2470,3662;0,0188035
2471,3303;0,0188389
2472,2947;0,0188807
2473,2588;0,0189219
2474,2231;0,0189583
2475,1873;0,0189889
2476,1516;0,0190143
2477,1157;0,019034
2478,0801;0,019046
2479,0442;0,0190485
2480,0085;0,0190424
2480,9727;0,0190323
2481,9370;0,0190248
2482,9011;0,0190259
2483,8655;0,0190382
2484,8296;0,0190619
2485,7939;0,0190955
2486,7581;0,0191363
2487,7224;0,0191792
2488,6865;0,0192166
2489,6509;0,019239
2490,6150;0,0192397
2491,5793;0,0192189
2492,5435;0,0191844
2493,5078;0,019149
2494,4719;0,0191259
2495,4363;0,019124
2496,4004;0,0191472
2497,3647;0,0191952
2498,3289;0,0192639
2499,2932;0,0193444
2500,2573;0,0194231
2501,2217;0,0194842
2502,1858;0,0195152
2503,1501;0,0195139
2504,1143;0,0194908
2505,0786;0,0194648
2506,0427;0,019455
2507,0071;0,0194704
2507,9712;0,0195065
2508,9355;0,019547
2509,8997;0,0195722
2510,8640;0,0195686
2511,8281;0,0195349
2512,7925;0,019483
2513,7566;0,0194329
2514,7209;0,0194045
2515,6851;0,0194093
2516,6494;0,0194466
2517,6135;0,019504
2518,5779;0,019564
2519,5420;0,0196109
2520,5063;0,019636
2521,4705;0,0196391
2522,4348;0,0196265
2523,3989;0,0196077
2524,3633;0,0195933
2525,3274;0,019592
2526,2917;0,019609
2527,2559;0,0196435
2528,2202;0,0196886
2529,1843;0,0197331
2530,1487;0,019766
2531,1128;0,0197809
2532,0771;0,0197786
2533,0413;0,019767
2534,0056;0,0197569
2534,9697;0,0197585
2535,9341;0,0197764
2536,8982;0,0198088
2537,8625;0,0198471
2538,8267;0,0198798
2539,7910;0,0198964
2540,7551;0,0198924
2541,7195;0,0198706
2542,6836;0,0198398
2543,6479;0,0198098
2544,6121;0,0197877
2545,5764;0,019776
2546,5405;0,0197743
2547,5049;0,0197816
2548,4690;0,0197981
2549,4333;0,0198234
2550,3975;0,0198548
2551,3618;0,0198862
2552,3259;0,0199099
2553,2903;0,0199205
2554,2544;0,0199179
2555,2188;0,0199071
2556,1829;0,0198957
2557,1472;0,0198898
2558,1113;0,0198911
2559,0757;0,0198975
2560,0398;0,0199058
2561,0042;0,0199145
2561,9683;0,019926
2562,9326;0,0199448
2563,8967;0,0199747
2564,8611;0,0200145
2565,8252;0,0200573
2566,7896;0,0200932
2567,7537;0,0201145
2568,7180;0,0201199
2569,6821;0,0201156
2570,6465;0,0201104
2571,6106;0,0201106
2572,5750;0,0201161
2573,5391;0,0201219
2574,5034;0,0201238
2575,4675;0,0201224
2576,4319;0,0201241
2577,3960;0,0201361
2578,3604;0,0201606
2579,3245;0,0201923
2580,2888;0,020221
2581,2529;0,0202385
2582,2173;0,0202438
2583,1814;0,0202437
2584,1458;0,0202479
2585,1099;0,0202624
2586,0742;0,0202865
2587,0383;0,0203139
2588,0027;0,0203382
2588,9668;0,0203574
2589,9312;0,020375
2590,8953;0,0203964
2591,8596;0,0204248
2592,8237;0,0204585
2593,7881;0,0204921
2594,7522;0,0205204
2595,7166;0,0205414
2596,6807;0,020557
2597,6450;0,0205702
2598,6091;0,0205821
2599,5735;0,0205915
2600,5376;0,0205971
2601,5020;0,0205997
2602,4661;0,0206042
2603,4304;0,0206167
2604,3945;0,02064
2605,3589;0,0206716
2606,3230;0,0207044
2607,2874;0,020732
2608,2515;0,0207531
2609,2158;0,0207724
2610,1799;0,0207971
2611,1443;0,020831
2612,1084;0,0208715
2613,0728;0,0209107
2614,0369;0,0209405
2615,0012;0,0209577
2615,9653;0,0209656
2616,9297;0,020972
2617,8938;0,0209847
2618,8582;0,0210079
2619,8223;0,021042
2620,7866;0,0210842
2621,7507;0,0211307
2622,7151;0,0211779
2623,6792;0,0212221
2624,6436;0,0212602
2625,6077;0,0212899
2626,5720;0,0213112
2627,5361;0,0213263
2628,5005;0,0213398
2629,4646;0,0213567
2630,4290;0,0213803
2631,3931;0,0214112
2632,3574;0,0214466
2633,3215;0,0214828
2634,2859;0,0215163
2635,2500;0,0215462
2636,2144;0,021574
2637,1785;0,0216018
2638,1428;0,0216306
2639,1069;0,0216596
2640,0713;0,0216874
2641,0354;0,0217138
2641,9998;0,0217409
2642,9639;0,0217716
2643,9282;0,0218071
2644,8923;0,0218445
2645,8567;0,0218788
2646,8208;0,0219054
2647,7852;0,0219241
2648,7493;0,0219394
2649,7136;0,021958
2650,6777;0,0219842
2651,6421;0,0220171
2652,6062;0,0220512
2653,5706;0,0220802
2654,5347;0,0221004
2655,4990;0,0221129
2656,4631;0,0221216
2657,4275;0,0221314
2658,3916;0,0221462
2659,3560;0,022168
2660,3201;0,0221967
2661,2844;0,0222301
2662,2485;0,0222642
2663,2129;0,0222939
2664,1770;0,0223153
2665,1414;0,0223273
2666,1055;0,0223333
2667,0698;0,0223389
2668,0339;0,0223498
2668,9983;0,0223683
2669,9624;0,022393
2670,9268;0,0224205
2671,8909;0,0224476
2672,8552;0,022473
2673,8193;0,0224972
2674,7837;0,0225209
2675,7478;0,0225443
2676,7122;0,0225671
2677,6763;0,0225893
2678,6406;0,0226121
2679,6047;0,0226382
2680,5691;0,0226707
2681,5332;0,0227117
2682,4976;0,0227607
2683,4617;0,0228148
2684,4260;0,0228683
2685,3901;0,0229149
2686,3545;0,0229493
2687,3186;0,0229695
2688,2830;0,0229782
2689,2471;0,0229819
2690,2114;0,0229891
2691,1755;0,0230073
2692,1399;0,0230397
2693,1040;0,0230847
2694,0684;0,0231364
2695,0325;0,0231872
2695,9968;0,0232309
2696,9609;0,0232641
2697,9253;0,0232878
2698,8894;0,0233058
2699,8538;0,0233232
2700,8179;0,0233444
2701,7822;0,0233719
2702,7463;0,0234059
2703,7107;0,0234449
2704,6748;0,0234865
2705,6392;0,0235284
2706,6033;0,0235689
2707,5676;0,0236078
2708,5317;0,0236459
2709,4961;0,0236846
2710,4602;0,0237255
2711,4246;0,0237692
2712,3887;0,023815
2713,3530;0,0238612
2714,3171;0,0239057
2715,2815;0,0239463
2716,2456;0,0239821
2717,2100;0,0240131
2718,1741;0,024041
2719,1384;0,0240677
2720,1025;0,0240953
2721,0669;0,0241242
2722,0310;0,0241533
2722,9954;0,0241804
2723,9595;0,0242039
2724,9238;0,0242241
2725,8879;0,0242436
2726,8523;0,0242666
2727,8164;0,0242965
2728,7808;0,0243342
2729,7449;0,0243776
2730,7092;0,0244224
2731,6733;0,0244635
2732,6377;0,0244968
2733,6018;0,0245205
2734,5662;0,0245358
2735,5303;0,0245465
2736,4946;0,0245578
2737,4587;0,0245748
2738,4231;0,0245998
2739,3872;0,0246322
2740,3516;0,0246689
2741,3157;0,0247058
2742,2800;0,0247401
2743,2441;0,0247702
2744,2085;0,0247954
2745,1726;0,0248156
2746,1370;0,0248313
2747,1011;0,0248449
2748,0654;0,0248605
2749,0295;0,0248828
2749,9939;0,0249144
2750,9580;0,0249541
2751,9224;0,0249969
2752,8865;0,0250366
2753,8508;0,025069
2754,8149;0,025094
2755,7793;0,0251148
2756,7434;0,0251355
2757,7078;0,0251584
2758,6719;0,0251838
2759,6362;0,0252105
2760,6003;0,0252377
2761,5647;0,0252661
2762,5288;0,0252967
2763,4932;0,0253294
2764,4573;0,0253631
2765,4216;0,0253963
2766,3857;0,0254294
2767,3501;0,0254652
2768,3142;0,0255071
2769,2786;0,0255565
2770,2427;0,0256104
2771,2070;0,0256618
2772,1711;0,0257042
2773,1355;0,0257358
2774,0996;0,025762
2775,0640;0,0257926
2776,0281;0,025836
2776,9924;0,0258941
2777,9565;0,0259617
2778,9209;0,0260299
2779,8850;0,0260919
2780,8494;0,026146
2781,8135;0,0261954
2782,7778;0,0262449
2783,7419;0,0262971
2784,7063;0,0263521
2785,6704;0,0264088
2786,6348;0,0264664
2787,5989;0,0265255
2788,5632;0,0265869
2789,5273;0,0266508
2790,4917;0,0267174
2791,4558;0,0267871
2792,4202;0,0268608
2793,3843;0,0269385
2794,3486;0,027018
2795,3127;0,0270949
2796,2771;0,0271653
2797,2412;0,0272286
2798,2056;0,0272897
2799,1697;0,0273564
2800,1340;0,0274361
2801,0981;0,0275308
2802,0625;0,0276368
2803,0266;0,0277469
2803,9910;0,0278542
2804,9551;0,0279555
2805,9194;0,0280509
2806,8835;0,0281431
2807,8479;0,0282351
2808,8120;0,0283295
2809,7764;0,0284281
2810,7405;0,028532
2811,7048;0,0286413
2812,6689;0,0287556
2813,6333;0,0288742
2814,5974;0,0289978
2815,5618;0,0291282
2816,5259;0,0292677
2817,4902;0,0294166
2818,4543;0,029572
2819,4187;0,0297292
2820,3828;0,0298839
2821,3472;0,0300356
2822,3113;0,0301883
2823,2756;0,0303483
2824,2397;0,0305213
2825,2041;0,0307092
2826,1682;0,030911
2827,1326;0,0311242
2828,0967;0,0313481
2829,0610;0,0315844
2830,0251;0,0318357
2830,9895;0,0321028
2831,9536;0,0323821
2832,9180;0,0326669
2833,8821;0,0329502
2834,8464;0,0332294
2835,8105;0,0335095
2836,7749;0,0338033
2837,7390;0,0341275
2838,7034;0,0344979
2839,6675;0,0349263
2840,6318;0,0354198
2841,5959;0,0359826
2842,5603;0,0366165
2843,5244;0,0373173
2844,4888;0,0380676
2845,4529;0,0388299
2846,4172;0,0395459
2847,3813;0,0401466
2848,3457;0,0405699
2849,3098;0,0407807
2850,2742;0,0407826
2851,2383;0,0406162
2852,2026;0,0403455
2853,1667;0,040038
2854,1311;0,0397478
2855,0952;0,0395067
2856,0596;0,0393253
2857,0237;0,0392009
2857,9880;0,0391264
2858,9521;0,0390967
2859,9165;0,0391094
2860,8806;0,0391621
2861,8450;0,0392497
2862,8091;0,0393636
2863,7734;0,0394949
2864,7375;0,0396384
2865,7019;0,0397939
2866,6660;0,0399638
2867,6304;0,040148
2868,5945;0,0403394
2869,5588;0,0405248
2870,5229;0,0406896
2871,4873;0,040825
2872,4514;0,0409324
2873,4158;0,041022
2874,3799;0,0411081
2875,3442;0,0412025
2876,3083;0,0413102
2877,2727;0,0414295
2878,2368;0,0415551
2879,2012;0,0416813
2880,1653;0,0418046
2881,1296;0,041923
2882,0938;0,042036
2883,0581;0,0421431
2884,0222;0,0422444
2884,9866;0,0423409
2885,9507;0,0424358
2886,9150;0,0425337
2887,8792;0,042639
2888,8435;0,0427539
2889,8076;0,0428761
2890,7720;0,043
2891,7361;0,0431188
2892,7004;0,0432282
2893,6646;0,0433282
2894,6289;0,0434231
2895,5930;0,0435188
2896,5574;0,0436204
2897,5215;0,0437301
2898,4858;0,043847
2899,4500;0,0439688
2900,4143;0,0440933
2901,3784;0,044219
2902,3428;0,0443469
2903,3069;0,0444795
2904,2712;0,0446217
2905,2354;0,0447796
2906,1997;0,0449614
2907,1638;0,0451779
2908,1282;0,045444
2909,0923;0,0457782
2910,0566;0,0461983
2911,0208;0,0467129
2911,9851;0,0473106
2912,9492;0,0479523
2913,9136;0,0485744
2914,8777;0,0491012
2915,8420;0,0494662
2916,8062;0,0496307
2917,7705;0,0495916
2918,7346;0,0493768
2919,6990;0,0490309
2920,6631;0,0485991
2921,6274;0,0481182
2922,5916;0,0476147
2923,5559;0,0471082
2924,5200;0,0466143
2925,4844;0,0461452
2926,4485;0,0457078
2927,4128;0,0453025
2928,3770;0,044925
2929,3413;0,0445701
2930,3054;0,0442344
2931,2698;0,0439172
2932,2339;0,0436192
2933,1982;0,0433403
2934,1624;0,0430774
2935,1267;0,0428255
2936,0908;0,0425786
2937,0552;0,0423302
2938,0193;0,042075
2938,9836;0,0418084
2939,9478;0,0415282
2940,9121;0,0412346
2941,8762;0,0409312
2942,8406;0,0406241
2943,8047;0,0403196
2944,7690;0,0400231
2945,7332;0,0397376
2946,6975;0,0394639
2947,6616;0,0392016
2948,6260;0,0389499
2949,5901;0,0387077
2950,5544;0,0384739
2951,5186;0,0382471
2952,4829;0,0380259
2953,4470;0,0378093
2954,4114;0,0375961
2955,3755;0,0373845
2956,3398;0,0371712
2957,3040;0,0369532
2958,2683;0,036729
2959,2324;0,0365011
2960,1968;0,0362756
2961,1609;0,0360593
2962,1252;0,0358562
2963,0894;0,0356642
2964,0537;0,0354762
2965,0178;0,0352838
2965,9822;0,0350819
2966,9463;0,0348715
2967,9106;0,0346584
2968,8748;0,0344494
2969,8391;0,0342486
2970,8032;0,0340562
2971,7676;0,03387
2972,7317;0,0336887
2973,6960;0,033513
2974,6602;0,0333455
2975,6245;0,0331879
2976,5886;0,033039
2977,5530;0,0328952
2978,5171;0,0327528
2979,4814;0,0326109
2980,4456;0,0324721
2981,4099;0,0323417
2982,3740;0,0322241
2983,3384;0,0321207
2984,3025;0,0320302
2985,2668;0,0319503
2986,2310;0,0318794
2987,1953;0,0318178
2988,1594;0,0317662
2989,1238;0,031724
2990,0879;0,0316896
2991,0522;0,0316609
2992,0164;0,0316368
2992,9807;0,0316176
2993,9448;0,0316042
2994,9092;0,0315969
2995,8733;0,0315949
2996,8376;0,0315977
2997,8018;0,0316062
2998,7661;0,0316229
2999,7302;0,0316497
3000,6946;0,0316863
3001,6587;0,0317291
3002,6230;0,0317726
3003,5872;0,0318126
3004,5515;0,0318485
3005,5156;0,0318824
3006,4800;0,0319171
3007,4441;0,0319536
3008,4084;0,0319902
3009,3726;0,0320242
3010,3369;0,0320542
3011,3010;0,0320811
3012,2654;0,0321075
3013,2295;0,0321358
3014,1938;0,0321675
3015,1580;0,0322033
3016,1223;0,0322451
3017,0864;0,0322958
3018,0508;0,0323594
3019,0149;0,0324372
3019,9792;0,0325265
3020,9434;0,0326194
3021,9077;0,0327061
3022,8718;0,0327801
3023,8362;0,0328422
3024,8003;0,0329019
3025,7646;0,032973
3026,7288;0,0330662
3027,6931;0,0331821
3028,6572;0,0333097
3029,6216;0,0334305
3030,5857;0,0335286
3031,5500;0,0335988
3032,5142;0,0336498
3033,4785;0,0336985
3034,4426;0,0337607
3035,4070;0,0338425
3036,3711;0,0339392
3037,3354;0,0340402
3038,2996;0,034136
3039,2639;0,0342238
3040,2280;0,0343079
3041,1924;0,0343969
3042,1565;0,0344991
3043,1208;0,0346195
3044,0850;0,0347573
3045,0493;0,0349057
3046,0134;0,0350538
3046,9778;0,0351898
3047,9419;0,0353062
3048,9063;0,0354039
3049,8704;0,0354931
3050,8347;0,0355886
3051,7988;0,0357027
3052,7632;0,0358394
3053,7273;0,0359934
3054,6917;0,0361545
3055,6558;0,0363132
3056,6201;0,0364653
3057,5842;0,0366121
3058,5486;0,0367576
3059,5127;0,0369053
3060,4771;0,0370565
3061,4412;0,0372095
3062,4055;0,0373604
3063,3696;0,0375033
3064,3340;0,0376328
3065,2981;0,0377466
3066,2625;0,0378478
3067,2266;0,0379451
3068,1909;0,0380487
3069,1550;0,0381659
3070,1194;0,0382977
3071,0835;0,0384397
3072,0479;0,0385863
3073,0120;0,038735
3073,9763;0,0388869
3074,9404;0,0390444
3075,9048;0,0392065
3076,8689;0,0393675
3077,8333;0,0395183
3078,7974;0,0396517
3079,7617;0,0397664
3080,7258;0,0398683
3081,6902;0,0399681
3082,6543;0,0400758
3083,6187;0,0401972
3084,5828;0,0403313
3085,5471;0,0404719
3086,5112;0,040611
3087,4756;0,0407439
3088,4397;0,0408721
3089,4041;0,041004
3090,3682;0,0411504
3091,3325;0,0413183
3092,2966;0,0415066
3093,2610;0,041705
3094,2251;0,0418986
3095,1895;0,0420753
3096,1536;0,042231
3097,1179;0,0423703
3098,0820;0,0425024
3099,0464;0,0426355
3100,0105;0,0427733
3100,9749;0,0429149
3101,9390;0,0430577
3102,9033;0,0432002
3103,8674;0,0433434
3104,8318;0,0434905
3105,7959;0,0436452
3106,7603;0,0438107
3107,7244;0,043988
3108,6887;0,0441759
3109,6528;0,044371
3110,6172;0,0445683
3111,5813;0,0447623
3112,5457;0,0449477
3113,5098;0,0451208
3114,4741;0,0452795
3115,4382;0,0454246
3116,4026;0,0455605
3117,3667;0,0456949
3118,3311;0,0458365
3119,2952;0,0459924
3120,2595;0,0461643
3121,2236;0,0463474
3122,1880;0,0465321
3123,1521;0,0467092
3124,1165;0,046874
3125,0806;0,0470288
3126,0449;0,0471809
3127,0090;0,0473381
3127,9734;0,0475046
3128,9375;0,0476802
3129,9019;0,0478616
3130,8660;0,0480458
3131,8303;0,0482319
3132,7944;0,0484207
3133,7588;0,0486123
3134,7229;0,0488048
3135,6873;0,0489945
3136,6514;0,0491775
3137,6157;0,0493521
3138,5798;0,0495204
3139,5442;0,0496873
3140,5083;0,0498583
3141,4727;0,0500376
3142,4368;0,0502257
3143,4011;0,0504206
3144,3652;0,0506192
3145,3296;0,0508191
3146,2937;0,05102
3147,2581;0,0512226
3148,2222;0,0514273
3149,1865;0,0516324
3150,1506;0,0518338
3151,1150;0,0520275
3152,0791;0,052212
3153,0435;0,0523899
3154,0076;0,0525665
3154,9719;0,0527467
3155,9360;0,0529321
3156,9004;0,0531213
3157,8645;0,0533122
3158,8289;0,0535049
3159,7930;0,0537022
3160,7573;0,0539073
3161,7214;0,0541204
3162,6858;0,0543377
3163,6499;0,054553
3164,6143;0,0547621
3165,5784;0,0549646
3166,5427;0,0551632
3167,5068;0,055361
3168,4712;0,0555588
3169,4353;0,0556686
3170,3997;0,0558647
3171,3638;0,0560622
3172,3281;0,0562638
3173,2922;0,0564704
3174,2566;0,0566798
3175,2207;0,0568875
3176,1851;0,0570893
3177,1492;0,057284
3178,1135;0,0574732
3179,0776;0,0576591
3180,0420;0,0578423
3181,0061;0,0580223
3181,9705;0,0582004
3182,9346;0,0583809
3183,8989;0,0585707
3184,8630;0,0587748
3185,8274;0,058992
3186,7915;0,0592152
3187,7559;0,0594339
3188,7200;0,0596403
3189,6843;0,0598323
3190,6484;0,0600134
3191,6128;0,0601886
3192,5769;0,0603618
3193,5413;0,0605338
3194,5054;0,0607043
3195,4697;0,060874
3196,4338;0,0610456
3197,3982;0,0612224
3198,3623;0,0614064
3199,3267;0,0615972
3200,2908;0,0617924
3201,2551;0,0619892
3202,2192;0,062186
3203,1836;0,0623818
3204,1477;0,0625753
3205,1121;0,0627641
3206,0762;0,0629455
3207,0405;0,0631182
3208,0046;0,0632847
3208,9690;0,0634498
3209,9331;0,0636192
3210,8975;0,0637955
3211,8616;0,0639769
3212,8259;0,0641576
3213,7900;0,0643314
3214,7544;0,0644948
3215,7185;0,0646483
3216,6829;0,0647956
3217,6470;0,0649409
3218,6113;0,0650866
3219,5754;0,0652338
3220,5398;0,065383
3221,5039;0,0655359
3222,4683;0,065695
3223,4324;0,0658621
3224,3967;0,066037
3225,3608;0,0662168
3226,3252;0,066398
3227,2893;0,0665771
3228,2537;0,0667522
3229,2178;0,0669226
3230,1821;0,0670879
3231,1462;0,067248
3232,1106;0,0674029
3233,0747;0,0675542
3234,0391;0,0677042
3235,0032;0,0678561
3235,9675;0,0680113
3236,9316;0,0681701
3237,8960;0,0683316
3238,8601;0,0684952
3239,8245;0,0686611
3240,7886;0,0688295
3241,7529;0,0689991
3242,7170;0,0691671
3243,6814;0,0693305
3244,6455;0,0694886
3245,6099;0,0696447
3246,5740;0,0698055
3247,5383;0,0699768
3248,5024;0,0701604
3249,4668;0,0703522
3250,4309;0,0705439
3251,3953;0,0707267
3252,3594;0,070895
3253,3237;0,0710486
3254,2878;0,0711917
3255,2522;0,0713308
3256,2163;0,0714718
3257,1807;0,0716188
3258,1448;0,0717743
3259,1091;0,0719397
3260,0732;0,0721154
3261,0376;0,0723003
3262,0017;0,0724907
3262,9661;0,0726805
3263,9302;0,0728631
3264,8945;0,0730358
3265,8586;0,0732016
3266,8230;0,0733683
3267,7871;0,0735443
3268,7515;0,0737309
3269,7156;0,0739186
3270,6799;0,0740893
3271,6440;0,0742244
3272,6084;0,0743153
3273,5725;0,0743697
3274,5369;0,0744087
3275,5010;0,0744571
3276,4653;0,0745305
3277,4294;0,0746297
3278,3938;0,074742
3279,3579;0,0748508
3280,3223;0,074944
3281,2864;0,0750191
3282,2507;0,0750814
3283,2148;0,0751394
3284,1792;0,0751984
3285,1433;0,075259
3286,1077;0,0753182
3287,0718;0,0753726
3288,0361;0,0754214
3289,0002;0,075467
3289,9646;0,0755124
3290,9287;0,0755591
3291,8931;0,0756046
3292,8572;0,075644
3293,8215;0,0756735
3294,7856;0,0756937
3295,7500;0,0757102
3296,7141;0,0757308
3297,6785;0,0757611
3298,6426;0,0758009
3299,6069;0,0758448
3300,5710;0,0758869
3301,5354;0,0759248
3302,4995;0,0759611
3303,4639;0,0760007
3304,4280;0,0760457
3305,3923;0,0760933
3306,3564;0,0761367
3307,3208;0,0761704
3308,2849;0,0761931
3309,2493;0,0762089
3310,2134;0,0762241
3311,1777;0,0762433
3312,1418;0,0762686
3313,1062;0,0763009
3314,0703;0,0763427
3315,0347;0,0763986
3315,9988;0,0764734
3316,9631;0,0765687
3317,9272;0,076681
3318,8916;0,0768027
3319,8557;0,0769252
3320,8201;0,0770433
3321,7842;0,0771562
3322,7485;0,0772661
3323,7126;0,0773752
3324,6770;0,0774824
3325,6411;0,0775835
3326,6055;0,077673
3327,5696;0,0777483
3328,5339;0,0778117
3329,4980;0,0778697
3330,4624;0,0779284
3331,4265;0,0779896
3332,3909;0,078048
3333,3550;0,0780935
3334,3193;0,0781168
3335,2834;0,0781143
3336,2478;0,0780909
3337,2119;0,0780565
3338,1763;0,0780193
3339,1404;0,0779811
3340,1047;0,0779367
3341,0688;0,0778785
3342,0332;0,0778029
3342,9973;0,0777133
3343,9617;0,0776181
3344,9258;0,0775249
3345,8901;0,0774357
3346,8542;0,0773451
3347,8186;0,0772439
3348,7827;0,0771246
3349,7471;0,0769852
3350,7112;0,0768302
3351,6755;0,0766691
3352,6396;0,0765131
3353,6040;0,0763725
3354,5681;0,0762541
3355,5325;0,0761591
3356,4966;0,0760815
3357,4609;0,0760092
3358,4250;0,0759278
3359,3894;0,0758266
3360,3535;0,0757027
3361,3179;0,0755612
3362,2820;0,0754113
3363,2463;0,0752603
3364,2104;0,0751106
3365,1748;0,0749606
3366,1389;0,0748089
3367,1033;0,0746577
3368,0674;0,0745114
3369,0317;0,0743734
3369,9958;0,0742416
3370,9602;0,0741088
3371,9243;0,0739663
3372,8887;0,0738094
3373,8528;0,0736397
3374,8171;0,0734641
3375,7813;0,0732909
3376,7456;0,073126
3377,7097;0,0729721
3378,6741;0,0728288
3379,6382;0,0726927
3380,6025;0,0725574
3381,5667;0,0724138
3382,5310;0,0722544
3383,4951;0,0720792
3384,4595;0,0719
3385,4236;0,0717379
3386,3879;0,0716121
3387,3521;0,0715274
3388,3164;0,0714682
3389,2805;0,0714046
3390,2449;0,0713069
3391,2090;0,0711609
3392,1733;0,0709748
3393,1375;0,0707732
3394,1018;0,0705816
3395,0659;0,0704132
3396,0303;0,0702647
3396,9944;0,0701216
3397,9587;0,0699676
3398,9229;0,0697929
3399,8872;0,0695966
3400,8513;0,0693859
3401,8157;0,0691726
3402,7798;0,0689685
3403,7441;0,0687812
3404,7083;0,0686107
3405,6726;0,0684494
3406,6367;0,0682859
3407,6011;0,0681109
3408,5652;0,067921
3409,5295;0,0677193
3410,4937;0,0675117
3411,4580;0,0673041
3412,4221;0,0671011
3413,3865;0,0669074
3414,3506;0,066727
3415,3149;0,0665614
3416,2791;0,0664061
3417,2434;0,0662485
3418,2075;0,0660714
3419,1719;0,0658603
3420,1360;0,0656115
3421,1003;0,0653352
3422,0645;0,0650506
3423,0288;0,0647765
3423,9929;0,0645238
3424,9573;0,0642939
3425,9214;0,0640815
3426,8857;0,0638786
3427,8499;0,0636769
3428,8142;0,0634685
3429,7783;0,0632468
3430,7427;0,0630076
3431,7068;0,0627514
3432,6711;0,0624841
3433,6353;0,0622158
3434,5996;0,0619567
3435,5637;0,0617121
3436,5281;0,0614798
3437,4922;0,0612528
3438,4565;0,0610255
3439,4207;0,0607987
3440,3850;0,06058
3441,3491;0,0603764
3442,3135;0,0601843
3443,2776;0,0599859
3444,2419;0,0597557
3445,2061;0,0594751
3446,1704;0,0591472
3447,1345;0,0587991
3448,0989;0,0584667
3449,0630;0,0581735
3450,0273;0,0579179
3450,9915;0,0576795
3451,9558;0,0574366
3452,9199;0,0571809
3453,8843;0,056921
3454,8484;0,0566736
3455,8127;0,0564495
3456,7769;0,0562456
3457,7412;0,056047
3458,7053;0,055836
3459,6697;0,0556021
3460,6338;0,0553451
3461,5981;0,0550727
3462,5623;0,0547945
3463,5266;0,0545173
3464,4907;0,0542433
3465,4551;0,0539725
3466,4192;0,0537053
3467,3835;0,0534436
3468,3477;0,0531897
3469,3120;0,0529437
3470,2761;0,0527027
3471,2405;0,0524614
3472,2046;0,0522168
3473,1689;0,0519722
3474,1331;0,0517374
3475,0974;0,0515234
3476,0615;0,0513336
3477,0259;0,051157
3477,9900;0,0509708
3478,9543;0,0507506
3479,9185;0,050484
3480,8828;0,05018
3481,8469;0,0498662
3482,8113;0,0495732
3483,7754;0,0493158
3484,7397;0,0490861
3485,7039;0,048862
3486,6682;0,0486234
3487,6323;0,0483659
3488,5967;0,0481024
3489,5608;0,0478534
3490,5251;0,0476305
3491,4893;0,0474283
3492,4536;0,0472286
3493,4177;0,047014
3494,3821;0,0467816
3495,3462;0,0465476
3496,3105;0,0463369
3497,2747;0,0461643
3498,2390;0,0460197
3499,2031;0,0458708
3500,1675;0,0456797
3501,1316;0,0454248
3502,0959;0,0451174
3503,0601;0,044799
3504,0244;0,0445155
3504,9885;0,0442855
3505,9529;0,0440894
3506,9170;0,0438861
3507,8813;0,0436397
3508,8455;0,0433409
3509,8098;0,0430107
3510,7739;0,0426863
3511,7383;0,0423971
3512,7024;0,0421506
3513,6667;0,0419369
3514,6309;0,0417435
3515,5952;0,0415671
3516,5593;0,041413
3517,5237;0,0412862
3518,4878;0,0411818
3519,4521;0,0410831
3520,4163;0,0409692
3521,3806;0,0408247
3522,3447;0,0406459
3523,3091;0,0404377
3524,2732;0,0402045
3525,2375;0,0399432
3526,2017;0,0396461
3527,1660;0,0393133
3528,1301;0,0389642
3529,0945;0,0386337
3530,0586;0,0383544
3531,0229;0,0381345
3531,9871;0,0379526
3532,9514;0,0377708
3533,9155;0,037555
3534,8799;0,0372934
3535,8440;0,0370041
3536,8083;0,0367289
3537,7725;0,0365134
3538,7368;0,0363838
3539,7009;0,0363348
3540,6653;0,0363312
3541,6294;0,0363177
3542,5938;0,0362335
3543,5579;0,0360327
3544,5222;0,0357117
3545,4863;0,0353241
3546,4507;0,034956
3547,4148;0,0346692
3548,3792;0,0344621
3549,3433;0,0342811
3550,3076;0,0340634
3551,2717;0,0337788
3552,2361;0,0334496
3553,2002;0,0331359
3554,1646;0,0328919
3555,1287;0,0327288
3556,0930;0,0326151
3557,0571;0,0325101
3558,0215;0,0323993
3558,9856;0,0323077
3559,9500;0,0322804
3560,9141;0,0323424
3561,8784;0,0324646
3562,8425;0,0325601
3563,8069;0,0325053
3564,7710;0,0321784
3565,7354;0,0315326
3566,6995;0,0306887
3567,6638;0,0299156
3568,6279;0,0294337
3569,5923;0,0292598
3570,5564;0,0292598
3571,5208;0,0292802
3572,4849;0,0292263
3573,4492;0,0290759
3574,4133;0,0288575
3575,3777;0,028616
3576,3418;0,0283837
3577,3062;0,0281758
3578,2703;0,0280066
3579,2346;0,0279039
3580,1987;0,0279005
3581,1631;0,0280044
3582,1272;0,028175
3583,0916;0,0283243
3584,0557;0,0283415
3585,0200;0,0281297
3585,9841;0,0276661
3586,9485;0,0270708
3587,9126;0,0265822
3588,8770;0,0263843
3589,8411;0,0264687
3590,8054;0,0266825
3591,7695;0,0268557
3592,7339;0,0268828
3593,6980;0,0267503
3594,6624;0,0265236
3595,6265;0,026293
3596,5908;0,0261038
3597,5549;0,0259315
3598,5193;0,0257221
3599,4834;0,0254564
3600,4478;0,0251786
3601,4119;0,024965
3602,3762;0,0248572
3603,3403;0,024825
3604,3047;0,024785
3605,2688;0,0246467
3606,2332;0,0243551
3607,1973;0,0239215
3608,1616;0,023426
3609,1257;0,0229773
3610,0901;0,0226532
3611,0542;0,0224765
3612,0186;0,0224306
3612,9827;0,0224809
3613,9470;0,0225773
3614,9111;0,0226511
3615,8755;0,0226223
3616,8396;0,0224261
3617,8040;0,0220588
3618,7681;0,0216215
3619,7324;0,0213046
3620,6965;0,0212711
3621,6609;0,0215358
3622,6250;0,0219666
3623,5894;0,0223762
3624,5535;0,0225984
3625,5178;0,0225136
3626,4819;0,0220562
3627,4463;0,0212562
3628,4104;0,0203239
3629,3748;0,0196012
3630,3389;0,0192784
3631,3032;0,019248
3632,2673;0,0192756
3633,2317;0,0191939
3634,1958;0,0189642
3635,1602;0,0186447
3636,1243;0,0183233
3637,0886;0,0180566
3638,0527;0,0178532
3639,0171;0,0177006
3639,9812;0,0176031
3640,9456;0,0175904
3641,9097;0,0176923
3642,8740;0,0179048
3643,8381;0,018178
3644,8025;0,0184257
3645,7666;0,0185294
3646,7310;0,0183234
3647,6951;0,0176361
3648,6594;0,0165339
3649,6235;0,0154961
3650,5879;0,0149772
3651,5520;0,0149634
3652,5164;0,0151526
3653,4805;0,0152641
3654,4448;0,0151606
3655,4089;0,0148598
3656,3733;0,0144968
3657,3374;0,0142293
3658,3018;0,0141239
3659,2659;0,014132
3660,2302;0,0141696
3661,1943;0,0142023
3662,1587;0,0142635
3663,1228;0,0144059
3664,0872;0,0146356
3665,0513;0,0148931
3666,0156;0,0150869
3666,9797;0,0151492
3667,9441;0,0150764
3668,9082;0,0149444
3669,8726;0,0148721
3670,8367;0,0149192
3671,8010;0,0150179
3672,7651;0,0150208
3673,7295;0,0148026
3674,6936;0,0143477
3675,6580;0,0138057
3676,6221;0,0134179
3677,5864;0,0133074
3678,5505;0,0134042
3679,5149;0,0135777
3680,4790;0,0137607
3681,4434;0,0139631
3682,4075;0,0142165
3683,3718;0,0145178
3684,3359;0,0148144
3685,3003;0,0150333
3686,2644;0,0151187
3687,2288;0,0150501
3688,1929;0,0148496
3689,1572;0,0145989
3690,1213;0,0144248
3691,0857;0,0144085
3692,0498;0,0145302
3693,0142;0,0147203
3693,9783;0,014924
3694,9426;0,0151153
3695,9067;0,0152787
3696,8711;0,0153919
3697,8352;0,0154267
3698,7996;0,0153664
3699,7637;0,0152269
3700,7280;0,0150678
3701,6921;0,0149785
3702,6565;0,0150343
3703,6206;0,0152498
3704,5850;0,0155724
3705,5491;0,0159153
3706,5134;0,0161892
3707,4775;0,0163087
3708,4419;0,0161787
3709,4060;0,0157091
3710,3704;0,0149129
3711,3345;0,0140222
3712,2988;0,0133813
3713,2629;0,013174
3714,2273;0,0133437
3715,1914;0,0137254
3716,1558;0,0141736
3717,1199;0,014607
3718,0842;0,0150008
3719,0483;0,01536
3720,0127;0,0156922
3720,9768;0,0159888
3721,9412;0,016225
3722,9053;0,0163776
3723,8696;0,0164493
3724,8337;0,016481
3725,7981;0,0165334
3726,7622;0,0166481
3727,7266;0,0168219
3728,6907;0,0170173
3729,6550;0,01719
3730,6191;0,0173034
3731,5835;0,0173148
3732,5476;0,0171501
3733,5120;0,0167194
3734,4761;0,0160345
3735,4404;0,0153245
3736,4045;0,0149066
3737,3689;0,0149065
3738,3330;0,0151895
3739,2974;0,0155039
3740,2615;0,0156231
3741,2258;0,0154146
3742,1899;0,0148813
3743,1543;0,0142004
3744,1184;0,0136933
3745,0828;0,0136154
3746,0469;0,0139257
3747,0112;0,0143357
3747,9753;0,0145286
3748,9397;0,014307
3749,9038;0,0136853
3750,8682;0,0129583
3751,8323;0,0125399
3752,7966;0,012593
3753,7607;0,0129462
3754,7251;0,0133243
3755,6892;0,013531
3756,6536;0,0134949
3757,6177;0,0132609
3758,5820;0,0129627
3759,5461;0,0127533
3760,5105;0,012714
3761,4746;0,0128221
3762,4390;0,0129953
3763,4031;0,013152
3764,3674;0,0132406
3765,3315;0,0132412
3766,2959;0,0131548
3767,2600;0,0129934
3768,2244;0,0127785
3769,1885;0,0125497
3770,1528;0,0123682
3771,1169;0,0122967
3772,0813;0,0123612
3773,0454;0,0125314
3774,0098;0,0127371
3774,9739;0,0129031
3775,9382;0,0129771
3776,9023;0,0129457
3777,8667;0,0128396
3778,8308;0,0127251
3779,7952;0,0126699
3780,7593;0,012698
3781,7236;0,0127787
3782,6877;0,0128536
3783,6521;0,0128735
3784,6162;0,0128212
3785,5806;0,0127161
3786,5447;0,0126027
3787,5090;0,0125283
3788,4731;0,0125214
3789,4375;0,0125827
3790,4016;0,0126908
3791,3660;0,012819
3792,3301;0,0129548
3793,2944;0,0131091
3794,2585;0,0133068
3795,2229;0,0135595
3796,1870;0,0138378
3797,1514;0,014069
3798,1155;0,0141663
3799,0798;0,0140752
3800,0439;0,0138205
3801,0083;0,0135167
3801,9724;0,013298
3802,9368;0,0132009
3803,9009;0,0131315
3804,8652;0,0129593
3805,8293;0,0126385
3806,7937;0,0122729
3807,7578;0,0120622
3808,7222;0,012142
3809,6863;0,0124712
3810,6506;0,012884
3811,6147;0,0132192
3812,5791;0,0134052
3813,5432;0,0134791
3814,5076;0,0135508
3815,4717;0,0137204
3816,4360;0,0139876
3817,4001;0,0142326
3818,3645;0,014291
3819,3286;0,0140634
3820,2930;0,0136038
3821,2571;0,0131208
3822,2214;0,0128323
3823,1855;0,0128005
3824,1499;0,0129319
3825,1140;0,013093
3826,0784;0,0132013
3827,0425;0,0132461
3828,0068;0,0132661
3828,9709;0,0133118
3829,9353;0,0134168
3830,8994;0,0135867
3831,8638;0,0138025
3832,8279;0,0140264
3833,7922;0,0142089
3834,7563;0,0142977
3835,7207;0,0142524
3836,6848;0,0140648
3837,6492;0,0137764
3838,6133;0,0134711
3839,5776;0,0132236
3840,5417;0,0130494
3841,5061;0,0129165
3842,4702;0,0128032
3843,4346;0,0127415
3844,3987;0,0128048
3845,3630;0,0130536
3846,3271;0,0134819
3847,2915;0,014007
3848,2556;0,0144991
3849,2200;0,0148142
3850,1841;0,0148081
3851,1484;0,0143449
3852,1125;0,0133901
3853,0769;0,012247
3854,0410;0,0115199
3855,0054;0,0115207
3855,9695;0,0120378
3856,9338;0,0127074
3857,8979;0,0132861
3858,8623;0,0136782
3859,8264;0,0138829
3860,7908;0,0139431
3861,7549;0,0139146
3862,7192;0,0138524
3863,6833;0,0138061
3864,6477;0,0138053
3865,6118;0,0138432
3866,5762;0,013883
3867,5403;0,0138795
3868,5046;0,0137986
3869,4688;0,0136287
3870,4331;0,0133922
3871,3972;0,0131483
3872,3616;0,0129698
3873,3257;0,0129052
3874,2900;0,0129566
3875,2542;0,0130863
3876,2185;0,0132418
3877,1826;0,0133799
3878,1470;0,0134812
3879,1111;0,0135475
3880,0754;0,0135853
3881,0396;0,0135856
3882,0039;0,0135194
3882,9680;0,0133636
3883,9324;0,0131415
3884,8965;0,0129367
3885,8608;0,0128475
3886,8250;0,012909
3887,7893;0,0130586
3888,7534;0,0131801
3889,7178;0,0131825
3890,6819;0,0130652
3891,6462;0,0129319
3892,6104;0,0129215
3893,5747;0,0130946
3894,5388;0,0133951
3895,5032;0,0137135
3896,4673;0,013963
3897,4316;0,0141085
3898,3958;0,0141523
3899,3601;0,0141064
3900,3242;0,013971
3901,2886;0,013736
3902,2527;0,0134081
3903,2170;0,0130386
3904,1812;0,0127173
3905,1455;0,0125192
3906,1096;0,012457
3907,0740;0,012488
3908,0381;0,0125566
3909,0024;0,0126309
3909,9666;0,0127095
3910,9309;0,0128061
3911,8950;0,0129268
3912,8594;0,013056
3913,8235;0,0131597
3914,7878;0,0132028
3915,7520;0,0131722
3916,7163;0,0130929
3917,6804;0,0130223
3918,6448;0,0130147
3919,6089;0,0130816
3920,5732;0,0131848
3921,5374;0,0132661
3922,5017;0,0132864
3923,4658;0,01325
3924,4302;0,0132037
3925,3943;0,0132031
3926,3586;0,0132704
3927,3228;0,0133772
3928,2871;0,0134629
3929,2512;0,0134685
3930,2156;0,0133665
3931,1797;0,0131787
3932,1440;0,0129698
3933,1082;0,0128122
3934,0725;0,0127466
3935,0366;0,0127715
3936,0010;0,0128587
3936,9651;0,0129733
3937,9294;0,0130839
3938,8936;0,0131659
3939,8579;0,0132041
3940,8220;0,0131985
3941,7864;0,0131675
3942,7505;0,0131409
3943,7148;0,0131426
3944,6790;0,0131739
3945,6433;0,0132134
3946,6074;0,0132314
3947,5718;0,0132087
3948,5359;0,0131465
3949,5002;0,013065
3950,4644;0,0129893
3951,4287;0,0129339
3952,3928;0,0128991
3953,3572;0,0128783
3954,3213;0,0128681
3955,2856;0,0128698
3956,2498;0,0128849
3957,2141;0,0129089
3958,1782;0,0129303
3959,1426;0,0129359
3960,1067;0,0129187
3961,0710;0,0128831
3962,0352;0,0128428
3962,9995;0,0128139
3963,9636;0,0128064
3964,9280;0,0128199
3965,8921;0,0128462
3966,8564;0,0128754
3967,8206;0,0129015
3968,7849;0,0129248
3969,7490;0,0129491
3970,7134;0,0129767
3971,6775;0,0130035
3972,6418;0,0130191
3973,6060;0,013012
3974,5703;0,0129771
3975,5344;0,0129211
3976,4988;0,0128606
3977,4629;0,0128146
3978,4272;0,0127949
3979,3914;0,0128015
3980,3557;0,0128231
3981,3198;0,0128447
3982,2842;0,0128562
3983,2483;0,0128579
3984,2126;0,0128589
3985,1768;0,0128689
3986,1411;0,0128907
3987,1052;0,0129172
3988,0696;0,0129356
3989,0337;0,0129363
3989,9980;0,0129188
3990,9622;0,0128922
3991,9265;0,0128686
3992,8906;0,0128551
3993,8550;0,0128505
3994,8191;0,0128477
3995,7834;0,0128401
3996,7476;0,0128267
3997,7119;0,0128117
3998,6760;0,0128016
3999,6404;0,0128008
4000,6045;0,0129517

##### Extended Information
[Comments]
Sample name
Comment
Username
Division
Organization;UNIVERSIDAD INDUSTRIAL DE SANTANDER

[Detailed Information]
Creation date;14/03/2025 2:23 p.m.

Data array type;Linear data array
Horizontal axis;Wavenumber [cm-1]
Vertical axis;Abs
Start;399,193 cm-1
End;4000,6 cm-1
Data interval;0,964233 cm-1
Data points;3736    

[Measurement Information]
Model name;FT/IR-4X1typeA
Serial No.;A035162111

Accessory;ATR PRO 4X
Accessory S/N;A021162126
Incident angle;45 deg

Measurement date;14/03/2025 2:23 p.m.

Light source;Standard
Detector;TGS
Accumulation;40
Resolution;4 cm-1
Zero filling;On
Apodization;Cosine
Gain;Auto (8)
Aperture;Auto (7 mm)
Scan speed;Auto (2 mm/sec)
Filter;Auto (12800 Hz)

