TITLE;
DATA TYPE;INFRARED SPECTRUM
ORIGIN;JASCO
OWNER;
DATE;25/03/14
TIME;15:16:43
SPECTROMETER/DATA SYSTEM;
LOCALE;9226
RESOLUTION;
DELTAX;0,964233
XUNITS;1/CM
YUNITS;ABSORBANCE
FIRSTX;  399,1927
LASTX; 4000,6047
NPOINTS;    3736
FIRSTY;     0,20209
MAXY;     0,29232
MINY;     0,01356
XYDATA
399,1927;0,202093
400,1569;0,202312
401,1211;0,201922
402,0854;0,201229
403,0496;0,200529
404,0138;0,199999
404,9781;0,199668
405,9423;0,199453
406,9065;0,199252
407,8708;0,199069
408,8350;0,199059
409,7992;0,199452
410,7635;0,200379
411,7277;0,201738
412,6919;0,203226
413,6562;0,204522
414,6204;0,205453
415,5846;0,206018
416,5489;0,206325
417,5131;0,206517
418,4773;0,206718
419,4416;0,206996
420,4058;0,207383
421,3700;0,207914
422,3343;0,208627
423,2985;0,209507
424,2627;0,210454
425,2270;0,211284
426,1912;0,211818
427,1554;0,211995
428,1197;0,211918
429,0839;0,211801
430,0481;0,211857
431,0124;0,2122
431,9766;0,212801
432,9408;0,21352
433,9051;0,214194
434,8693;0,214721
435,8335;0,215094
436,7978;0,215353
437,7620;0,215508
438,7262;0,215502
439,6905;0,215235
440,6547;0,214636
441,6189;0,213742
442,5832;0,212731
443,5474;0,211878
444,5116;0,211409
445,4759;0,211388
446,4401;0,211698
447,4043;0,212116
448,3686;0,212403
449,3328;0,212367
450,2970;0,211922
451,2613;0,211124
452,2255;0,210168
453,1897;0,209331
454,1540;0,208863
455,1182;0,208903
456,0824;0,209407
457,0467;0,210132
458,0109;0,210706
458,9751;0,210827
459,9394;0,210433
460,9036;0,209684
461,8678;0,208801
462,8321;0,207955
463,7963;0,207258
464,7605;0,206797
465,7248;0,206656
466,6890;0,20689
467,6532;0,20748
468,6175;0,208297
469,5817;0,209125
470,5459;0,209716
471,5102;0,209916
472,4744;0,209773
473,4386;0,209533
474,4029;0,209478
475,3671;0,209737
476,3313;0,210223
477,2956;0,210724
478,2598;0,211033
479,2240;0,211056
480,1883;0,210851
481,1525;0,210585
482,1167;0,210439
483,0810;0,210522
484,0452;0,210834
485,0094;0,211297
485,9737;0,211826
486,9379;0,212385
487,9021;0,212976
488,8664;0,213606
489,8306;0,214241
490,7948;0,214799
491,7591;0,215193
492,7233;0,215383
493,6875;0,215417
494,6518;0,2154
495,6160;0,215438
496,5802;0,215581
497,5445;0,21581
498,5087;0,216062
499,4729;0,216271
500,4372;0,216399
501,4014;0,216454
502,3656;0,216476
503,3299;0,216503
504,2941;0,216558
505,2583;0,216644
506,2226;0,216767
507,1868;0,216958
508,1510;0,217264
509,1153;0,217733
510,0795;0,21839
511,0437;0,219222
512,0080;0,220185
512,9722;0,221214
513,9365;0,222233
514,9007;0,223151
515,8649;0,223861
516,8292;0,224267
517,7934;0,224324
518,7576;0,22409
519,7219;0,223704
520,6861;0,223324
521,6503;0,223051
522,6146;0,222917
523,5788;0,222907
524,5430;0,222988
525,5073;0,223128
526,4715;0,223296
527,4357;0,223453
528,4000;0,223546
529,3642;0,223527
530,3284;0,223367
531,2927;0,223066
532,2569;0,222649
533,2211;0,222158
534,1854;0,221636
535,1496;0,221132
536,1138;0,220703
537,0781;0,220411
538,0423;0,220296
539,0065;0,220351
539,9708;0,22051
540,9350;0,22069
541,8992;0,22084
542,8635;0,220984
543,8277;0,221209
544,7919;0,221606
545,7562;0,222206
546,7204;0,222947
547,6846;0,223705
548,6489;0,224372
549,6131;0,224917
550,5773;0,225393
551,5416;0,225903
552,5058;0,226533
553,4700;0,227315
554,4343;0,228197
555,3985;0,229057
556,3627;0,229719
557,3270;0,230005
558,2912;0,229776
559,2554;0,22899
560,2197;0,227713
561,1839;0,226107
562,1481;0,224368
563,1124;0,222659
564,0766;0,221063
565,0408;0,219591
566,0051;0,218226
566,9693;0,216975
567,9335;0,215887
568,8978;0,21503
569,8620;0,214433
570,8262;0,214056
571,7905;0,213808
572,7547;0,213594
573,7189;0,213352
574,6832;0,213073
575,6474;0,212779
576,6116;0,21249
577,5759;0,212205
578,5401;0,21191
579,5043;0,211599
580,4686;0,211296
581,4328;0,211043
582,3970;0,21088
583,3613;0,210814
584,3255;0,210819
585,2897;0,210845
586,2540;0,210854
587,2182;0,210834
588,1824;0,210797
589,1467;0,21076
590,1109;0,210725
591,0751;0,210669
592,0394;0,210555
593,0036;0,21035
593,9678;0,210041
594,9321;0,209636
595,8963;0,209152
596,8605;0,208613
597,8248;0,208046
598,7890;0,207485
599,7532;0,206973
600,7175;0,206543
601,6817;0,206206
602,6459;0,205942
603,6102;0,205703
604,5744;0,205434
605,5386;0,20509
606,5029;0,204647
607,4671;0,204098
608,4313;0,203449
609,3956;0,202705
610,3598;0,201877
611,3240;0,200984
612,2883;0,200054
613,2525;0,199114
614,2167;0,198173
615,1810;0,197212
616,1452;0,196189
617,1094;0,195062
618,0737;0,193816
619,0379;0,192478
620,0021;0,191103
620,9664;0,189739
621,9306;0,188416
622,8948;0,187138
623,8591;0,185909
624,8233;0,184754
625,7875;0,183673
626,7518;0,182694
627,7160;0,181827
628,6802;0,181054
629,6445;0,180323
630,6087;0,179569
631,5729;0,178739
632,5372;0,177818
633,5014;0,176833
634,4656;0,175843
635,4299;0,174914
636,3941;0,174086
637,3583;0,173363
638,3226;0,172713
639,2868;0,172089
640,2510;0,17145
641,2153;0,170776
642,1795;0,17007
643,1437;0,169355
644,1080;0,16866
645,0722;0,168013
646,0364;0,167434
647,0007;0,166932
647,9649;0,166504
648,9291;0,166138
649,8934;0,165827
650,8576;0,165577
651,8218;0,165407
652,7861;0,165339
653,7503;0,165387
654,7145;0,165549
655,6788;0,165815
656,6430;0,166168
657,6072;0,166587
658,5715;0,167025
659,5357;0,167399
660,4999;0,167613
661,4642;0,167618
662,4284;0,167469
663,3926;0,167301
664,3569;0,167229
665,3211;0,167229
666,2853;0,167054
667,2496;0,166287
668,2138;0,164697
669,1780;0,162611
670,1423;0,16052
671,1065;0,158593
672,0707;0,156782
673,0350;0,154987
673,9992;0,153122
674,9634;0,151163
675,9277;0,149178
676,8919;0,147281
677,8561;0,145549
678,8204;0,14399
679,7846;0,142581
680,7488;0,141321
681,7131;0,140225
682,6773;0,139299
683,6415;0,138519
684,6058;0,137838
685,5700;0,137217
686,5342;0,136639
687,4985;0,136109
688,4627;0,135629
689,4269;0,135197
690,3912;0,134804
691,3554;0,134437
692,3196;0,134087
693,2839;0,133752
694,2481;0,133431
695,2123;0,133118
696,1766;0,132805
697,1408;0,132477
698,1050;0,132121
699,0693;0,131727
700,0335;0,131294
700,9977;0,130831
701,9620;0,130349
702,9262;0,129851
703,8904;0,12934
704,8547;0,128804
705,8189;0,128235
706,7831;0,127635
707,7474;0,127019
708,7116;0,126407
709,6758;0,125805
710,6401;0,125201
711,6043;0,124565
712,5685;0,123868
713,5328;0,1231
714,4970;0,122276
715,4612;0,12173
716,4255;0,120816
717,3897;0,119877
718,3539;0,118908
719,3182;0,117907
720,2824;0,11688
721,2466;0,115839
722,2109;0,114795
723,1751;0,113744
724,1393;0,112673
725,1036;0,11158
726,0678;0,110481
727,0320;0,109412
727,9963;0,108412
728,9605;0,107505
729,9247;0,10668
730,8890;0,105906
731,8532;0,105147
732,8174;0,104387
733,7817;0,103637
734,7459;0,102923
735,7101;0,102275
736,6744;0,101707
737,6386;0,101208
738,6028;0,100749
739,5671;0,100295
740,5313;0,0998183
741,4955;0,099306
742,4598;0,0987629
743,4240;0,0982032
744,3882;0,0976412
745,3525;0,0970852
746,3167;0,0965347
747,2809;0,095982
748,2452;0,0954167
749,2094;0,0948304
750,1736;0,0942224
751,1379;0,0936019
752,1021;0,092988
753,0663;0,0924032
754,0306;0,0918653
754,9948;0,0913803
755,9590;0,09094
756,9233;0,0905261
757,8875;0,0901166
758,8517;0,0896929
759,8160;0,089244
760,7802;0,0887692
761,7444;0,0882791
762,7087;0,0877937
763,6729;0,0873362
764,6371;0,086923
765,6014;0,0865547
766,5656;0,0862124
767,5298;0,0858656
768,4941;0,0854872
769,4583;0,0850681
770,4225;0,0846238
771,3868;0,0841872
772,3510;0,0837927
773,3152;0,0834608
774,2795;0,0831905
775,2437;0,0829643
776,2079;0,0827593
777,1722;0,0825582
778,1364;0,0823523
779,1006;0,0821367
780,0649;0,0819028
781,0291;0,0816346
781,9933;0,0813134
782,9576;0,080927
783,9218;0,0804788
784,8860;0,0799892
785,8503;0,079489
786,8145;0,0790075
787,7787;0,0785633
788,7430;0,0781607
789,7072;0,0777951
790,6714;0,0774598
791,6357;0,0771518
792,5999;0,0768718
793,5641;0,0766208
794,5284;0,0763956
795,4926;0,0761875
796,4568;0,0759851
797,4211;0,0757788
798,3853;0,0755639
799,3495;0,0753414
800,3138;0,0751157
801,2780;0,0748926
802,2422;0,0746768
803,2065;0,0744709
804,1707;0,0742746
805,1349;0,0740846
806,0992;0,073897
807,0634;0,0737102
808,0276;0,0735282
808,9919;0,073359
809,9561;0,0732102
810,9203;0,0730821
811,8846;0,072966
812,8488;0,0728489
813,8130;0,0727225
814,7773;0,0725911
815,7415;0,0724709
816,7057;0,0723809
817,6700;0,0723315
818,6342;0,0723173
819,5984;0,0723205
820,5627;0,0723207
821,5269;0,0723054
822,4911;0,0722743
823,4554;0,0722361
824,4196;0,0722005
825,3839;0,0721727
826,3481;0,0721518
827,3123;0,0721328
828,2766;0,0721085
829,2408;0,0720689
830,2050;0,0719998
831,1693;0,0718839
832,1335;0,0717068
833,0977;0,0714655
834,0620;0,0711741
835,0262;0,0708601
835,9904;0,0705532
836,9547;0,0702714
837,9189;0,0700142
838,8831;0,0697676
839,8474;0,0695173
840,8116;0,0692603
841,7758;0,0690079
842,7401;0,068776
843,7043;0,0685721
844,6685;0,0683866
845,6328;0,0681976
846,5970;0,067985
847,5612;0,0677457
848,5255;0,0674992
849,4897;0,067279
850,4539;0,0671137
851,4182;0,0670099
852,3824;0,0669462
853,3466;0,0668848
854,3109;0,0667917
855,2751;0,0666559
856,2393;0,0664944
857,2036;0,0663416
858,1678;0,0662291
859,1320;0,0661701
860,0963;0,0661568
861,0605;0,0661695
862,0247;0,0661917
862,9890;0,0662184
863,9532;0,0662564
864,9174;0,0663173
865,8817;0,0664118
866,8459;0,0665468
867,8101;0,0667258
868,7744;0,0669485
869,7386;0,0672089
870,7028;0,0674939
871,6671;0,0677859
872,6313;0,0680693
873,5955;0,0683361
874,5598;0,0685872
875,5240;0,0688281
876,4882;0,069063
877,4525;0,0692935
878,4167;0,0695235
879,3809;0,0697656
880,3452;0,0700441
881,3094;0,070391
882,2736;0,0708362
883,2379;0,0713986
884,2021;0,0720826
885,1663;0,0728792
886,1306;0,073771
887,0948;0,0747367
888,0590;0,0757536
889,0233;0,0768001
889,9875;0,0778567
890,9517;0,0789057
891,9160;0,0799279
892,8802;0,0808982
893,8444;0,0817822
894,8087;0,0825382
895,7729;0,0831235
896,7371;0,0835053
897,7014;0,0836685
898,6656;0,0836181
899,6298;0,0833768
900,5941;0,0829777
901,5583;0,082458
902,5225;0,081854
903,4868;0,0811983
904,4510;0,0805204
905,4152;0,0798479
906,3795;0,079209
907,3437;0,0786342
908,3079;0,0781538
909,2722;0,0777923
910,2364;0,0775615
911,2007;0,0774557
912,1649;0,0774543
913,1292;0,0775306
914,0934;0,0776637
915,0576;0,0778467
916,0219;0,0780864
916,9861;0,0783952
917,9503;0,0787791
918,9146;0,0792303
919,8788;0,0797262
920,8430;0,080235
921,8073;0,0807244
922,7715;0,0811686
923,7357;0,081552
924,7000;0,08187
925,6642;0,0821284
926,6284;0,0823411
927,5927;0,0825272
928,5569;0,0827051
929,5211;0,0828867
930,4854;0,0830747
931,4496;0,0832634
932,4138;0,0834462
933,3781;0,0836236
934,3423;0,0838098
935,3065;0,0840319
936,2708;0,0843226
937,2350;0,0847092
938,1992;0,0852042
939,1635;0,0858026
940,1277;0,0864865
941,0919;0,0872365
942,0562;0,0880411
943,0204;0,0889016
943,9846;0,0898285
944,9489;0,0908321
945,9131;0,0919153
946,8773;0,0930714
947,8416;0,0942905
948,8058;0,095567
949,7700;0,0969049
950,7343;0,0983154
951,6985;0,0998094
952,6627;0,101391
953,6270;0,10306
954,5912;0,104814
955,5554;0,106658
956,5197;0,108604
957,4839;0,110665
958,4481;0,112842
959,4124;0,115116
960,3766;0,117457
961,3408;0,119833
962,3051;0,122222
963,2693;0,124619
964,2335;0,127037
965,1978;0,129498
966,1620;0,132027
967,1262;0,134649
968,0905;0,137389
969,0547;0,140273
970,0189;0,143324
970,9832;0,14656
971,9474;0,150002
972,9116;0,153677
973,8759;0,157622
974,8401;0,161881
975,8043;0,166486
976,7686;0,171434
977,7328;0,17667
978,6970;0,182087
979,6613;0,187535
980,6255;0,192851
981,5897;0,197882
982,5540;0,202506
983,5182;0,206643
984,4824;0,210261
985,4467;0,213377
986,4109;0,216048
987,3751;0,218355
988,3394;0,220384
989,3036;0,222199
990,2678;0,22383
991,2321;0,225282
992,1963;0,226542
993,1605;0,227605
994,1248;0,228485
995,0890;0,229212
996,0532;0,229828
997,0175;0,230369
997,9817;0,230861
998,9459;0,231324
999,9102;0,231783
1000,8744;0,232277
1001,8386;0,232861
1002,8029;0,233597
1003,7671;0,234542
1004,7313;0,235734
1005,6956;0,237195
1006,6598;0,238937
1007,6240;0,240974
1008,5883;0,243322
1009,5525;0,245984
1010,5167;0,24893
1011,4810;0,25209
1012,4452;0,255361
1013,4094;0,258625
1014,3737;0,261783
1015,3379;0,264773
1016,3021;0,267571
1017,2664;0,270177
1018,2306;0,272599
1019,1948;0,274849
1020,1591;0,276937
1021,1233;0,278882
1022,0875;0,280714
1023,0518;0,282466
1024,0160;0,284164
1024,9802;0,285813
1025,9445;0,287392
1026,9087;0,288862
1027,8729;0,290165
1028,8372;0,291233
1029,8014;0,291986
1030,7656;0,292324
1031,7299;0,29214
1032,6941;0,291338
1033,6583;0,289862
1034,6226;0,287738
1035,5868;0,285091
1036,5510;0,282134
1037,5153;0,279133
1038,4795;0,276357
1039,4437;0,274016
1040,4080;0,272237
1041,3722;0,271047
1042,3364;0,270386
1043,3007;0,270144
1044,2649;0,270185
1045,2291;0,270377
1046,1934;0,270607
1047,1576;0,270779
1048,1218;0,270808
1049,0861;0,270614
1050,0503;0,270127
1051,0145;0,26929
1051,9788;0,268081
1052,9430;0,26651
1053,9072;0,264611
1054,8715;0,262419
1055,8357;0,259934
1056,7999;0,257111
1057,7642;0,253866
1058,7284;0,250121
1059,6926;0,245844
1060,6569;0,241093
1061,6211;0,236018
1062,5853;0,230826
1063,5496;0,225733
1064,5138;0,220906
1065,4780;0,216444
1066,4423;0,212369
1067,4065;0,208651
1068,3707;0,205235
1069,3350;0,202059
1070,2992;0,199065
1071,2634;0,196194
1072,2277;0,193386
1073,1919;0,190578
1074,1561;0,18771
1075,1204;0,184748
1076,0846;0,181688
1077,0488;0,178573
1078,0131;0,17548
1078,9773;0,172506
1079,9415;0,169743
1080,9058;0,167259
1081,8700;0,165087
1082,8342;0,163226
1083,7985;0,161653
1084,7627;0,160335
1085,7269;0,159242
1086,6912;0,158344
1087,6554;0,157616
1088,6196;0,157038
1089,5839;0,156596
1090,5481;0,156288
1091,5123;0,15612
1092,4766;0,156099
1093,4408;0,156223
1094,4050;0,156473
1095,3693;0,156815
1096,3335;0,157211
1097,2977;0,157628
1098,2620;0,158043
1099,2262;0,158444
1100,1904;0,158817
1101,1547;0,159135
1102,1189;0,159361
1103,0831;0,159455
1104,0474;0,159395
1105,0116;0,159186
1105,9758;0,158858
1106,9401;0,158445
1107,9043;0,157956
1108,8685;0,157358
1109,8328;0,15657
1110,7970;0,155492
1111,7612;0,154044
1112,7255;0,152207
1113,6897;0,150043
1114,6539;0,14768
1115,6182;0,14528
1116,5824;0,142986
1117,5466;0,140893
1118,5109;0,139022
1119,4751;0,137329
1120,4393;0,135724
1121,4036;0,134096
1122,3678;0,132342
1123,3320;0,130386
1124,2963;0,128198
1125,2605;0,12579
1126,2247;0,123206
1127,1890;0,12051
1128,1532;0,117763
1129,1174;0,115016
1130,0817;0,112304
1131,0459;0,109652
1132,0101;0,10708
1132,9744;0,104614
1133,9386;0,102284
1134,9028;0,100133
1135,8671;0,0982094
1136,8313;0,0965648
1137,7955;0,0952419
1138,7598;0,0942656
1139,7240;0,0936368
1140,6882;0,0933304
1141,6525;0,0933014
1142,6167;0,093494
1143,5809;0,0938526
1144,5452;0,0943299
1145,5094;0,0948918
1146,4736;0,0955182
1147,4379;0,0962009
1148,4021;0,0969387
1149,3663;0,0977311
1150,3306;0,0985709
1151,2948;0,0994389
1152,2590;0,100303
1153,2233;0,101121
1154,1875;0,101846
1155,1517;0,102427
1156,1160;0,102814
1157,0802;0,102949
1158,0444;0,102765
1159,0087;0,102183
1159,9729;0,101122
1160,9371;0,099513
1161,9014;0,0973214
1162,8656;0,0945618
1163,8298;0,0913074
1164,7941;0,087683
1165,7583;0,0838471
1166,7225;0,0799652
1167,6868;0,0761851
1168,6510;0,0726178
1169,6152;0,0693314
1170,5795;0,0663552
1171,5437;0,0636922
1172,5079;0,0613321
1173,4722;0,0592602
1174,4364;0,0574606
1175,4006;0,0559135
1176,3649;0,0545932
1177,3291;0,0534687
1178,2933;0,0525076
1179,2576;0,051682
1180,2218;0,050972
1181,1860;0,0503657
1182,1503;0,0498568
1183,1145;0,0494411
1184,0787;0,0491148
1185,0430;0,0488765
1186,0072;0,0487284
1186,9714;0,0486779
1187,9357;0,0487348
1188,8999;0,0489068
1189,8641;0,0491941
1190,8284;0,049588
1191,7926;0,050073
1192,7568;0,0506325
1193,7211;0,0512535
1194,6853;0,0519282
1195,6495;0,0526507
1196,6138;0,0534121
1197,5780;0,0541967
1198,5422;0,054984
1199,5065;0,0557223
1200,4707;0,0564613
1201,4349;0,0571569
1202,3992;0,0578028
1203,3634;0,0583917
1204,3276;0,0589142
1205,2919;0,059362
1206,2561;0,0597346
1207,2203;0,0600464
1208,1846;0,0603278
1209,1488;0,0606212
1210,1130;0,0609717
1211,0773;0,0614163
1212,0415;0,0619768
1213,0057;0,0626573
1213,9700;0,0634475
1214,9342;0,0643286
1215,8984;0,0652784
1216,8627;0,0662734
1217,8269;0,0672895
1218,7911;0,0683031
1219,7554;0,0692944
1220,7196;0,0702512
1221,6838;0,0711716
1222,6481;0,0720617
1223,6123;0,0729295
1224,5765;0,0737787
1225,5408;0,0746049
1226,5050;0,075398
1227,4692;0,0761474
1228,4335;0,0768476
1229,3977;0,0774986
1230,3619;0,0781018
1231,3262;0,078655
1232,2904;0,0791495
1233,2546;0,0795721
1234,2189;0,0799125
1235,1831;0,0801689
1236,1473;0,0803519
1237,1116;0,08048
1238,0758;0,0805728
1239,0400;0,080643
1240,0043;0,0806928
1240,9685;0,080716
1241,9327;0,0807029
1242,8970;0,0806456
1243,8612;0,0805397
1244,8254;0,0803819
1245,7897;0,0801687
1246,7539;0,0798961
1247,7181;0,0795634
1248,6824;0,0791772
1249,6466;0,0787525
1250,6108;0,0783091
1251,5751;0,077866
1252,5393;0,0774361
1253,5035;0,0770242
1254,4678;0,0766288
1255,4320;0,076245
1256,3962;0,0758659
1257,3605;0,075482
1258,3247;0,0750815
1259,2889;0,0746513
1260,2532;0,0741817
1261,2174;0,0736692
1262,1816;0,0731174
1263,1459;0,0725336
1264,1101;0,0719242
1265,0743;0,0712919
1266,0386;0,0706351
1267,0028;0,0699512
1267,9670;0,0692401
1268,9313;0,0685058
1269,8955;0,0677564
1270,8597;0,0670005
1271,8240;0,0662456
1272,7882;0,0654966
1273,7524;0,0647586
1274,7167;0,0640388
1275,6809;0,0633463
1276,6451;0,0626882
1277,6094;0,0620641
1278,5736;0,061462
1279,5378;0,0608621
1280,5021;0,0602458
1281,4663;0,0596055
1282,4305;0,0589491
1283,3948;0,0582968
1284,3590;0,0576726
1285,3232;0,0570975
1286,2875;0,0565878
1287,2517;0,0561567
1288,2159;0,0558158
1289,1802;0,0555728
1290,1444;0,0554279
1291,1086;0,0553718
1292,0729;0,0553899
1293,0371;0,0554709
1294,0013;0,0556128
1294,9656;0,0558244
1295,9298;0,0561195
1296,8940;0,0565084
1297,8583;0,0569917
1298,8225;0,0575596
1299,7867;0,0581954
1300,7510;0,0588817
1301,7152;0,0596056
1302,6794;0,060362
1303,6437;0,0611541
1304,6079;0,061991
1305,5721;0,0628817
1306,5364;0,0638283
1307,5006;0,064822
1308,4648;0,0658454
1309,4291;0,0668772
1310,3933;0,0678969
1311,3575;0,0688849
1312,3218;0,0698179
1313,2860;0,0706657
1314,2502;0,0713912
1315,2145;0,0719547
1316,1787;0,0723223
1317,1429;0,0724755
1318,1072;0,072421
1319,0714;0,0721949
1320,0356;0,0718555
1320,9999;0,0714642
1321,9641;0,0710681
1322,9283;0,0706947
1323,8926;0,0703578
1324,8568;0,0700662
1325,8210;0,0698278
1326,7853;0,0696464
1327,7495;0,0695177
1328,7137;0,0694271
1329,6780;0,0693511
1330,6422;0,0692629
1331,6064;0,0691375
1332,5707;0,0689543
1333,5349;0,0686979
1334,4991;0,0683543
1335,4634;0,0679083
1336,4276;0,067346
1337,3918;0,0666659
1338,3561;0,0658975
1339,3203;0,0651068
1340,2845;0,0643724
1341,2488;0,0637433
1342,2130;0,0632214
1343,1772;0,0627795
1344,1415;0,0623911
1345,1057;0,0620495
1346,0699;0,0617699
1347,0342;0,0615804
1347,9984;0,0615074
1348,9626;0,0615624
1349,9269;0,0617359
1350,8911;0,0620024
1351,8553;0,0623305
1352,8196;0,0626959
1353,7838;0,0630895
1354,7480;0,0635167
1355,7123;0,0639872
1356,6765;0,0645016
1357,6407;0,0650453
1358,6050;0,065595
1359,5692;0,0661297
1360,5334;0,0666385
1361,4977;0,0671227
1362,4619;0,0675925
1363,4261;0,0680589
1364,3904;0,0685248
1365,3546;0,0689824
1366,3188;0,0694167
1367,2831;0,0698087
1368,2473;0,0701363
1369,2115;0,0703738
1370,1758;0,0704925
1371,1400;0,0704617
1372,1042;0,070255
1373,0685;0,069865
1374,0327;0,0693225
1374,9969;0,068694
1375,9612;0,0680405
1376,9254;0,0673723
1377,8896;0,0666472
1378,8539;0,0658136
1379,8181;0,064859
1380,7823;0,0638297
1381,7466;0,0628023
1382,7108;0,0618297
1383,6750;0,0609066
1384,6393;0,0599838
1385,6035;0,0590216
1386,5677;0,0580493
1387,5320;0,0571752
1388,4962;0,0565116
1389,4604;0,0560882
1390,4247;0,0558502
1391,3889;0,0557181
1392,3531;0,0556359
1393,3174;0,0555838
1394,2816;0,0555663
1395,2458;0,0555912
1396,2101;0,055654
1397,1743;0,0557405
1398,1385;0,0558427
1399,1028;0,055965
1400,0670;0,0561164
1401,0313;0,0562993
1401,9955;0,056509
1402,9597;0,0567414
1403,9240;0,0570019
1404,8882;0,0573048
1405,8524;0,0576621
1406,8167;0,0580722
1407,7809;0,058522
1408,7451;0,0590019
1409,7094;0,059517
1410,6736;0,060083
1411,6378;0,0607087
1412,6021;0,0613787
1413,5663;0,0620563
1414,5305;0,0627023
1415,4948;0,0632928
1416,4590;0,0638246
1417,4232;0,0643093
1418,3875;0,0647605
1419,3517;0,0651783
1420,3159;0,0655393
1421,2802;0,0658017
1422,2444;0,0659236
1423,2086;0,0658839
1424,1729;0,065694
1425,1371;0,0653864
1426,1013;0,064982
1427,0656;0,0644645
1428,0298;0,0637908
1428,9940;0,0629437
1429,9583;0,0619829
1430,9225;0,0610273
1431,8867;0,0601669
1432,8510;0,0593919
1433,8152;0,0586041
1434,7794;0,0576894
1435,7437;0,0566252
1436,7079;0,0555589
1437,6721;0,0547221
1438,6364;0,0542253
1439,6006;0,0540036
1440,5648;0,0539335
1441,5291;0,053931
1442,4933;0,0539695
1443,4575;0,0540564
1444,4218;0,0542038
1445,3860;0,0544103
1446,3502;0,0546632
1447,3145;0,0549501
1448,2787;0,055267
1449,2429;0,0556134
1450,2072;0,0559812
1451,1714;0,0563478
1452,1356;0,0566801
1453,0999;0,0569372
1454,0641;0,0570636
1455,0283;0,0569766
1455,9926;0,0565925
1456,9568;0,0559726
1457,9210;0,0554173
1458,8853;0,0551646
1459,8495;0,0551581
1460,8137;0,0552105
1461,7780;0,0551506
1462,7422;0,0548401
1463,7064;0,0541871
1464,6707;0,0532165
1465,6349;0,0521067
1466,5991;0,0510624
1467,5634;0,0501471
1468,5276;0,0492703
1469,4918;0,0482655
1470,4561;0,0469515
1471,4203;0,0452014
1472,3845;0,0430845
1473,3488;0,0409555
1474,3130;0,0392141
1475,2772;0,0379708
1476,2415;0,0370871
1477,2057;0,0363953
1478,1699;0,0357937
1479,1342;0,035237
1480,0984;0,0347114
1481,0626;0,0342235
1482,0269;0,0337961
1482,9911;0,0334569
1483,9553;0,0332184
1484,9196;0,0330655
1485,8838;0,0329593
1486,8480;0,0328547
1487,8123;0,0327332
1488,7765;0,0326394
1489,7407;0,0326693
1490,7050;0,0328821
1491,6692;0,0332494
1492,6334;0,0337027
1493,5977;0,03419
1494,5619;0,0346908
1495,5261;0,0352092
1496,4904;0,0357629
1497,4546;0,0363693
1498,4188;0,0370326
1499,3831;0,0377344
1500,3473;0,0384388
1501,3115;0,0391044
1502,2758;0,0396916
1503,2400;0,040159
1504,2042;0,0404448
1505,1685;0,0404391
1506,1327;0,0400111
1507,0969;0,0392375
1508,0612;0,0385263
1509,0254;0,0381384
1509,9896;0,0379747
1510,9539;0,037858
1511,9181;0,0376773
1512,8823;0,0373791
1513,8466;0,0369452
1514,8108;0,0363902
1515,7750;0,035763
1516,7393;0,0351267
1517,7035;0,0345183
1518,6677;0,033927
1519,6320;0,0333184
1520,5962;0,0326899
1521,5604;0,0321013
1522,5247;0,031634
1523,4889;0,0313222
1524,4531;0,0311431
1525,4174;0,0310624
1526,3816;0,0310672
1527,3458;0,0311592
1528,3101;0,031332
1529,2743;0,0315649
1530,2385;0,031841
1531,2028;0,0321686
1532,1670;0,0325851
1533,1312;0,0331286
1534,0955;0,0337908
1535,0597;0,0345115
1536,0239;0,0352201
1536,9882;0,0358627
1537,9524;0,0363802
1538,9166;0,0366516
1539,8809;0,036481
1540,8451;0,0358202
1541,8093;0,0350158
1542,7736;0,0344319
1543,7378;0,0341045
1544,7020;0,033927
1545,6663;0,033823
1546,6305;0,0337604
1547,5947;0,0337229
1548,5590;0,0336942
1549,5232;0,0336651
1550,4874;0,0336478
1551,4517;0,0336766
1552,4159;0,0337839
1553,3801;0,0339684
1554,3444;0,0341848
1555,3086;0,0343505
1556,2728;0,0343502
1557,2371;0,034063
1558,2013;0,0335287
1559,1655;0,0331314
1560,1298;0,0331977
1561,0940;0,0336241
1562,0582;0,0341853
1563,0225;0,0347521
1563,9867;0,0352726
1564,9509;0,0357252
1565,9152;0,0361005
1566,8794;0,036407
1567,8436;0,036687
1568,8079;0,0370137
1569,7721;0,0374447
1570,7363;0,0379745
1571,7006;0,0385475
1572,6648;0,0391084
1573,6290;0,0396338
1574,5933;0,0401349
1575,5575;0,0406485
1576,5217;0,0412142
1577,4860;0,0418457
1578,4502;0,0425282
1579,4144;0,0432413
1580,3787;0,0439747
1581,3429;0,044726
1582,3071;0,0454937
1583,2714;0,0462744
1584,2356;0,0470661
1585,1998;0,04787
1586,1641;0,0486858
1587,1283;0,049503
1588,0925;0,0502977
1589,0568;0,0510378
1590,0210;0,0516925
1590,9852;0,0522358
1591,9495;0,0526438
1592,9137;0,0528943
1593,8779;0,0529754
1594,8422;0,052898
1595,8064;0,0526988
1596,7706;0,0524245
1597,7349;0,052112
1598,6991;0,0517801
1599,6633;0,0514353
1600,6276;0,0510845
1601,5918;0,0507423
1602,5560;0,0504295
1603,5203;0,0501615
1604,4845;0,0499372
1605,4487;0,0497365
1606,4130;0,0495303
1607,3772;0,0493012
1608,3414;0,0490645
1609,3057;0,0488692
1610,2699;0,0487671
1611,2341;0,0487728
1612,1984;0,0488521
1613,1626;0,04894
1614,1268;0,0489685
1615,0911;0,0489008
1616,0553;0,0487767
1617,0195;0,0487096
1617,9838;0,0487843
1618,9480;0,048979
1619,9122;0,0492086
1620,8765;0,0493939
1621,8407;0,0494944
1622,8049;0,0495185
1623,7692;0,0495161
1624,7334;0,0495397
1625,6976;0,0496055
1626,6619;0,049698
1627,6261;0,0498033
1628,5903;0,0499294
1629,5546;0,0500932
1630,5188;0,0502946
1631,4830;0,0505023
1632,4473;0,0506548
1633,4115;0,0506652
1634,3757;0,0504501
1635,3400;0,0500255
1636,3042;0,0495872
1637,2684;0,049351
1638,2327;0,0493448
1639,1969;0,0494726
1640,1611;0,0496479
1641,1254;0,0498265
1642,0896;0,0499821
1643,0538;0,050075
1644,0181;0,0500354
1644,9823;0,0497877
1645,9465;0,0493482
1646,9108;0,048905
1647,8750;0,0486732
1648,8392;0,0486772
1649,8035;0,0487611
1650,7677;0,0486826
1651,7319;0,0481534
1652,6962;0,0470263
1653,6604;0,0457119
1654,6246;0,0448862
1655,5889;0,044638
1656,5531;0,0446542
1657,5173;0,0446807
1658,4816;0,0445882
1659,4458;0,0443108
1660,4100;0,0438201
1661,3743;0,0431548
1662,3385;0,0424482
1663,3027;0,041863
1664,2670;0,0414696
1665,2312;0,0412136
1666,1954;0,0409686
1667,1597;0,0405936
1668,1239;0,0399899
1669,0881;0,0391823
1670,0524;0,0383473
1671,0166;0,0376699
1671,9808;0,0371735
1672,9451;0,0367379
1673,9093;0,0362327
1674,8735;0,0356237
1675,8378;0,0350045
1676,8020;0,0345204
1677,7662;0,0342457
1678,7305;0,0341432
1679,6947;0,0341083
1680,6589;0,0340061
1681,6232;0,033676
1682,5874;0,0329751
1683,5516;0,0319477
1684,5159;0,0309351
1685,4801;0,03026
1686,4443;0,0299241
1687,4086;0,0297593
1688,3728;0,0296341
1689,3370;0,0295017
1690,3013;0,0293706
1691,2655;0,0292639
1692,2297;0,0291897
1693,1940;0,0291331
1694,1582;0,0290639
1695,1224;0,0289509
1696,0867;0,028773
1697,0509;0,0285248
1698,0151;0,0282209
1698,9794;0,0279069
1699,9436;0,0276587
1700,9078;0,0275429
1701,8721;0,0275719
1702,8363;0,0277038
1703,8005;0,0278788
1704,7648;0,0280542
1705,7290;0,0282236
1706,6932;0,0284165
1707,6575;0,0286755
1708,6217;0,029026
1709,5859;0,0294647
1710,5502;0,0299683
1711,5144;0,0305038
1712,4786;0,031033
1713,4429;0,0315127
1714,4071;0,0319007
1715,3713;0,0321745
1716,3356;0,0323671
1717,2998;0,0325777
1718,2640;0,0328945
1719,2283;0,0333215
1720,1925;0,0338105
1721,1567;0,0343164
1722,1210;0,0348131
1723,0852;0,0352876
1724,0494;0,0357345
1725,0137;0,0361565
1725,9779;0,0365631
1726,9421;0,0369652
1727,9064;0,0373639
1728,8706;0,0377424
1729,8348;0,0380587
1730,7991;0,0382448
1731,7633;0,0382218
1732,7275;0,0379594
1733,6918;0,0375546
1734,6560;0,0371888
1735,6202;0,0369558
1736,5845;0,036801
1737,5487;0,0366062
1738,5129;0,0362723
1739,4772;0,0357607
1740,4414;0,0351099
1741,4056;0,0344138
1742,3699;0,0337571
1743,3341;0,0331648
1744,2983;0,0326095
1745,2626;0,0320462
1746,2268;0,0314259
1747,1910;0,03069
1748,1553;0,0297812
1749,1195;0,0287003
1750,0837;0,0275624
1751,0480;0,026543
1752,0122;0,0257443
1752,9764;0,0251416
1753,9407;0,0246387
1754,9049;0,024144
1755,8691;0,0236134
1756,8334;0,0230556
1757,7976;0,0225017
1758,7618;0,0219639
1759,7261;0,0214231
1760,6903;0,02086
1761,6545;0,020296
1762,6188;0,0197933
1763,5830;0,0194079
1764,5472;0,0191464
1765,5115;0,0189688
1766,4757;0,0188203
1767,4399;0,0186583
1768,4042;0,0184581
1769,3684;0,0182045
1770,3326;0,0178856
1771,2969;0,0175075
1772,2611;0,0171219
1773,2253;0,016814
1774,1896;0,016641
1775,1538;0,0165938
1776,1180;0,0166177
1777,0823;0,0166511
1778,0465;0,0166503
1779,0107;0,0166006
1779,9750;0,0165141
1780,9392;0,0164156
1781,9034;0,0163223
1782,8677;0,01624
1783,8319;0,0161742
1784,7961;0,0161403
1785,7604;0,0161574
1786,7246;0,0162301
1787,6888;0,0163375
1788,6531;0,0164356
1789,6173;0,01647
1790,5815;0,0163993
1791,5458;0,01623
1792,5100;0,0160341
1793,4742;0,0159026
1794,4385;0,0158721
1795,4027;0,0159145
1796,3669;0,0159763
1797,3312;0,0160114
1798,2954;0,0159941
1799,2596;0,0159241
1800,2239;0,015826
1801,1881;0,0157368
1802,1523;0,0156845
1803,1166;0,0156761
1804,0808;0,0157014
1805,0450;0,0157427
1806,0093;0,0157822
1806,9735;0,0158045
1807,9377;0,0157993
1808,9020;0,0157646
1809,8662;0,0157096
1810,8304;0,0156522
1811,7947;0,015609
1812,7589;0,0155855
1813,7231;0,0155738
1814,6874;0,0155602
1815,6516;0,0155351
1816,6158;0,015502
1817,5801;0,0154781
1818,5443;0,0154854
1819,5085;0,0155347
1820,4728;0,0156172
1821,4370;0,0157091
1822,4012;0,0157853
1823,3655;0,0158333
1824,3297;0,0158585
1825,2939;0,0158755
1826,2582;0,0158887
1827,2224;0,0158812
1828,1866;0,015825
1829,1509;0,0157091
1830,1151;0,0155636
1831,0793;0,015448
1832,0436;0,0154076
1833,0078;0,0154434
1833,9720;0,0155202
1834,9363;0,0155928
1835,9005;0,0156314
1836,8647;0,0156362
1837,8290;0,0156348
1838,7932;0,015657
1839,7574;0,0157111
1840,7217;0,0157768
1841,6859;0,0158167
1842,6501;0,0157967
1843,6144;0,0157114
1844,5786;0,015597
1845,5428;0,0155057
1846,5071;0,0154647
1847,4713;0,0154647
1848,4355;0,0154802
1849,3998;0,0154889
1850,3640;0,0154803
1851,3282;0,0154555
1852,2925;0,0154245
1853,2567;0,0154035
1854,2209;0,0154109
1855,1852;0,0154609
1856,1494;0,0155557
1857,1136;0,0156793
1858,0779;0,0157995
1859,0421;0,0158813
1860,0063;0,0159044
1860,9706;0,015874
1861,9348;0,0158166
1862,8990;0,0157635
1863,8633;0,0157337
1864,8275;0,0157276
1865,7917;0,0157322
1866,7560;0,0157306
1867,7202;0,015712
1868,6844;0,0156769
1869,6487;0,0156332
1870,6129;0,0155872
1871,5771;0,0155413
1872,5414;0,0154978
1873,5056;0,0154618
1874,4698;0,0154399
1875,4341;0,0154368
1876,3983;0,0154516
1877,3625;0,015478
1878,3268;0,0155097
1879,2910;0,015544
1880,2552;0,0155822
1881,2195;0,0156255
1882,1837;0,0156706
1883,1479;0,0157096
1884,1122;0,0157341
1885,0764;0,0157409
1886,0406;0,0157342
1887,0049;0,0157229
1887,9691;0,0157157
1888,9333;0,0157155
1889,8976;0,0157175
1890,8618;0,0157133
1891,8260;0,0156985
1892,7903;0,0156778
1893,7545;0,0156635
1894,7188;0,0156691
1895,6830;0,0157001
1896,6472;0,0157473
1897,6115;0,0157901
1898,5757;0,0158088
1899,5399;0,0157977
1900,5042;0,0157704
1901,4684;0,015753
1902,4326;0,0157686
1903,3969;0,0158231
1904,3611;0,0159003
1905,3253;0,0159731
1906,2896;0,0160202
1907,2538;0,0160369
1908,2180;0,0160335
1909,1823;0,0160236
1910,1465;0,0160111
1911,1107;0,0159887
1912,0750;0,015948
1913,0392;0,0158911
1914,0034;0,0158344
1914,9677;0,0158031
1915,9319;0,0158203
1916,8961;0,0158942
1917,8604;0,0160105
1918,8246;0,0161367
1919,7888;0,0162367
1920,7531;0,0162841
1921,7173;0,0162673
1922,6815;0,0161908
1923,6458;0,016075
1924,6100;0,0159521
1925,5742;0,0158553
1926,5385;0,0158065
1927,5027;0,0158113
1928,4669;0,0158607
1929,4312;0,015936
1930,3954;0,0160157
1931,3596;0,0160813
1932,3239;0,0161232
1933,2881;0,0161425
1934,2523;0,0161494
1935,2166;0,0161584
1936,1808;0,0161824
1937,1450;0,016228
1938,1093;0,0162952
1939,0735;0,0163791
1940,0377;0,0164735
1941,0020;0,0165701
1941,9662;0,0166572
1942,9304;0,0167181
1943,8947;0,0167349
1944,8589;0,0166965
1945,8231;0,0166041
1946,7874;0,0164731
1947,7516;0,0163306
1948,7158;0,0162107
1949,6801;0,0161475
1950,6443;0,0161644
1951,6085;0,0162652
1952,5728;0,0164289
1953,5370;0,0166142
1954,5012;0,0167737
1955,4655;0,0168742
1956,4297;0,0169125
1957,3939;0,016916
1958,3582;0,0169227
1959,3224;0,0169508
1960,2866;0,0169791
1961,2509;0,0169566
1962,2151;0,0168419
1963,1793;0,0166458
1964,1436;0,0164462
1965,1078;0,01636
1966,0720;0,0164779
1967,0363;0,0167962
1968,0005;0,0171972
1968,9647;0,0175044
1969,9290;0,017579
1970,8932;0,017386
1971,8574;0,016997
1972,8217;0,0165458
1973,7859;0,0161713
1974,7501;0,015974
1975,7144;0,0159975
1976,6786;0,0162282
1977,6428;0,0166036
1978,6071;0,0170245
1979,5713;0,0173783
1980,5355;0,0175749
1981,4998;0,0175822
1982,4640;0,0174397
1983,4282;0,0172417
1984,3925;0,0170936
1985,3567;0,0170605
1986,3209;0,01714
1987,2852;0,017276
1988,2494;0,0174024
1989,2136;0,017483
1990,1779;0,0175212
1991,1421;0,0175371
1992,1063;0,0175381
1993,0706;0,017511
1994,0348;0,0174413
1994,9990;0,0173392
1995,9633;0,0172433
1996,9275;0,017199
1997,8917;0,0172279
1998,8560;0,0173114
1999,8202;0,017403
2000,7844;0,0174651
2001,7487;0,0175015
2002,7129;0,0175609
2003,6771;0,0177054
2004,6414;0,0179637
2005,6056;0,0183004
2006,5698;0,018625
2007,5341;0,0188425
2008,4983;0,0189119
2009,4625;0,0188682
2010,4268;0,0187914
2011,3910;0,0187497
2012,3552;0,0187602
2013,3195;0,0187889
2014,2837;0,0187865
2015,2479;0,0187325
2016,2122;0,0186585
2017,1764;0,0186307
2018,1406;0,0187036
2019,1049;0,0188797
2020,0691;0,0191062
2021,0333;0,019306
2021,9976;0,0194164
2022,9618;0,0194143
2023,9260;0,0193188
2024,8903;0,0191781
2025,8545;0,019049
2026,8187;0,018979
2027,7830;0,018993
2028,7472;0,0190847
2029,7114;0,0192182
2030,6757;0,0193417
2031,6399;0,0194139
2032,6041;0,0194288
2033,5684;0,0194199
2034,5326;0,0194361
2035,4968;0,0195036
2036,4611;0,0196018
2037,4253;0,0196725
2038,3895;0,0196548
2039,3538;0,0195228
2040,3180;0,0193031
2041,2822;0,0190624
2042,2465;0,0188727
2043,2107;0,0187774
2044,1749;0,0187789
2045,1392;0,0188491
2046,1034;0,018951
2047,0676;0,0190521
2048,0320;0,0191277
2048,9961;0,0191581
2049,9604;0,0191304
2050,9246;0,0190466
2051,8889;0,01893
2052,8530;0,0188234
2053,8174;0,0187728
2054,7815;0,0188043
2055,7458;0,0189075
2056,7100;0,0190375
2057,6743;0,0191405
2058,6384;0,0191843
2059,6028;0,0191747
2060,5669;0,0191475
2061,5313;0,019143
2062,4954;0,0191819
2063,4597;0,0192558
2064,4238;0,0193363
2065,3882;0,0193937
2066,3523;0,0194099
2067,3167;0,0193816
2068,2808;0,0193153
2069,2451;0,0192223
2070,2092;0,0191169
2071,1736;0,0190161
2072,1377;0,0189367
2073,1021;0,0188885
2074,0662;0,0188708
2075,0305;0,0188732
2075,9946;0,0188825
2076,9590;0,0188899
2077,9231;0,0188931
2078,8875;0,0188955
2079,8516;0,0189018
2080,8159;0,0189167
2081,7800;0,0189441
2082,7444;0,0189862
2083,7085;0,0190414
2084,6729;0,0191019
2085,6370;0,0191532
2086,6013;0,0191784
2087,5654;0,0191635
2088,5298;0,019102
2089,4939;0,0189977
2090,4583;0,0188644
2091,4224;0,0187261
2092,3867;0,0186153
2093,3508;0,0185683
2094,3152;0,0186132
2095,2793;0,0187552
2096,2437;0,0189668
2097,2078;0,0191937
2098,1721;0,0193762
2099,1362;0,0194748
2100,1006;0,019485
2101,0647;0,0194336
2102,0291;0,0193587
2102,9932;0,0192893
2103,9575;0,019236
2104,9216;0,0191965
2105,8860;0,0191703
2106,8501;0,0191687
2107,8145;0,0192099
2108,7786;0,0193031
2109,7429;0,0194338
2110,7070;0,0195626
2111,6714;0,0196423
2112,6355;0,0196423
2113,5999;0,0195653
2114,5640;0,0194454
2115,5283;0,0193298
2116,4924;0,0192567
2117,4568;0,0192429
2118,4209;0,0192841
2119,3853;0,0193652
2120,3494;0,0194683
2121,3137;0,0195759
2122,2778;0,0196703
2123,2422;0,0197346
2124,2063;0,0197593
2125,1707;0,0197492
2126,1348;0,0197244
2127,0991;0,019712
2128,0632;0,0197317
2129,0276;0,0197862
2129,9917;0,0198624
2130,9561;0,0199439
2131,9202;0,0200243
2132,8845;0,0201137
2133,8486;0,0202336
2134,8130;0,020402
2135,7771;0,0206197
2136,7415;0,0208657
2137,7056;0,0211035
2138,6699;0,0212957
2139,6340;0,0214195
2140,5984;0,021477
2141,5625;0,0214965
2142,5269;0,021522
2143,4910;0,0215909
2144,4553;0,0217126
2145,4194;0,0218601
2146,3838;0,0219826
2147,3479;0,0220356
2148,3123;0,0220085
2149,2764;0,0219333
2150,2407;0,0218694
2151,2048;0,0218734
2152,1692;0,0219744
2153,1333;0,0221644
2154,0977;0,0224068
2155,0618;0,0226547
2156,0261;0,022871
2156,9902;0,0230447
2157,9546;0,0231955
2158,9187;0,0233575
2159,8831;0,0235473
2160,8472;0,0237419
2161,8115;0,0238886
2162,7756;0,0239356
2163,7400;0,0238595
2164,7041;0,0236731
2165,6685;0,0234126
2166,6326;0,0231163
2167,5969;0,0228099
2168,5610;0,022509
2169,5254;0,0222331
2170,4895;0,0220123
2171,4539;0,0218803
2172,4180;0,0218547
2173,3823;0,0219245
2174,3464;0,0220549
2175,3108;0,0222081
2176,2749;0,0223603
2177,2393;0,022499
2178,2034;0,0226043
2179,1677;0,0226382
2180,1318;0,0225592
2181,0962;0,0223579
2182,0603;0,0220853
2183,0247;0,0218402
2183,9888;0,0217149
2184,9531;0,0217367
2185,9172;0,0218491
2186,8816;0,021948
2187,8457;0,0219452
2188,8101;0,0218159
2189,7742;0,0216002
2190,7385;0,0213646
2191,7026;0,021157
2192,6670;0,0209867
2193,6311;0,0208403
2194,5955;0,0207108
2195,5596;0,0206135
2196,5239;0,0205746
2197,4880;0,0206037
2198,4524;0,0206765
2199,4165;0,0207424
2200,3809;0,0207559
2201,3450;0,0207074
2202,3093;0,0206322
2203,2734;0,0205906
2204,2378;0,0206325
2205,2019;0,0207679
2206,1663;0,0209612
2207,1304;0,0211488
2208,0947;0,02127
2209,0588;0,0212927
2210,0232;0,021223
2210,9873;0,0210956
2211,9517;0,020955
2212,9158;0,020836
2213,8801;0,020754
2214,8442;0,0207077
2215,8086;0,0206885
2216,7727;0,0206907
2217,7371;0,0207133
2218,7012;0,0207546
2219,6655;0,0208032
2220,6296;0,0208353
2221,5940;0,0208212
2222,5581;0,0207409
2223,5225;0,0205978
2224,4866;0,0204213
2225,4509;0,0202547
2226,4150;0,0201332
2227,3794;0,0200671
2228,3435;0,020039
2229,3079;0,0200198
2230,2720;0,0199898
2231,2363;0,0199505
2232,2004;0,0199183
2233,1648;0,0199049
2234,1289;0,0199005
2235,0933;0,0198745
2236,0574;0,0197956
2237,0217;0,0196577
2237,9858;0,0194915
2238,9502;0,0193512
2239,9143;0,0192851
2240,8787;0,0193085
2241,8428;0,0193976
2242,8071;0,0195074
2243,7712;0,0196002
2244,7356;0,0196645
2245,6997;0,019713
2246,6641;0,0197644
2247,6282;0,019824
2248,5925;0,0198771
2249,5566;0,0198986
2250,5210;0,0198697
2251,4851;0,0197895
2252,4495;0,0196751
2253,4136;0,0195523
2254,3779;0,0194452
2255,3420;0,0193699
2256,3064;0,0193329
2257,2705;0,0193317
2258,2349;0,0193548
2259,1990;0,0193815
2260,1633;0,019386
2261,1274;0,0193467
2262,0918;0,0192572
2263,0559;0,0191328
2264,0203;0,0190076
2264,9844;0,0189202
2265,9487;0,018897
2266,9128;0,0189393
2267,8772;0,0190231
2268,8413;0,0191086
2269,8057;0,019156
2270,7698;0,0191412
2271,7341;0,019064
2272,6982;0,0189482
2273,6626;0,0188324
2274,6267;0,0187547
2275,5911;0,0187374
2276,5552;0,0187775
2277,5195;0,0188493
2278,4836;0,018917
2279,4480;0,0189515
2280,4121;0,018942
2281,3765;0,0188977
2282,3406;0,0188395
2283,3049;0,0187886
2284,2690;0,0187584
2285,2334;0,018752
2286,1975;0,0187642
2287,1619;0,0187844
2288,1260;0,0188005
2289,0903;0,0188021
2290,0544;0,0187845
2291,0188;0,0187518
2291,9829;0,0187167
2292,9473;0,0186947
2293,9114;0,0186967
2294,8757;0,0187224
2295,8398;0,0187611
2296,8042;0,0187982
2297,7683;0,0188254
2298,7327;0,0188457
2299,6968;0,018871
2300,6611;0,0189138
2301,6252;0,0189778
2302,5896;0,0190541
2303,5537;0,0191243
2304,5181;0,0191696
2305,4822;0,0191784
2306,4465;0,0191508
2307,4106;0,0190983
2308,3750;0,0190386
2309,3391;0,0189906
2310,3035;0,0189704
2311,2676;0,0189889
2312,2319;0,0190501
2313,1960;0,0191504
2314,1604;0,0192781
2315,1245;0,0194153
2316,0889;0,0195425
2317,0530;0,0196431
2318,0173;0,0197078
2318,9814;0,0197359
2319,9458;0,019733
2320,9099;0,0197051
2321,8743;0,0196533
2322,8384;0,019575
2323,8027;0,0194716
2324,7668;0,0193539
2325,7312;0,0192411
2326,6953;0,0191524
2327,6597;0,0190977
2328,6238;0,0190737
2329,5881;0,0190653
2330,5522;0,0190552
2331,5166;0,0190337
2332,4807;0,0190037
2333,4451;0,0189747
2334,4092;0,0189518
2335,3735;0,0189276
2336,3376;0,0188831
2337,3020;0,0187972
2338,2661;0,0186593
2339,2305;0,0184769
2340,1946;0,0182752
2341,1589;0,0180938
2342,1230;0,017983
2343,0874;0,0179848
2344,0515;0,0180948
2345,0159;0,01825
2345,9800;0,0183826
2346,9443;0,0184742
2347,9084;0,0185514
2348,8728;0,0186479
2349,8369;0,0187764
2350,8013;0,0189233
2351,7654;0,0190606
2352,7297;0,0191694
2353,6938;0,0192564
2354,6582;0,0193422
2355,6223;0,0194341
2356,5867;0,0195174
2357,5508;0,0195718
2358,5151;0,0195822
2359,4792;0,0195338
2360,4436;0,019408
2361,4077;0,0191929
2362,3721;0,0189025
2363,3362;0,0185837
2364,3005;0,018304
2365,2646;0,0181249
2366,2290;0,0180799
2367,1931;0,0181666
2368,1575;0,0183527
2369,1216;0,0185871
2370,0859;0,0188133
2371,0500;0,0189838
2372,0144;0,0190721
2372,9785;0,0190764
2373,9429;0,0190161
2374,9070;0,018922
2375,8713;0,0188255
2376,8354;0,0187508
2377,7998;0,0187115
2378,7639;0,0187115
2379,7283;0,0187479
2380,6924;0,0188145
2381,6567;0,0189042
2382,6208;0,0190092
2383,5852;0,019121
2384,5493;0,01923
2385,5137;0,0193273
2386,4778;0,0194062
2387,4421;0,0194644
2388,4063;0,019504
2389,3706;0,0195305
2390,3347;0,0195505
2391,2991;0,0195696
2392,2632;0,0195916
2393,2275;0,0196187
2394,1917;0,0196515
2395,1560;0,0196883
2396,1201;0,0197254
2397,0845;0,019758
2398,0486;0,0197824
2399,0129;0,0197988
2399,9771;0,019812
2400,9414;0,0198291
2401,9055;0,0198565
2402,8699;0,0198964
2403,8340;0,0199466
2404,7983;0,0200016
2405,7625;0,0200544
2406,7268;0,020099
2407,6909;0,0201306
2408,6553;0,0201468
2409,6194;0,020148
2410,5837;0,0201375
2411,5479;0,0201211
2412,5122;0,0201059
2413,4763;0,0200976
2414,4407;0,0201001
2415,4048;0,0201143
2416,3691;0,02014
2417,3333;0,0201756
2418,2976;0,0202193
2419,2617;0,0202681
2420,2261;0,0203171
2421,1902;0,0203597
2422,1545;0,0203895
2423,1187;0,0204022
2424,0830;0,0203985
2425,0471;0,0203844
2426,0115;0,02037
2426,9756;0,0203655
2427,9399;0,0203775
2428,9041;0,020407
2429,8684;0,0204499
2430,8325;0,0205
2431,7969;0,0205519
2432,7610;0,0206028
2433,7253;0,0206516
2434,6895;0,0206967
2435,6538;0,0207343
2436,6179;0,0207595
2437,5823;0,0207685
2438,5464;0,020762
2439,5107;0,020746
2440,4749;0,0207302
2441,4392;0,020724
2442,4033;0,0207325
2443,3677;0,0207556
2444,3318;0,020789
2445,2961;0,0208274
2446,2603;0,0208665
2447,2246;0,0209035
2448,1887;0,0209359
2449,1531;0,0209614
2450,1172;0,0209788
2451,0815;0,0209892
2452,0457;0,0209968
2453,0100;0,0210071
2453,9741;0,0210238
2454,9385;0,0210477
2455,9026;0,0210773
2456,8669;0,021111
2457,8311;0,0211488
2458,7954;0,0211911
2459,7595;0,0212357
2460,7239;0,0212768
2461,6880;0,0213073
2462,6523;0,0213233
2463,6165;0,021328
2464,5808;0,0213303
2465,5449;0,0213395
2466,5093;0,021359
2467,4734;0,0213834
2468,4377;0,0214032
2469,4019;0,0214107
2470,3662;0,0214055
2471,3303;0,0213947
2472,2947;0,0213884
2473,2588;0,0213943
2474,2231;0,0214154
2475,1873;0,0214502
2476,1516;0,0214951
2477,1157;0,0215453
2478,0801;0,0215948
2479,0442;0,0216368
2480,0085;0,0216649
2480,9727;0,0216761
2481,9370;0,0216721
2482,9011;0,0216596
2483,8655;0,0216472
2484,8296;0,0216423
2485,7939;0,0216491
2486,7581;0,0216689
2487,7224;0,0217005
2488,6865;0,0217408
2489,6509;0,0217837
2490,6150;0,0218205
2491,5793;0,0218415
2492,5435;0,0218412
2493,5078;0,0218221
2494,4719;0,0217962
2495,4363;0,0217798
2496,4004;0,0217857
2497,3647;0,0218156
2498,3289;0,0218591
2499,2932;0,0219
2500,2573;0,0219259
2501,2217;0,0219355
2502,1858;0,0219385
2503,1501;0,0219479
2504,1143;0,0219719
2505,0786;0,0220092
2506,0427;0,0220511
2507,0071;0,0220883
2507,9712;0,0221157
2508,9355;0,0221337
2509,8997;0,0221453
2510,8640;0,0221532
2511,8281;0,0221587
2512,7925;0,0221634
2513,7566;0,0221692
2514,7209;0,0221773
2515,6851;0,0221857
2516,6494;0,022189
2517,6135;0,0221811
2518,5779;0,0221604
2519,5420;0,0221327
2520,5063;0,0221095
2521,4705;0,0221024
2522,4348;0,022117
2523,3989;0,0221509
2524,3633;0,0221951
2525,3274;0,0222394
2526,2917;0,0222752
2527,2559;0,0222978
2528,2202;0,0223059
2529,1843;0,0223015
2530,1487;0,0222892
2531,1128;0,0222756
2532,0771;0,022267
2533,0413;0,0222675
2534,0056;0,0222779
2534,9697;0,0222962
2535,9341;0,0223202
2536,8982;0,0223474
2537,8625;0,022375
2538,8267;0,0223983
2539,7910;0,0224116
2540,7551;0,0224111
2541,7195;0,0223985
2542,6836;0,0223815
2543,6479;0,0223709
2544,6121;0,0223739
2545,5764;0,0223908
2546,5405;0,022415
2547,5049;0,0224375
2548,4690;0,0224528
2549,4333;0,0224609
2550,3975;0,0224661
2551,3618;0,0224731
2552,3259;0,0224846
2553,2903;0,0225004
2554,2544;0,0225194
2555,2188;0,0225403
2556,1829;0,0225614
2557,1472;0,0225801
2558,1113;0,0225931
2559,0757;0,0225983
2560,0398;0,0225971
2561,0042;0,022595
2561,9683;0,0225996
2562,9326;0,0226159
2563,8967;0,0226429
2564,8611;0,022673
2565,8252;0,0226957
2566,7896;0,0227028
2567,7537;0,022692
2568,7180;0,022667
2569,6821;0,0226346
2570,6465;0,0226015
2571,6106;0,0225724
2572,5750;0,0225524
2573,5391;0,0225479
2574,5034;0,0225665
2575,4675;0,0226119
2576,4319;0,0226801
2577,3960;0,0227576
2578,3604;0,0228262
2579,3245;0,0228709
2580,2888;0,0228866
2581,2529;0,0228794
2582,2173;0,0228612
2583,1814;0,0228426
2584,1458;0,0228286
2585,1099;0,0228191
2586,0742;0,0228126
2587,0383;0,0228102
2588,0027;0,0228157
2588,9668;0,0228333
2589,9312;0,0228641
2590,8953;0,022904
2591,8596;0,0229454
2592,8237;0,0229804
2593,7881;0,0230039
2594,7522;0,0230162
2595,7166;0,0230222
2596,6807;0,023029
2597,6450;0,023042
2598,6091;0,0230625
2599,5735;0,0230875
2600,5376;0,0231131
2601,5020;0,0231376
2602,4661;0,023163
2603,4304;0,023193
2604,3945;0,0232291
2605,3589;0,0232681
2606,3230;0,0233038
2607,2874;0,0233303
2608,2515;0,0233464
2609,2158;0,0233551
2610,1799;0,0233616
2611,1443;0,0233689
2612,1084;0,0233774
2613,0728;0,0233864
2614,0369;0,0233965
2615,0012;0,0234112
2615,9653;0,0234347
2616,9297;0,0234697
2617,8938;0,0235153
2618,8582;0,0235678
2619,8223;0,0236209
2620,7866;0,023668
2621,7507;0,0237033
2622,7151;0,0237234
2623,6792;0,0237301
2624,6436;0,0237311
2625,6077;0,0237384
2626,5720;0,0237629
2627,5361;0,0238081
2628,5005;0,0238677
2629,4646;0,023928
2630,4290;0,0239755
2631,3931;0,0240034
2632,3574;0,0240145
2633,3215;0,0240178
2634,2859;0,0240223
2635,2500;0,0240321
2636,2144;0,0240467
2637,1785;0,0240641
2638,1428;0,0240846
2639,1069;0,0241118
2640,0713;0,0241497
2641,0354;0,0241987
2641,9998;0,0242535
2642,9639;0,0243049
2643,9282;0,0243448
2644,8923;0,0243698
2645,8567;0,0243835
2646,8208;0,0243934
2647,7852;0,0244068
2648,7493;0,0244276
2649,7136;0,0244554
2650,6777;0,0244876
2651,6421;0,0245215
2652,6062;0,0245556
2653,5706;0,0245888
2654,5347;0,0246194
2655,4990;0,0246452
2656,4631;0,0246649
2657,4275;0,0246797
2658,3916;0,0246939
2659,3560;0,0247126
2660,3201;0,0247388
2661,2844;0,0247715
2662,2485;0,0248062
2663,2129;0,0248378
2664,1770;0,0248629
2665,1414;0,024882
2666,1055;0,0248976
2667,0698;0,024913
2668,0339;0,02493
2668,9983;0,0249493
2669,9624;0,0249717
2670,9268;0,0249984
2671,8909;0,0250312
2672,8552;0,0250708
2673,8193;0,0251157
2674,7837;0,0251621
2675,7478;0,0252057
2676,7122;0,0252436
2677,6763;0,0252756
2678,6406;0,0253036
2679,6047;0,0253299
2680,5691;0,0253557
2681,5332;0,0253805
2682,4976;0,0254038
2683,4617;0,0254267
2684,4260;0,0254527
2685,3901;0,0254865
2686,3545;0,0255313
2687,3186;0,0255863
2688,2830;0,0256461
2689,2471;0,0257028
2690,2114;0,0257496
2691,1755;0,0257841
2692,1399;0,0258087
2693,1040;0,0258293
2694,0684;0,0258519
2695,0325;0,0258802
2695,9968;0,0259143
2696,9609;0,025952
2697,9253;0,02599
2698,8894;0,0260262
2699,8538;0,0260599
2700,8179;0,0260926
2701,7822;0,0261263
2702,7463;0,0261635
2703,7107;0,0262051
2704,6748;0,0262499
2705,6392;0,0262944
2706,6033;0,0263341
2707,5676;0,0263657
2708,5317;0,0263893
2709,4961;0,0264092
2710,4602;0,0264324
2711,4246;0,0264655
2712,3887;0,0265116
2713,3530;0,0265688
2714,3171;0,0266307
2715,2815;0,02669
2716,2456;0,0267409
2717,2100;0,0267812
2718,1741;0,0268123
2719,1384;0,0268373
2720,1025;0,0268589
2721,0669;0,0268793
2722,0310;0,0268995
2722,9954;0,0269206
2723,9595;0,0269438
2724,9238;0,0269701
2725,8879;0,0269998
2726,8523;0,0270328
2727,8164;0,0270691
2728,7808;0,0271093
2729,7449;0,0271539
2730,7092;0,0272018
2731,6733;0,0272491
2732,6377;0,0272892
2733,6018;0,0273158
2734,5662;0,0273264
2735,5303;0,0273241
2736,4946;0,0273175
2737,4587;0,0273165
2738,4231;0,0273289
2739,3872;0,0273573
2740,3516;0,0273991
2741,3157;0,0274487
2742,2800;0,0274994
2743,2441;0,0275447
2744,2085;0,0275789
2745,1726;0,0275984
2746,1370;0,0276032
2747,1011;0,0275981
2748,0654;0,0275917
2749,0295;0,027594
2749,9939;0,0276123
2750,9580;0,0276475
2751,9224;0,0276951
2752,8865;0,0277474
2753,8508;0,0277973
2754,8149;0,0278418
2755,7793;0,0278817
2756,7434;0,0279195
2757,7078;0,0279571
2758,6719;0,0279942
2759,6362;0,028029
2760,6003;0,0280602
2761,5647;0,0280889
2762,5288;0,0281182
2763,4932;0,028152
2764,4573;0,0281927
2765,4216;0,0282399
2766,3857;0,0282905
2767,3501;0,0283407
2768,3142;0,028388
2769,2786;0,0284319
2770,2427;0,0284734
2771,2070;0,0285138
2772,1711;0,0285536
2773,1355;0,0285934
2774,0996;0,028634
2775,0640;0,0286771
2776,0281;0,0287244
2776,9924;0,0287763
2777,9565;0,0288319
2778,9209;0,0288888
2779,8850;0,0289451
2780,8494;0,0290008
2781,8135;0,0290576
2782,7778;0,0291181
2783,7419;0,0291836
2784,7063;0,029253
2785,6704;0,0293227
2786,6348;0,0293891
2787,5989;0,0294503
2788,5632;0,0295083
2789,5273;0,0295689
2790,4917;0,0296389
2791,4558;0,0297222
2792,4202;0,0298162
2793,3843;0,0299117
2794,3486;0,0299971
2795,3127;0,0300646
2796,2771;0,0301155
2797,2412;0,0301612
2798,2056;0,0302181
2799,1697;0,030299
2800,1340;0,0304075
2801,0981;0,0305363
2802,0625;0,0306728
2803,0266;0,0308055
2803,9910;0,0309286
2804,9551;0,0310417
2805,9194;0,031146
2806,8835;0,0312414
2807,8479;0,0313275
2808,8120;0,0314057
2809,7764;0,0314824
2810,7405;0,0315676
2811,7048;0,0316708
2812,6689;0,0317958
2813,6333;0,0319393
2814,5974;0,0320926
2815,5618;0,0322469
2816,5259;0,032397
2817,4902;0,0325429
2818,4543;0,0326878
2819,4187;0,0328357
2820,3828;0,0329891
2821,3472;0,0331485
2822,3113;0,0333142
2823,2756;0,0334866
2824,2397;0,0336675
2825,2041;0,0338586
2826,1682;0,0340608
2827,1326;0,0342732
2828,0967;0,0344937
2829,0610;0,034721
2830,0251;0,0349561
2830,9895;0,0352025
2831,9536;0,0354648
2832,9180;0,0357455
2833,8821;0,0360428
2834,8464;0,0363517
2835,8105;0,0366679
2836,7749;0,0369915
2837,7390;0,0373308
2838,7034;0,0377009
2839,6675;0,0381201
2840,6318;0,0386057
2841,5959;0,0391693
2842,5603;0,0398132
2843,5244;0,0405271
2844,4888;0,0412845
2845,4529;0,0420414
2846,4172;0,0427394
2847,3813;0,0433164
2848,3457;0,0437218
2849,3098;0,0439309
2850,2742;0,0439537
2851,2383;0,043831
2852,2026;0,0436219
2853,1667;0,0433862
2854,1311;0,0431694
2855,0952;0,0429962
2856,0596;0,042873
2857,0237;0,0427959
2857,9880;0,0427594
2858,9521;0,0427616
2859,9165;0,0428029
2860,8806;0,0428828
2861,8450;0,0429967
2862,8091;0,0431354
2863,7734;0,0432891
2864,7375;0,0434505
2865,7019;0,043617
2866,6660;0,0437887
2867,6304;0,0439653
2868,5945;0,0441431
2869,5588;0,0443145
2870,5229;0,0444717
2871,4873;0,0446096
2872,4514;0,0447289
2873,4158;0,0448356
2874,3799;0,0449379
2875,3442;0,0450429
2876,3083;0,0451534
2877,2727;0,0452679
2878,2368;0,0453821
2879,2012;0,0454919
2880,1653;0,0455953
2881,1296;0,0456941
2882,0938;0,0457925
2883,0581;0,0458957
2884,0222;0,0460073
2884,9866;0,0461286
2885,9507;0,046258
2886,9150;0,0463917
2887,8792;0,0465255
2888,8435;0,0466558
2889,8076;0,0467802
2890,7720;0,0468979
2891,7361;0,0470098
2892,7004;0,0471181
2893,6646;0,0472264
2894,6289;0,0473383
2895,5930;0,0474568
2896,5574;0,047583
2897,5215;0,0477146
2898,4858;0,0478464
2899,4500;0,0479716
2900,4143;0,0480849
2901,3784;0,0481851
2902,3428;0,0482764
2903,3069;0,0483684
2904,2712;0,048473
2905,2354;0,0486022
2906,1997;0,0487662
2907,1638;0,0489739
2908,1282;0,0492348
2909,0923;0,0495601
2910,0566;0,0499599
2911,0208;0,0504365
2911,9851;0,0509762
2912,9492;0,0515422
2913,9136;0,0520769
2914,8777;0,0525118
2915,8420;0,0527852
2916,8062;0,0528604
2917,7705;0,0527356
2918,7346;0,0524427
2919,6990;0,0520342
2920,6631;0,0515659
2921,6274;0,0510813
2922,5916;0,0506055
2923,5559;0,0501457
2924,5200;0,0496991
2925,4844;0,0492599
2926,4485;0,048825
2927,4128;0,0483963
2928,3770;0,0479796
2929,3413;0,0475835
2930,3054;0,047215
2931,2698;0,0468776
2932,2339;0,0465683
2933,1982;0,0462787
2934,1624;0,0459973
2935,1267;0,0457143
2936,0908;0,0454244
2937,0552;0,0451275
2938,0193;0,0448265
2938,9836;0,0445248
2939,9478;0,0442235
2940,9121;0,0439215
2941,8762;0,0436167
2942,8406;0,0433079
2943,8047;0,0429961
2944,7690;0,0426844
2945,7332;0,042378
2946,6975;0,0420826
2947,6616;0,0418033
2948,6260;0,0415428
2949,5901;0,0413002
2950,5544;0,0410712
2951,5186;0,0408498
2952,4829;0,0406312
2953,4470;0,0404138
2954,4114;0,0401995
2955,3755;0,0399909
2956,3398;0,0397884
2957,3040;0,0395877
2958,2683;0,0393817
2959,2324;0,0391643
2960,1968;0,0389348
2961,1609;0,0386998
2962,1252;0,0384702
2963,0894;0,0382564
2964,0537;0,0380619
2965,0178;0,0378821
2965,9822;0,037706
2966,9463;0,0375218
2967,9106;0,0373219
2968,8748;0,0371053
2969,8391;0,0368771
2970,8032;0,0366454
2971,7676;0,0364183
2972,7317;0,0362027
2973,6960;0,0360034
2974,6602;0,035822
2975,6245;0,0356574
2976,5886;0,0355058
2977,5530;0,0353627
2978,5171;0,0352243
2979,4814;0,0350901
2980,4456;0,0349618
2981,4099;0,0348428
2982,3740;0,0347354
2983,3384;0,0346401
2984,3025;0,0345559
2985,2668;0,034481
2986,2310;0,0344139
2987,1953;0,0343526
2988,1594;0,0342952
2989,1238;0,0342406
2990,0879;0,03419
2991,0522;0,034147
2992,0164;0,0341165
2992,9807;0,0341013
2993,9448;0,0341002
2994,9092;0,0341079
2995,8733;0,0341188
2996,8376;0,0341307
2997,8018;0,0341455
2998,7661;0,0341675
2999,7302;0,034199
3000,6946;0,0342376
3001,6587;0,0342782
3002,6230;0,0343166
3003,5872;0,0343538
3004,5515;0,0343949
3005,5156;0,0344454
3006,4800;0,034506
3007,4441;0,0345702
3008,4084;0,0346284
3009,3726;0,0346736
3010,3369;0,034707
3011,3010;0,0347379
3012,2654;0,0347785
3013,2295;0,0348369
3014,1938;0,0349127
3015,1580;0,0349981
3016,1223;0,0350834
3017,0864;0,0351625
3018,0508;0,0352349
3019,0149;0,0353037
3019,9792;0,0353723
3020,9434;0,0354416
3021,9077;0,0355111
3022,8718;0,0355818
3023,8362;0,0356575
3024,8003;0,0357443
3025,7646;0,0358468
3026,7288;0,0359641
3027,6931;0,0360883
3028,6572;0,0362073
3029,6216;0,03631
3030,5857;0,0363922
3031,5500;0,0364593
3032,5142;0,0365251
3033,4785;0,0366055
3034,4426;0,0367111
3035,4070;0,0368421
3036,3711;0,036988
3037,3354;0,0371327
3038,2996;0,0372616
3039,2639;0,0373693
3040,2280;0,0374612
3041,1924;0,0375509
3042,1565;0,0376534
3043,1208;0,0377775
3044,0850;0,0379225
3045,0493;0,0380789
3046,0134;0,0382347
3046,9778;0,038381
3047,9419;0,0385162
3048,9063;0,0386458
3049,8704;0,038778
3050,8347;0,0389185
3051,7988;0,0390667
3052,7632;0,0392162
3053,7273;0,0393594
3054,6917;0,0394927
3055,6558;0,0396199
3056,6201;0,0397506
3057,5842;0,0398948
3058,5486;0,0400566
3059,5127;0,0402316
3060,4771;0,0404083
3061,4412;0,0405744
3062,4055;0,0407222
3063,3696;0,0408517
3064,3340;0,0409698
3065,2981;0,0410867
3066,2625;0,0412104
3067,2266;0,0413448
3068,1909;0,0414889
3069,1550;0,0416388
3070,1194;0,0417911
3071,0835;0,041944
3072,0479;0,0420975
3073,0120;0,0422522
3073,9763;0,0424081
3074,9404;0,0425638
3075,9048;0,0427168
3076,8689;0,0428655
3077,8333;0,0430095
3078,7974;0,0431503
3079,7617;0,0432898
3080,7258;0,0434291
3081,6902;0,0435687
3082,6543;0,0437084
3083,6187;0,043849
3084,5828;0,0439928
3085,5471;0,0441428
3086,5112;0,0443008
3087,4756;0,0444664
3088,4397;0,0446357
3089,4041;0,0448028
3090,3682;0,0449623
3091,3325;0,0451123
3092,2966;0,0452558
3093,2610;0,0453995
3094,2251;0,0455504
3095,1895;0,0457121
3096,1536;0,0458827
3097,1179;0,0460564
3098,0820;0,0462272
3099,0464;0,046393
3100,0105;0,046556
3100,9749;0,0467208
3101,9390;0,0468903
3102,9033;0,0470642
3103,8674;0,0472395
3104,8318;0,0474137
3105,7959;0,0475873
3106,7603;0,0477633
3107,7244;0,0479451
3108,6887;0,0481333
3109,6528;0,0483245
3110,6172;0,0485129
3111,5813;0,0486933
3112,5457;0,0488641
3113,5098;0,0490277
3114,4741;0,0491892
3115,4382;0,0493535
3116,4026;0,0495233
3117,3667;0,0496986
3118,3311;0,0498776
3119,2952;0,0500591
3120,2595;0,0502434
3121,2236;0,0504323
3122,1880;0,0506271
3123,1521;0,0508277
3124,1165;0,0510318
3125,0806;0,0512357
3126,0449;0,0514356
3127,0090;0,0516291
3127,9734;0,0518158
3128,9375;0,0519978
3129,9019;0,0521799
3130,8660;0,0523684
3131,8303;0,0525691
3132,7944;0,052784
3133,7588;0,0530096
3134,7229;0,0532376
3135,6873;0,0534586
3136,6514;0,0536671
3137,6157;0,0538635
3138,5798;0,0540529
3139,5442;0,0542409
3140,5083;0,0544305
3141,4727;0,0546211
3142,4368;0,054812
3143,4011;0,0550053
3144,3652;0,0552067
3145,3296;0,0554224
3146,2937;0,0556546
3147,2581;0,0558981
3148,2222;0,0561426
3149,1865;0,0563768
3150,1506;0,0565947
3151,1150;0,0567976
3152,0791;0,0569933
3153,0435;0,0571912
3154,0076;0,0573979
3154,9719;0,057615
3155,9360;0,0578397
3156,9004;0,058067
3157,8645;0,058293
3158,8289;0,0585159
3159,7930;0,058736
3160,7573;0,0589547
3161,7214;0,059173
3162,6858;0,0593915
3163,6499;0,0596104
3164,6143;0,0598301
3165,5784;0,0600515
3166,5427;0,0602758
3167,5068;0,0605037
3168,4712;0,0607355
3169,4353;0,0609759
3170,3997;0,0612147
3171,3638;0,0614565
3172,3281;0,0617007
3173,2922;0,0619459
3174,2566;0,0621896
3175,2207;0,0624293
3176,1851;0,062663
3177,1492;0,0628903
3178,1135;0,0631126
3179,0776;0,063332
3180,0420;0,0635506
3181,0061;0,0637699
3181,9705;0,0639913
3182,9346;0,064216
3183,8989;0,0644449
3184,8630;0,0646771
3185,8274;0,0649103
3186,7915;0,0651411
3187,7559;0,0653676
3188,7200;0,0655904
3189,6843;0,0658116
3190,6484;0,0660333
3191,6128;0,0662555
3192,5769;0,0664755
3193,5413;0,0666909
3194,5054;0,066902
3195,4697;0,0671121
3196,4338;0,0673256
3197,3982;0,0675449
3198,3623;0,0677682
3199,3267;0,0679908
3200,2908;0,0682084
3201,2551;0,0684204
3202,2192;0,0686299
3203,1836;0,0688415
3204,1477;0,069059
3205,1121;0,0692831
3206,0762;0,069512
3207,0405;0,0697414
3208,0046;0,0699664
3208,9690;0,0701814
3209,9331;0,0703825
3210,8975;0,0705693
3211,8616;0,0707464
3212,8259;0,0709231
3213,7900;0,0711096
3214,7544;0,071313
3215,7185;0,0715338
3216,6829;0,0717666
3217,6470;0,0720027
3218,6113;0,0722333
3219,5754;0,0724526
3220,5398;0,0726583
3221,5039;0,0728521
3222,4683;0,073039
3223,4324;0,0732269
3224,3967;0,0734241
3225,3608;0,0736358
3226,3252;0,0738619
3227,2893;0,0740963
3228,2537;0,0743296
3229,2178;0,0745538
3230,1821;0,0747649
3231,1462;0,0749638
3232,1106;0,0751542
3233,0747;0,0753401
3234,0391;0,0755253
3235,0032;0,0757141
3235,9675;0,0759114
3236,9316;0,0761209
3237,8960;0,076343
3238,8601;0,076573
3239,8245;0,0768025
3240,7886;0,0770234
3241,7529;0,0772317
3242,7170;0,07743
3243,6814;0,0776254
3244,6455;0,077827
3245,6099;0,0780412
3246,5740;0,0782703
3247,5383;0,0785123
3248,5024;0,0787624
3249,4668;0,0790144
3250,4309;0,0792629
3251,3953;0,0795037
3252,3594;0,079735
3253,3237;0,0799572
3254,2878;0,0801724
3255,2522;0,0803838
3256,2163;0,0805957
3257,1807;0,0808131
3258,1448;0,0810406
3259,1091;0,081281
3260,0732;0,0815327
3261,0376;0,0817901
3262,0017;0,0820453
3262,9661;0,0822922
3263,9302;0,0825288
3264,8945;0,0827576
3265,8586;0,0829812
3266,8230;0,0831987
3267,7871;0,0834047
3268,7515;0,0835908
3269,7156;0,0837513
3270,6799;0,0838859
3271,6440;0,0840001
3272,6084;0,0841019
3273,5725;0,0841982
3274,5369;0,0842928
3275,5010;0,0843876
3276,4653;0,0844834
3277,4294;0,0845808
3278,3938;0,0846788
3279,3579;0,0847742
3280,3223;0,0848617
3281,2864;0,0849373
3282,2507;0,0850016
3283,2148;0,0850611
3284,1792;0,085125
3285,1433;0,0851997
3286,1077;0,0852845
3287,0718;0,0853701
3288,0361;0,0854439
3289,0002;0,0854959
3289,9646;0,0855249
3290,9287;0,0855381
3291,8931;0,0855475
3292,8572;0,0855635
3293,8215;0,0855902
3294,7856;0,0856251
3295,7500;0,0856621
3296,7141;0,0856944
3297,6785;0,0857181
3298,6426;0,0857336
3299,6069;0,0857461
3300,5710;0,0857638
3301,5354;0,0857948
3302,4995;0,0858417
3303,4639;0,0858983
3304,4280;0,0859495
3305,3923;0,0859777
3306,3564;0,0859721
3307,3208;0,0859354
3308,2849;0,085884
3309,2493;0,0858407
3310,2134;0,0858244
3311,1777;0,0858431
3312,1418;0,0858931
3313,1062;0,0859644
3314,0703;0,0860465
3315,0347;0,0861333
3315,9988;0,0862232
3316,9631;0,0863186
3317,9272;0,0864235
3318,8916;0,0865414
3319,8557;0,0866737
3320,8201;0,0868177
3321,7842;0,0869673
3322,7485;0,0871148
3323,7126;0,0872543
3324,6770;0,0873841
3325,6411;0,087506
3326,6055;0,0876229
3327,5696;0,0877363
3328,5339;0,0878451
3329,4980;0,0879471
3330,4624;0,0880397
3331,4265;0,0881205
3332,3909;0,0881864
3333,3550;0,0882335
3334,3193;0,0882583
3335,2834;0,0882598
3336,2478;0,0882401
3337,2119;0,0882032
3338,1763;0,0881515
3339,1404;0,0880837
3340,1047;0,0879957
3341,0688;0,0878842
3342,0332;0,08775
3342,9973;0,0875989
3343,9617;0,0874391
3344,9258;0,087277
3345,8901;0,087114
3346,8542;0,0869471
3347,8186;0,0867708
3348,7827;0,0865808
3349,7471;0,0863754
3350,7112;0,0861555
3351,6755;0,0859246
3352,6396;0,0856882
3353,6040;0,0854538
3354,5681;0,0852302
3355,5325;0,0850251
3356,4966;0,0848416
3357,4609;0,0846773
3358,4250;0,0845247
3359,3894;0,0843751
3360,3535;0,0842216
3361,3179;0,0840615
3362,2820;0,0838951
3363,2463;0,0837238
3364,2104;0,0835491
3365,1748;0,0833718
3366,1389;0,0831926
3367,1033;0,083012
3368,0674;0,0828295
3369,0317;0,0826432
3369,9958;0,0824514
3370,9602;0,0822541
3371,9243;0,0820543
3372,8887;0,0818571
3373,8528;0,0816662
3374,8171;0,0814817
3375,7813;0,0813
3376,7456;0,0811174
3377,7097;0,0809331
3378,6741;0,0807497
3379,6382;0,0805704
3380,6025;0,0803946
3381,5667;0,0802178
3382,5310;0,0800349
3383,4951;0,0798459
3384,4595;0,0796588
3385,4236;0,0794851
3386,3879;0,079333
3387,3521;0,0792003
3388,3164;0,079075
3389,2805;0,0789413
3390,2449;0,0787881
3391,2090;0,0786133
3392,1733;0,0784236
3393,1375;0,0782289
3394,1018;0,0780372
3395,0659;0,0778524
3396,0303;0,0776759
3396,9944;0,0775075
3397,9587;0,0773452
3398,9229;0,077184
3399,8872;0,0770173
3400,8513;0,0768396
3401,8157;0,0766505
3402,7798;0,0764553
3403,7441;0,0762617
3404,7083;0,0760739
3405,6726;0,0758892
3406,6367;0,0756996
3407,6011;0,0754973
3408,5652;0,0752794
3409,5295;0,0750489
3410,4937;0,0748115
3411,4580;0,0745713
3412,4221;0,0743294
3413,3865;0,0740848
3414,3506;0,0738363
3415,3149;0,0735833
3416,2791;0,0733231
3417,2434;0,0730514
3418,2075;0,0727638
3419,1719;0,0724608
3420,1360;0,0721516
3421,1003;0,0718522
3422,0645;0,071578
3423,0288;0,0713358
3423,9929;0,0711199
3424,9573;0,0709152
3425,9214;0,0707045
3426,8857;0,0704757
3427,8499;0,0702253
3428,8142;0,0699585
3429,7783;0,0696848
3430,7427;0,0694117
3431,7068;0,0691419
3432,6711;0,0688732
3433,6353;0,0686015
3434,5996;0,0683239
3435,5637;0,0680413
3436,5281;0,0677574
3437,4922;0,0674768
3438,4565;0,0672034
3439,4207;0,0669391
3440,3850;0,0666826
3441,3491;0,0664277
3442,3135;0,0661637
3443,2776;0,0658782
3444,2419;0,0655631
3445,2061;0,0652218
3446,1704;0,0648722
3447,1345;0,0645397
3448,0989;0,0642439
3449,0630;0,0639879
3450,0273;0,0637572
3450,9915;0,0635306
3451,9558;0,0632913
3452,9199;0,063034
3453,8843;0,0627636
3454,8484;0,0624885
3455,8127;0,0622136
3456,7769;0,0619375
3457,7412;0,0616553
3458,7053;0,0613637
3459,6697;0,0610638
3460,6338;0,0607607
3461,5981;0,0604599
3462,5623;0,0601641
3463,5266;0,0598715
3464,4907;0,0595776
3465,4551;0,059279
3466,4192;0,0589762
3467,3835;0,0586742
3468,3477;0,0583797
3469,3120;0,058096
3470,2761;0,0578189
3471,2405;0,0575389
3472,2046;0,0572469
3473,1689;0,0569418
3474,1331;0,0566328
3475,0974;0,0563344
3476,0615;0,0560557
3477,0259;0,0557934
3477,9900;0,0555342
3478,9543;0,0552644
3479,9185;0,0549804
3480,8828;0,0546921
3481,8469;0,0544152
3482,8113;0,0541572
3483,7754;0,05391
3484,7397;0,0536551
3485,7039;0,053376
3486,6682;0,0530697
3487,6323;0,0527497
3488,5967;0,0524382
3489,5608;0,0521516
3490,5251;0,0518909
3491,4893;0,0516413
3492,4536;0,0513838
3493,4177;0,0511078
3494,3821;0,0508198
3495,3462;0,0505415
3496,3105;0,0502945
3497,2747;0,0500836
3498,2390;0,0498877
3499,2031;0,0496684
3500,1675;0,0493906
3501,1316;0,0490457
3502,0959;0,0486642
3503,0601;0,0483016
3504,0244;0,0480025
3504,9885;0,0477703
3505,9529;0,0475683
3506,9170;0,0473466
3507,8813;0,0470726
3508,8455;0,0467495
3509,8098;0,0464123
3510,7739;0,0461034
3511,7383;0,0458449
3512,7024;0,0456299
3513,6667;0,0454351
3514,6309;0,0452404
3515,5952;0,0450403
3516,5593;0,0448411
3517,5237;0,0446489
3518,4878;0,0444589
3519,4521;0,0442542
3520,4163;0,0440156
3521,3806;0,0437361
3522,3447;0,0434277
3523,3091;0,0431162
3524,2732;0,0428247
3525,2375;0,0425583
3526,2017;0,0423031
3527,1660;0,0420391
3528,1301;0,0417583
3529,0945;0,0414712
3530,0586;0,041198
3531,0229;0,0409522
3531,9871;0,0407291
3532,9514;0,0405083
3533,9155;0,0402658
3534,8799;0,0399898
3535,8440;0,0396918
3536,8083;0,0394039
3537,7725;0,0391621
3538,7368;0,0389857
3539,7009;0,0388666
3540,6653;0,0387703
3541,6294;0,0386472
3542,5938;0,0384486
3543,5579;0,0381505
3544,5222;0,0377731
3545,4863;0,0373795
3546,4507;0,0370379
3547,4148;0,036777
3548,3792;0,036572
3549,3433;0,0363681
3550,3076;0,0361161
3551,2717;0,0358018
3552,2361;0,0354576
3553,2002;0,0351432
3554,1646;0,0349056
3555,1287;0,0347488
3556,0930;0,0346377
3557,0571;0,034525
3558,0215;0,0343817
3558,9856;0,0342143
3559,9500;0,0340579
3560,9141;0,033946
3561,8784;0,0338758
3562,8425;0,0337932
3563,8069;0,0336041
3564,7710;0,033216
3565,7354;0,0326141
3566,6995;0,031923
3567,6638;0,0313427
3568,6279;0,0309897
3569,5923;0,0308354
3570,5564;0,0307785
3571,5208;0,0307227
3572,4849;0,0306103
3573,4492;0,030427
3574,4133;0,0301938
3575,3777;0,0299465
3576,3418;0,0297121
3577,3062;0,0294995
3578,2703;0,0293094
3579,2346;0,0291499
3580,1987;0,0290387
3581,1631;0,0289868
3582,1272;0,0289777
3583,0916;0,0289563
3584,0557;0,0288367
3585,0200;0,0285352
3585,9841;0,0280346
3586,9485;0,0274429
3587,9126;0,0269453
3588,8770;0,0266564
3589,8411;0,0265497
3590,8054;0,0265196
3591,7695;0,0264631
3592,7339;0,0263218
3593,6980;0,0260972
3594,6624;0,0258382
3595,6265;0,0255965
3596,5908;0,0253813
3597,5549;0,0251601
3598,5193;0,0249026
3599,4834;0,024622
3600,4478;0,0243786
3601,4119;0,0242359
3602,3762;0,0242085
3603,3403;0,0242498
3604,3047;0,0242797
3605,2688;0,0242249
3606,2332;0,0240547
3607,1973;0,0237991
3608,1616;0,0235295
3609,1257;0,0233058
3610,0901;0,0231393
3611,0542;0,023007
3612,0186;0,0228881
3612,9827;0,0227818
3613,9470;0,0226914
3614,9111;0,022597
3615,8755;0,0224434
3616,8396;0,0221616
3617,8040;0,0217228
3618,7681;0,0211964
3619,7324;0,020742
3620,6965;0,0205065
3621,6609;0,0205286
3622,6250;0,0207443
3623,5894;0,0210443
3624,5535;0,0213032
3625,5178;0,0213798
3626,4819;0,0211365
3627,4463;0,0205325
3628,4104;0,0197487
3629,3748;0,0191071
3630,3389;0,0187764
3631,3032;0,0186855
3632,2673;0,0186855
3633,2317;0,0186716
3634,1958;0,0186061
3635,1602;0,0184993
3636,1243;0,0183812
3637,0886;0,0182747
3638,0527;0,0181872
3639,0171;0,0181223
3639,9812;0,0180976
3640,9456;0,0181481
3641,9097;0,018308
3642,8740;0,0185851
3643,8381;0,0189406
3644,8025;0,0192777
3645,7666;0,0194325
3646,7310;0,0191956
3647,6951;0,0184523
3648,6594;0,0174328
3649,6235;0,0166405
3650,5879;0,0163343
3651,5520;0,0163795
3652,5164;0,0165305
3653,4805;0,0166041
3654,4448;0,0165065
3655,4089;0,016241
3656,3733;0,0159057
3657,3374;0,0156313
3658,3018;0,0154863
3659,2659;0,0154501
3660,2302;0,0154672
3661,1943;0,0155084
3662,1587;0,0155899
3663,1228;0,0157485
3664,0872;0,0159954
3665,0513;0,016288
3666,0156;0,0165359
3666,9797;0,0166374
3667,9441;0,0165447
3668,9082;0,0163312
3669,8726;0,0161638
3670,8367;0,0161461
3671,8010;0,0162151
3672,7651;0,0161978
3673,7295;0,0159311
3674,6936;0,0153892
3675,6580;0,0147598
3676,6221;0,0143098
3677,5864;0,0141397
3678,5505;0,0141643
3679,5149;0,0142653
3680,4790;0,0143846
3681,4434;0,0145268
3682,4075;0,014723
3683,3718;0,0149877
3684,3359;0,0152893
3685,3003;0,0155429
3686,2644;0,015625
3687,2288;0,0154207
3688,1929;0,0149224
3689,1572;0,0143085
3690,1213;0,0138377
3691,0857;0,0136311
3692,0498;0,0136362
3693,0142;0,0137488
3693,9783;0,0138974
3694,9426;0,0140519
3695,9067;0,014202
3696,8711;0,0143328
3697,8352;0,0144125
3698,7996;0,0143981
3699,7637;0,0142644
3700,7280;0,0140421
3701,6921;0,0138299
3702,6565;0,0137467
3703,6206;0,013857
3704,5850;0,0141418
3705,5491;0,014522
3706,5134;0,0148907
3707,4775;0,015127
3708,4419;0,0151145
3709,4060;0,0147988
3710,3704;0,0142779
3711,3345;0,0137968
3712,2988;0,0135609
3713,2629;0,0135915
3714,2273;0,0137865
3715,1914;0,0140327
3716,1558;0,0142519
3717,1199;0,014402
3718,0842;0,0144719
3719,0483;0,0144767
3720,0127;0,014444
3720,9768;0,0143921
3721,9412;0,0143159
3722,9053;0,0142008
3723,8696;0,0140547
3724,8337;0,0139283
3725,7981;0,0138955
3726,7622;0,0140079
3727,7266;0,0142659
3728,6907;0,0146253
3729,6550;0,0150152
3730,6191;0,0153461
3731,5835;0,0155108
3732,5476;0,0154012
3733,5120;0,0149764
3734,4761;0,0143643
3735,4404;0,0138487
3736,4045;0,0136655
3737,3689;0,0138464
3738,3330;0,0142769
3739,2974;0,0148076
3740,2615;0,0152975
3741,2258;0,0156143
3742,1899;0,0156578
3743,1543;0,0154444
3744,1184;0,0151736
3745,0828;0,0150967
3746,0469;0,015274
3747,0112;0,0155443
3747,9753;0,015667
3748,9397;0,0154504
3749,9038;0,01489
3750,8682;0,0142623
3751,8323;0,0139232
3752,7966;0,0139703
3753,7607;0,0142465
3754,7251;0,0145476
3755,6892;0,0147264
3756,6536;0,0147128
3757,6177;0,0145303
3758,5820;0,0142933
3759,5461;0,0141394
3760,5105;0,0141355
3761,4746;0,0142557
3762,4390;0,0144295
3763,4031;0,0145915
3764,3674;0,0147002
3765,3315;0,0147358
3766,2959;0,0146886
3767,2600;0,0145532
3768,2244;0,0143384
3769,1885;0,0140868
3770,1528;0,0138768
3771,1169;0,0137881
3772,0813;0,0138538
3773,0454;0,0140441
3774,0098;0,0142863
3774,9739;0,0144952
3775,9382;0,0145997
3776,9023;0,0145687
3777,8667;0,0144334
3778,8308;0,0142776
3779,7952;0,0141816
3780,7593;0,014169
3781,7236;0,0142074
3782,6877;0,0142463
3783,6521;0,0142501
3784,6162;0,0142111
3785,5806;0,0141464
3786,5447;0,0140864
3787,5090;0,0140616
3788,4731;0,014093
3789,4375;0,0141846
3790,4016;0,0143216
3791,3660;0,0144746
3792,3301;0,0146142
3793,2944;0,0147285
3794,2585;0,014835
3795,2229;0,0149684
3796,1870;0,0151451
3797,1514;0,0153304
3798,1155;0,0154415
3799,0798;0,0153956
3800,0439;0,0151844
3801,0083;0,0149124
3801,9724;0,0147222
3802,9368;0,0146621
3803,9009;0,0146524
3804,8652;0,0145705
3805,8293;0,0143579
3806,7937;0,0140823
3807,7578;0,013905
3808,7222;0,0139524
3809,6863;0,0142221
3810,6506;0,0146124
3811,6147;0,0149974
3812,5791;0,0152774
3813,5432;0,0154092
3814,5076;0,01543
3815,4717;0,0154319
3816,4360;0,0154705
3817,4001;0,0154974
3818,3645;0,0153995
3819,3286;0,0151065
3820,2930;0,0146801
3821,2571;0,0142954
3822,2214;0,0140984
3823,1855;0,0140984
3824,1499;0,0142108
3825,1140;0,0143496
3826,0784;0,0144725
3827,0425;0,0145799
3828,0068;0,014693
3828,9709;0,0148293
3829,9353;0,0149923
3830,8994;0,0151758
3831,8638;0,0153722
3832,8279;0,0155709
3833,7922;0,0157463
3834,7563;0,0158486
3835,7207;0,0158151
3836,6848;0,0156087
3837,6492;0,0152628
3838,6133;0,0148799
3839,5776;0,0145641
3840,5417;0,014354
3841,5061;0,0142297
3842,4702;0,0141654
3843,4346;0,0141671
3844,3987;0,014271
3845,3630;0,014515
3846,3271;0,0149088
3847,2915;0,0154221
3848,2556;0,015984
3849,2200;0,0164758
3850,1841;0,0167156
3851,1484;0,0164817
3852,1125;0,015686
3853,0769;0,0146526
3854,0410;0,0139542
3855,0054;0,0138118
3855,9695;0,0140478
3856,9338;0,0144349
3857,8979;0,014832
3858,8623;0,015157
3859,8264;0,015353
3860,7908;0,0153887
3861,7549;0,015285
3862,7192;0,0151314
3863,6833;0,0150445
3864,6477;0,0150868
3865,6118;0,015229
3866,5762;0,0153843
3867,5403;0,0154611
3868,5046;0,0154001
3869,4688;0,0151985
3870,4331;0,0149159
3871,3972;0,0146478
3872,3616;0,014478
3873,3257;0,0144446
3874,2900;0,0145371
3875,2542;0,0147116
3876,2185;0,014908
3877,1826;0,0150688
3878,1470;0,0151576
3879,1111;0,0151762
3880,0754;0,0151585
3881,0396;0,0151369
3882,0039;0,0151085
3882,9680;0,0150448
3883,9324;0,0149381
3884,8965;0,0148311
3885,8608;0,0147902
3886,8250;0,0148414
3887,7893;0,0149371
3888,7534;0,0149848
3889,7178;0,0149119
3890,6819;0,0147325
3891,6462;0,014565
3892,6104;0,0145514
3893,5747;0,014741
3894,5388;0,0150692
3895,5032;0,0154235
3896,4673;0,0157044
3897,4316;0,0158519
3898,3958;0,0158544
3899,3601;0,0157389
3900,3242;0,0155391
3901,2886;0,0152691
3902,2527;0,0149412
3903,2170;0,014603
3904,1812;0,0143339
3905,1455;0,0141925
3906,1096;0,0141788
3907,0740;0,0142487
3908,0381;0,0143531
3909,0024;0,0144636
3909,9666;0,0145773
3910,9309;0,0147049
3911,8950;0,0148505
3912,8594;0,0149962
3913,8235;0,0151025
3914,7878;0,0151281
3915,7520;0,01506
3916,7163;0,014934
3917,6804;0,0148212
3918,6448;0,0147792
3919,6089;0,0148127
3920,5732;0,0148779
3921,5374;0,0149183
3922,5017;0,0149014
3923,4658;0,0148407
3924,4302;0,0147872
3925,3943;0,0147923
3926,3586;0,0148679
3927,3228;0,014978
3928,2871;0,0150609
3929,2512;0,0150617
3930,2156;0,0149615
3931,1797;0,0147933
3932,1440;0,0146259
3933,1082;0,0145232
3934,0725;0,014512
3935,0366;0,0145815
3936,0010;0,0147008
3936,9651;0,0148328
3937,9294;0,0149418
3938,8936;0,0149996
3939,8579;0,0149941
3940,8220;0,0149398
3941,7864;0,0148756
3942,7505;0,0148453
3943,7148;0,0148685
3944,6790;0,0149283
3945,6433;0,0149836
3946,6074;0,0149955
3947,5718;0,0149501
3948,5359;0,0148666
3949,5002;0,014784
3950,4644;0,0147347
3951,4287;0,0147258
3952,3928;0,0147428
3953,3572;0,0147663
3954,3213;0,0147848
3955,2856;0,0147979
3956,2498;0,0148096
3957,2141;0,0148196
3958,1782;0,0148217
3959,1426;0,0148091
3960,1067;0,0147823
3961,0710;0,0147532
3962,0352;0,0147395
3962,9995;0,0147541
3963,9636;0,0147974
3964,9280;0,0148565
3965,8921;0,0149122
3966,8564;0,0149478
3967,8206;0,0149558
3968,7849;0,0149392
3969,7490;0,0149088
3970,7134;0,0148766
3971,6775;0,0148514
3972,6418;0,0148368
3973,6060;0,0148324
3974,5703;0,0148359
3975,5344;0,0148454
3976,4988;0,0148593
3977,4629;0,0148757
3978,4272;0,014892
3979,3914;0,0149049
3980,3557;0,0149118
3981,3198;0,014912
3982,2842;0,0149077
3983,2483;0,014903
3984,2126;0,0149017
3985,1768;0,0149059
3986,1411;0,0149142
3987,1052;0,0149236
3988,0696;0,0149303
3989,0337;0,0149322
3989,9980;0,0149293
3990,9622;0,0149232
3991,9265;0,014917
3992,8906;0,0149138
3993,8550;0,0149161
3994,8191;0,0149248
3995,7834;0,0149376
3996,7476;0,0149494
3997,7119;0,0149544
3998,6760;0,0149496
3999,6404;0,0149376
4000,6045;0,0148698

##### Extended Information
[Comments]
Sample name
Comment
Username
Division
Organization;UNIVERSIDAD INDUSTRIAL DE SANTANDER

[Detailed Information]
Creation date;14/03/2025 3:16 p.m.

Data array type;Linear data array
Horizontal axis;Wavenumber [cm-1]
Vertical axis;Abs
Start;399,193 cm-1
End;4000,6 cm-1
Data interval;0,964233 cm-1
Data points;3736    

[Measurement Information]
Model name;FT/IR-4X1typeA
Serial No.;A035162111

Accessory;ATR PRO 4X
Accessory S/N;A021162126
Incident angle;45 deg

Measurement date;14/03/2025 3:16 p.m.

Light source;Standard
Detector;TGS
Accumulation;40
Resolution;4 cm-1
Zero filling;On
Apodization;Cosine
Gain;Auto (8)
Aperture;Auto (7 mm)
Scan speed;Auto (2 mm/sec)
Filter;Auto (12800 Hz)

