TITLE;
DATA TYPE;INFRARED SPECTRUM
ORIGIN;JASCO
OWNER;
DATE;25/03/14
TIME;15:18:13
SPECTROMETER/DATA SYSTEM;
LOCALE;9226
RESOLUTION;
DELTAX;0,964233
XUNITS;1/CM
YUNITS;ABSORBANCE
FIRSTX;  399,1927
LASTX; 4000,6047
NPOINTS;    3736
FIRSTY;     0,17201
MAXY;     0,25221
MINY;     0,01403
XYDATA
399,1927;0,172006
400,1569;0,171539
401,1211;0,171442
402,0854;0,171627
403,0496;0,171901
404,0138;0,172068
404,9781;0,171977
405,9423;0,171581
406,9065;0,170999
407,8708;0,170514
408,8350;0,170487
409,7992;0,171189
410,7635;0,172633
411,7277;0,174504
412,6919;0,176309
413,6562;0,177648
414,6204;0,178403
415,5846;0,178729
416,5489;0,17894
417,5131;0,179351
418,4773;0,18005
419,4416;0,180753
420,4058;0,181106
421,3700;0,181093
422,3343;0,180975
423,2985;0,181018
424,2627;0,181345
425,2270;0,181916
426,1912;0,182581
427,1554;0,18319
428,1197;0,18369
429,0839;0,184119
430,0481;0,184533
431,0124;0,184936
431,9766;0,185253
432,9408;0,185366
433,9051;0,185193
434,8693;0,184745
435,8335;0,184139
436,7978;0,18356
437,7620;0,18318
438,7262;0,1831
439,6905;0,183328
440,6547;0,183784
441,6189;0,184322
442,5832;0,184762
443,5474;0,184952
444,5116;0,184835
445,4759;0,184454
446,4401;0,183902
447,4043;0,183261
448,3686;0,182581
449,3328;0,181896
450,2970;0,18125
451,2613;0,180709
452,2255;0,18034
453,1897;0,180186
454,1540;0,180234
455,1182;0,18042
456,0824;0,180631
457,0467;0,180735
458,0109;0,180632
458,9751;0,180309
459,9394;0,179835
460,9036;0,179298
461,8678;0,178747
462,8321;0,178206
463,7963;0,177713
464,7605;0,17736
465,7248;0,177272
466,6890;0,177532
467,6532;0,178103
468,6175;0,178806
469,5817;0,179386
470,5459;0,179629
471,5102;0,179482
472,4744;0,179108
473,4386;0,178793
474,4029;0,178755
475,3671;0,179029
476,3313;0,179506
477,2956;0,180035
478,2598;0,180507
479,2240;0,180875
480,1883;0,181139
481,1525;0,181316
482,1167;0,181432
483,0810;0,181524
484,0452;0,181636
485,0094;0,18182
485,9737;0,182114
486,9379;0,182536
487,9021;0,183079
488,8664;0,183716
489,8306;0,184389
490,7948;0,185007
491,7591;0,185467
492,7233;0,185706
493,6875;0,185734
494,6518;0,185633
495,6160;0,185499
496,5802;0,185394
497,5445;0,185328
498,5087;0,185295
499,4729;0,185309
500,4372;0,185416
501,4014;0,185664
502,3656;0,186048
503,3299;0,186483
504,2941;0,186851
505,2583;0,187079
506,2226;0,187186
507,1868;0,187273
508,1510;0,187467
509,1153;0,187852
510,0795;0,188442
511,0437;0,189197
512,0080;0,190062
512,9722;0,190993
513,9365;0,191953
514,9007;0,192896
515,8649;0,193741
516,8292;0,194388
517,7934;0,194759
518,7576;0,194847
519,7219;0,194731
520,6861;0,194519
521,6503;0,194292
522,6146;0,194074
523,5788;0,193851
524,5430;0,19361
525,5073;0,193375
526,4715;0,193208
527,4357;0,193163
528,4000;0,193236
529,3642;0,193349
530,3284;0,193384
531,2927;0,193235
532,2569;0,19287
533,2211;0,19235
534,1854;0,191806
535,1496;0,19138
536,1138;0,191163
537,0781;0,19117
538,0423;0,191346
539,0065;0,191612
539,9708;0,191896
540,9350;0,192155
541,8992;0,192386
542,8635;0,192609
543,8277;0,192859
544,7919;0,193162
545,7562;0,193527
546,7204;0,193947
547,6846;0,194411
548,6489;0,194922
549,6131;0,195502
550,5773;0,19617
551,5416;0,196928
552,5058;0,197741
553,4700;0,198553
554,4343;0,199303
555,3985;0,199939
556,3627;0,200412
557,3270;0,200668
558,2912;0,200635
559,2554;0,200252
560,2197;0,199489
561,1839;0,198381
562,1481;0,197019
563,1124;0,195521
564,0766;0,193997
565,0408;0,19253
566,0051;0,191184
566,9693;0,190014
567,9335;0,18907
568,8978;0,188368
569,8620;0,187876
570,8262;0,187517
571,7905;0,187206
572,7547;0,186892
573,7189;0,186572
574,6832;0,186281
575,6474;0,186057
576,6116;0,185911
577,5759;0,185821
578,5401;0,185746
579,5043;0,185656
580,4686;0,185539
581,4328;0,185408
582,3970;0,185275
583,3613;0,185149
584,3255;0,185029
585,2897;0,184917
586,2540;0,18482
587,2182;0,184758
588,1824;0,184749
589,1467;0,184796
590,1109;0,184873
591,0751;0,184928
592,0394;0,184896
593,0036;0,184735
593,9678;0,184446
594,9321;0,184065
595,8963;0,183642
596,8605;0,183213
597,8248;0,182789
598,7890;0,182372
599,7532;0,181966
600,7175;0,181591
601,6817;0,181269
602,6459;0,181003
603,6102;0,180766
604,5744;0,180504
605,5386;0,180162
606,5029;0,179709
607,4671;0,179149
608,4313;0,178508
609,3956;0,177819
610,3598;0,1771
611,3240;0,176363
612,2883;0,175615
613,2525;0,17487
614,2167;0,17414
615,1810;0,17342
616,1452;0,172674
617,1094;0,17184
618,0737;0,170864
619,0379;0,169725
620,0021;0,168453
620,9664;0,16711
621,9306;0,165768
622,8948;0,164488
623,8591;0,163311
624,8233;0,162272
625,7875;0,161355
626,7518;0,160549
627,7160;0,159833
628,6802;0,159173
629,6445;0,158524
630,6087;0,157841
631,5729;0,157092
632,5372;0,156276
633,5014;0,155423
634,4656;0,154587
635,4299;0,153815
636,3941;0,153121
637,3583;0,152486
638,3226;0,151868
639,2868;0,151238
640,2510;0,15059
641,2153;0,149948
642,1795;0,149341
643,1437;0,148779
644,1080;0,148248
645,0722;0,147712
646,0364;0,147142
647,0007;0,146532
647,9649;0,145914
648,9291;0,145349
649,8934;0,144911
650,8576;0,14465
651,8218;0,144576
652,7861;0,144657
653,7503;0,144836
654,7145;0,145058
655,6788;0,1453
656,6430;0,145578
657,6072;0,145919
658,5715;0,146326
659,5357;0,146741
660,4999;0,147062
661,4642;0,147213
662,4284;0,14721
663,3926;0,147153
664,3569;0,147137
665,3211;0,147137
666,2853;0,146927
667,2496;0,146128
668,2138;0,144562
669,1780;0,142605
670,1423;0,140772
671,1065;0,139203
672,0707;0,137797
673,0350;0,136411
673,9992;0,134925
674,9634;0,133283
675,9277;0,131522
676,8919;0,129757
677,8561;0,128101
678,8204;0,12662
679,7846;0,125338
680,7488;0,124265
681,7131;0,123395
682,6773;0,122695
683,6415;0,122107
684,6058;0,121567
685,5700;0,121034
686,5342;0,120499
687,4985;0,119974
688,4627;0,119474
689,4269;0,119019
690,3912;0,118621
691,3554;0,118287
692,3196;0,118008
693,2839;0,117767
694,2481;0,117535
695,2123;0,117289
696,1766;0,117016
697,1408;0,116717
698,1050;0,1164
699,0693;0,116073
700,0335;0,115737
700,9977;0,11539
701,9620;0,115024
702,9262;0,114632
703,8904;0,114211
704,8547;0,113759
705,8189;0,113276
706,7831;0,112769
707,7474;0,112242
708,7116;0,111696
709,6758;0,111122
710,6401;0,110511
711,6043;0,109858
712,5685;0,109167
713,5328;0,10845
714,4970;0,107724
715,4612;0,107236
716,4255;0,106442
717,3897;0,105601
718,3539;0,104711
719,3182;0,103787
720,2824;0,10285
721,2466;0,101919
722,2109;0,100994
723,1751;0,100066
724,1393;0,0991216
725,1036;0,0981567
726,0678;0,0971839
727,0320;0,0962267
727,9963;0,0953103
728,9605;0,0944527
729,9247;0,0936593
730,8890;0,0929237
731,8532;0,0922311
732,8174;0,0915643
733,7817;0,0909102
734,7459;0,0902656
735,7101;0,0896397
736,6744;0,0890497
737,6386;0,0885112
738,6028;0,0880286
739,5671;0,0875919
740,5313;0,0871806
741,4955;0,0867733
742,4598;0,0863551
743,4240;0,0859201
744,3882;0,0854699
745,3525;0,0850091
746,3167;0,0845429
747,2809;0,084074
748,2452;0,0836015
749,2094;0,0831213
750,1736;0,0826296
751,1379;0,0821278
752,1021;0,0816263
753,0663;0,0811419
754,0306;0,0806902
754,9948;0,0802772
755,9590;0,0798955
756,9233;0,0795289
757,8875;0,0791615
758,8517;0,0787851
759,8160;0,0784003
760,7802;0,0780124
761,7444;0,0776256
762,7087;0,0772414
763,6729;0,07686
764,6371;0,0764841
765,6014;0,076119
766,5656;0,0757698
767,5298;0,0754375
768,4941;0,0751166
769,4583;0,0747988
770,4225;0,0744785
771,3868;0,0741589
772,3510;0,0738521
773,3152;0,0735738
774,2795;0,0733347
775,2437;0,0731339
776,2079;0,0729575
777,1722;0,0727843
778,1364;0,0725931
779,1006;0,0723682
780,0649;0,0721005
781,0291;0,0717864
781,9933;0,0714275
782,9576;0,0710321
783,9218;0,0706181
784,8860;0,0702104
785,8503;0,0698345
786,8145;0,0695045
787,7787;0,0692157
788,7430;0,0689448
789,7072;0,0686605
790,6714;0,0683399
791,6357;0,0679815
792,5999;0,0676086
793,5641;0,067259
794,5284;0,0669681
795,4926;0,0667522
796,4568;0,0666016
797,4211;0,0664856
798,3853;0,0663664
799,3495;0,0662157
800,3138;0,0660241
801,2780;0,0658022
802,2422;0,0655718
803,2065;0,0653542
804,1707;0,0651613
805,1349;0,0649924
806,0992;0,0648392
807,0634;0,0646932
808,0276;0,0645523
808,9919;0,064421
809,9561;0,0643066
810,9203;0,0642129
811,8846;0,064137
812,8488;0,0640718
813,8130;0,0640109
814,7773;0,0639535
815,7415;0,0639033
816,7057;0,0638636
817,6700;0,0638324
818,6342;0,0638008
819,5984;0,0637584
820,5627;0,0637004
821,5269;0,0636328
822,4911;0,0635702
823,4554;0,0635278
824,4196;0,0635127
825,3839;0,0635194
826,3481;0,0635329
827,3123;0,0635362
828,2766;0,0635171
829,2408;0,0634696
830,2050;0,063391
831,1693;0,0632781
832,1335;0,0631263
833,0977;0,0629346
834,0620;0,0627094
835,0262;0,0624661
835,9904;0,0622242
836,9547;0,0619986
837,9189;0,061795
838,8831;0,0616092
839,8474;0,0614324
840,8116;0,061257
841,7758;0,0610781
842,7401;0,0608935
843,7043;0,0607021
844,6685;0,0605041
845,6328;0,0603031
846,5970;0,0601083
847,5612;0,0599314
848,5255;0,059783
849,4897;0,0596669
850,4539;0,0595794
851,4182;0,0595115
852,3824;0,0594533
853,3466;0,0593973
854,3109;0,0593387
855,2751;0,0592742
856,2393;0,0592
857,2036;0,0591124
858,1678;0,0590097
859,1320;0,0588956
860,0963;0,0587802
861,0605;0,0586787
862,0247;0,0586052
862,9890;0,0585682
863,9532;0,0585682
864,9174;0,0586002
865,8817;0,0586601
866,8459;0,0587481
867,8101;0,0588668
868,7744;0,0590148
869,7386;0,0591806
870,7028;0,0593447
871,6671;0,0594889
872,6313;0,0596084
873,5955;0,0597155
874,5598;0,0598324
875,5240;0,0599763
876,4882;0,0601486
877,4525;0,0603369
878,4167;0,0605276
879,3809;0,0607202
880,3452;0,0609329
881,3094;0,0611951
882,2736;0,0615335
883,2379;0,0619617
884,2021;0,062479
885,1663;0,0630768
886,1306;0,0637453
887,0948;0,0644758
888,0590;0,0652584
889,0233;0,0660801
889,9875;0,066924
890,9517;0,0677715
891,9160;0,0686025
892,8802;0,0693942
893,8444;0,0701179
894,8087;0,0707403
895,7729;0,0712283
896,7371;0,0715567
897,7014;0,0717144
898,6656;0,0717058
899,6298;0,0715477
900,5941;0,0712658
901,5583;0,0708899
902,5225;0,0704516
903,4868;0,0699812
904,4510;0,0695046
905,4152;0,0690435
906,3795;0,0686171
907,3437;0,068246
908,3079;0,0679525
909,2722;0,0677567
910,2364;0,0676683
911,2007;0,0676807
912,1649;0,0677729
913,1292;0,0679194
914,0934;0,0681032
915,0576;0,0683231
916,0219;0,0685902
916,9861;0,0689155
917,9503;0,069297
918,9146;0,0697161
919,8788;0,070145
920,8430;0,0705589
921,8073;0,070946
922,7715;0,0713064
923,7357;0,0716427
924,7000;0,0719498
925,6642;0,0722123
926,6284;0,0724119
927,5927;0,0725397
928,5569;0,072605
929,5211;0,0726328
930,4854;0,0726528
931,4496;0,0726873
932,4138;0,072745
933,3781;0,0728251
934,3423;0,0729273
935,3065;0,0730602
936,2708;0,0732415
937,2350;0,0734917
938,1992;0,0738238
939,1635;0,074238
940,1277;0,074724
941,0919;0,0752689
942,0562;0,0758655
943,0204;0,0765151
943,9846;0,0772247
944,9489;0,078
945,9131;0,0788395
946,8773;0,0797347
947,8416;0,0806749
948,8058;0,0816538
949,7700;0,0826732
950,7343;0,0837412
951,6985;0,0848671
952,6627;0,0860574
953,6270;0,0873148
954,5912;0,0886415
955,5554;0,0900428
956,5197;0,0915267
957,4839;0,0931006
958,4481;0,094766
959,4124;0,0965162
960,3766;0,098338
961,3408;0,100217
962,3051;0,102145
963,2693;0,104119
964,2335;0,106146
965,1978;0,108236
966,1620;0,110404
967,1262;0,112662
968,0905;0,115024
969,0547;0,117501
970,0189;0,120109
970,9832;0,122876
971,9474;0,125839
972,9116;0,129047
973,8759;0,132541
974,8401;0,136346
975,8043;0,140459
976,7686;0,144848
977,7328;0,149458
978,6970;0,154216
979,6613;0,159025
980,6255;0,163765
981,5897;0,168294
982,5540;0,172469
983,5182;0,176171
984,4824;0,179347
985,4467;0,182012
986,4109;0,184245
987,3751;0,186154
988,3394;0,187836
989,3036;0,189355
990,2678;0,190734
991,2321;0,19197
992,1963;0,193052
993,1605;0,193976
994,1248;0,194752
995,0890;0,195401
996,0532;0,195945
997,0175;0,196403
997,9817;0,196789
998,9459;0,197111
999,9102;0,19739
1000,8744;0,197659
1001,8386;0,197972
1002,8029;0,198394
1003,7671;0,198985
1004,7313;0,199797
1005,6956;0,200862
1006,6598;0,202203
1007,6240;0,203836
1008,5883;0,205765
1009,5525;0,207974
1010,5167;0,210416
1011,4810;0,213013
1012,4452;0,215672
1013,4094;0,218305
1014,3737;0,220855
1015,3379;0,223299
1016,3021;0,225636
1017,2664;0,22788
1018,2306;0,230043
1019,1948;0,232131
1020,1591;0,234153
1021,1233;0,236117
1022,0875;0,238035
1023,0518;0,239915
1024,0160;0,24176
1024,9802;0,243568
1025,9445;0,245327
1026,9087;0,247023
1027,8729;0,248619
1028,8372;0,250053
1029,8014;0,251221
1030,7656;0,251989
1031,7299;0,252213
1032,6941;0,251775
1033,6583;0,250619
1034,6226;0,248784
1035,5868;0,246405
1036,5510;0,243695
1037,5153;0,240901
1038,4795;0,238268
1039,4437;0,235995
1040,4080;0,234216
1041,3722;0,232991
1042,3364;0,232306
1043,3007;0,232085
1044,2649;0,232211
1045,2291;0,232547
1046,1934;0,232962
1047,1576;0,233351
1048,1218;0,233635
1049,0861;0,233756
1050,0503;0,233659
1051,0145;0,23329
1051,9788;0,232601
1052,9430;0,231567
1053,9072;0,230187
1054,8715;0,228482
1055,8357;0,22646
1056,7999;0,224092
1057,7642;0,221311
1058,7284;0,218037
1059,6926;0,214227
1060,6569;0,209922
1061,6211;0,20526
1062,5853;0,200443
1063,5496;0,19569
1064,5138;0,191174
1065,4780;0,186992
1066,4423;0,183172
1067,4065;0,179693
1068,3707;0,176516
1069,3350;0,173598
1070,2992;0,170895
1071,2634;0,168351
1072,2277;0,165896
1073,1919;0,163456
1074,1561;0,160966
1075,1204;0,158388
1076,0846;0,155722
1077,0488;0,153003
1078,0131;0,150295
1078,9773;0,147678
1079,9415;0,145232
1080,9058;0,14302
1081,8700;0,141079
1082,8342;0,139415
1083,7985;0,138009
1084,7627;0,136832
1085,7269;0,13586
1086,6912;0,135078
1087,6554;0,134478
1088,6196;0,134051
1089,5839;0,133781
1090,5481;0,133649
1091,5123;0,13364
1092,4766;0,133747
1093,4408;0,133968
1094,4050;0,134298
1095,3693;0,134725
1096,3335;0,135225
1097,2977;0,13577
1098,2620;0,13633
1099,2262;0,136878
1100,1904;0,137389
1101,1547;0,137834
1102,1189;0,138185
1103,0831;0,138419
1104,0474;0,138522
1105,0116;0,138495
1105,9758;0,138354
1106,9401;0,138117
1107,9043;0,13779
1108,8685;0,137353
1109,8328;0,13675
1110,7970;0,135902
1111,7612;0,134732
1112,7255;0,1332
1113,6897;0,131337
1114,6539;0,129245
1115,6182;0,127072
1116,5824;0,12497
1117,5466;0,123051
1118,5109;0,121354
1119,4751;0,119848
1120,4393;0,118448
1121,4036;0,117045
1122,3678;0,115536
1123,3320;0,113846
1124,2963;0,11194
1125,2605;0,109827
1126,2247;0,107552
1127,1890;0,10518
1128,1532;0,102779
1129,1174;0,100401
1130,0817;0,0980727
1131,0459;0,0958023
1132,0101;0,0935911
1132,9744;0,0914497
1133,9386;0,0894083
1134,9028;0,0875163
1135,8671;0,0858331
1136,8313;0,0844128
1137,7955;0,0832905
1138,7598;0,0824751
1139,7240;0,0819503
1140,6882;0,0816812
1141,6525;0,0816234
1142,6167;0,081731
1143,5809;0,0819616
1144,5452;0,0822802
1145,5094;0,0826611
1146,4736;0,0830912
1147,4379;0,0835689
1148,4021;0,0841015
1149,3663;0,0846973
1150,3306;0,0853576
1151,2948;0,0860703
1152,2590;0,0868094
1153,2233;0,0875385
1154,1875;0,0882163
1155,1517;0,088799
1156,1160;0,0892395
1157,0802;0,0894829
1158,0444;0,0894628
1159,0087;0,0891016
1159,9729;0,0883175
1160,9371;0,0870384
1161,9014;0,0852218
1162,8656;0,0828712
1163,8298;0,0800462
1164,7941;0,0768579
1165,7583;0,0734522
1166,7225;0,0699849
1167,6868;0,0665974
1168,6510;0,0633994
1169,6152;0,0604623
1170,5795;0,0578215
1171,5437;0,0554849
1172,5079;0,0534422
1173,4722;0,0516725
1174,4364;0,0501505
1175,4006;0,0488488
1176,3649;0,0477409
1177,3291;0,046801
1178,2933;0,0460046
1179,2576;0,0453293
1180,2218;0,0447549
1181,1860;0,0442656
1182,1503;0,0438515
1183,1145;0,0435089
1184,0787;0,0432401
1185,0430;0,0430516
1186,0072;0,0429518
1186,9714;0,0429474
1187,9357;0,043041
1188,8999;0,0432288
1189,8641;0,0435012
1190,8284;0,0438457
1191,7926;0,0442519
1192,7568;0,0447145
1193,7211;0,0452338
1194,6853;0,045811
1195,6495;0,0464419
1196,6138;0,0471124
1197,5780;0,0477995
1198,5422;0,0484777
1199,5065;0,0491017
1200,4707;0,0497148
1201,4349;0,0502877
1202,3992;0,0508205
1203,3634;0,0513083
1204,3276;0,0517394
1205,2919;0,052101
1206,2561;0,0523882
1207,2203;0,0526126
1208,1846;0,0528033
1209,1488;0,0530015
1210,1130;0,0532491
1211,0773;0,0535781
1212,0415;0,0540037
1213,0057;0,0545252
1213,9700;0,0551306
1214,9342;0,0558048
1215,8984;0,0565333
1216,8627;0,0573036
1217,8269;0,0581021
1218,7911;0,0589128
1219,7554;0,059718
1220,7196;0,060503
1221,6838;0,0612601
1222,6481;0,0619914
1223,6123;0,0627046
1224,5765;0,0634072
1225,5408;0,0640994
1226,5050;0,0647725
1227,4692;0,0654124
1228,4335;0,0660058
1229,3977;0,0665463
1230,3619;0,067034
1231,3262;0,0674721
1232,2904;0,0678615
1233,2546;0,0681986
1234,2189;0,0684775
1235,1831;0,0686954
1236,1473;0,0688566
1237,1116;0,068972
1238,0758;0,0690549
1239,0400;0,0691154
1240,0043;0,0691572
1240,9685;0,069178
1241,9327;0,0691718
1242,8970;0,0691325
1243,8612;0,0690542
1244,8254;0,0689315
1245,7897;0,0687593
1246,7539;0,0685345
1247,7181;0,068258
1248,6824;0,067937
1249,6466;0,0675846
1250,6108;0,0672179
1251,5751;0,066854
1252,5393;0,0665065
1253,5035;0,0661827
1254,4678;0,0658819
1255,4320;0,0655965
1256,3962;0,0653152
1257,3605;0,0650264
1258,3247;0,0647214
1259,2889;0,0643947
1260,2532;0,0640431
1261,2174;0,0636637
1262,1816;0,063253
1263,1459;0,062809
1264,1101;0,0623329
1265,0743;0,06183
1266,0386;0,0613078
1267,0028;0,0607732
1267,9670;0,0602303
1268,9313;0,059681
1269,8955;0,0591268
1270,8597;0,0585692
1271,8240;0,05801
1272,7882;0,0574499
1273,7524;0,0568898
1274,7167;0,0563327
1275,6809;0,0557859
1276,6451;0,0552586
1277,6094;0,0547565
1278,5736;0,0542763
1279,5378;0,0538046
1280,5021;0,0533238
1281,4663;0,0528219
1282,4305;0,0522992
1283,3948;0,0517691
1284,3590;0,0512516
1285,3232;0,0507675
1286,2875;0,0503344
1287,2517;0,0499673
1288,2159;0,0496781
1289,1802;0,049474
1290,1444;0,0493548
1291,1086;0,0493119
1292,0729;0,0493331
1293,0371;0,0494092
1294,0013;0,0495392
1294,9656;0,0497304
1295,9298;0,0499932
1296,8940;0,0503348
1297,8583;0,0507553
1298,8225;0,0512488
1299,7867;0,0518066
1300,7510;0,0524199
1301,7152;0,0530814
1302,6794;0,053786
1303,6437;0,054531
1304,6079;0,055317
1305,5721;0,0561454
1306,5364;0,0570148
1307,5006;0,057918
1308,4648;0,0588416
1309,4291;0,0597697
1310,3933;0,0606855
1311,3575;0,0615721
1312,3218;0,0624089
1313,2860;0,0631687
1314,2502;0,0638172
1315,2145;0,0643172
1316,1787;0,0646352
1317,1429;0,0647513
1318,1072;0,06467
1319,0714;0,0644252
1320,0356;0,0640733
1320,9999;0,0636737
1321,9641;0,0632715
1322,9283;0,0628912
1323,8926;0,0625441
1324,8568;0,062239
1325,8210;0,0619871
1326,7853;0,0617992
1327,7495;0,0616781
1328,7137;0,061613
1329,6780;0,0615796
1330,6422;0,0615456
1331,6064;0,0614793
1332,5707;0,0613562
1333,5349;0,0611608
1334,4991;0,060882
1335,4634;0,0605083
1336,4276;0,0600273
1337,3918;0,0594364
1338,3561;0,0587607
1339,3203;0,05806
1340,2845;0,0574072
1341,2488;0,0568487
1342,2130;0,056386
1343,1772;0,0559925
1344,1415;0,0556422
1345,1057;0,0553278
1346,0699;0,0550648
1347,0342;0,0548822
1347,9984;0,0548071
1348,9626;0,0548508
1349,9269;0,0550028
1350,8911;0,0552355
1351,8553;0,0555161
1352,8196;0,0558202
1353,7838;0,0561399
1354,7480;0,0564838
1355,7123;0,0568659
1356,6765;0,0572918
1357,6407;0,0577504
1358,6050;0,0582181
1359,5692;0,058669
1360,5334;0,0590836
1361,4977;0,059456
1362,4619;0,059797
1363,4261;0,0601269
1364,3904;0,0604616
1365,3546;0,0608022
1366,3188;0,0611367
1367,2831;0,061446
1368,2473;0,061708
1369,2115;0,0618981
1370,1758;0,0619897
1371,1400;0,0619544
1372,1042;0,0617667
1373,0685;0,0614188
1374,0327;0,0609386
1374,9969;0,0603871
1375,9612;0,0598212
1376,9254;0,0592499
1377,8896;0,0586332
1378,8539;0,0579209
1379,8181;0,0570988
1380,7823;0,0562079
1381,7466;0,0553208
1382,7108;0,0544902
1383,6750;0,0537161
1384,6393;0,052955
1385,6035;0,052166
1386,5677;0,0513647
1387,5320;0,0506372
1388,4962;0,0500802
1389,4604;0,049724
1390,4247;0,0495258
1391,3889;0,0494176
1392,3531;0,0493491
1393,3174;0,0493019
1394,2816;0,0492829
1395,2458;0,0493059
1396,2101;0,0493738
1397,1743;0,0494751
1398,1385;0,0495967
1399,1028;0,0497346
1400,0670;0,0498926
1401,0313;0,050074
1401,9955;0,050278
1402,9597;0,0505024
1403,9240;0,0507492
1404,8882;0,0510251
1405,8524;0,051336
1406,8167;0,0516805
1407,7809;0,052052
1408,7451;0,0524468
1409,7094;0,0528716
1410,6736;0,0533395
1411,6378;0,053857
1412,6021;0,054412
1413,5663;0,0549757
1414,5305;0,0555168
1415,4948;0,0560148
1416,4590;0,0564629
1417,4232;0,0568647
1418,3875;0,0572278
1419,3517;0,0575563
1420,3159;0,0578399
1421,2802;0,0580509
1422,2444;0,0581549
1423,2086;0,0581306
1424,1729;0,0579813
1425,1371;0,0577276
1426,1013;0,0573822
1427,0656;0,0569282
1428,0298;0,05633
1428,9940;0,0555779
1429,9583;0,05473
1430,9225;0,0538945
1431,8867;0,053149
1432,8510;0,0524806
1433,8152;0,0517976
1434,7794;0,0509958
1435,7437;0,0500556
1436,7079;0,0491119
1437,6721;0,0483754
1438,6364;0,0479449
1439,6006;0,0477607
1440,5648;0,0477113
1441,5291;0,0477214
1442,4933;0,0477689
1443,4575;0,0478621
1444,4218;0,0480123
1445,3860;0,0482161
1446,3502;0,0484561
1447,3145;0,0487136
1448,2787;0,0489807
1449,2429;0,0492601
1450,2072;0,0495538
1451,1714;0,0498519
1452,1356;0,050131
1453,0999;0,0503556
1454,0641;0,0504713
1455,0283;0,0503934
1455,9926;0,0500319
1456,9568;0,0494344
1457,9210;0,0488838
1458,8853;0,0486134
1459,8495;0,0485781
1460,8137;0,0486055
1461,7780;0,0485358
1462,7422;0,0482405
1463,7064;0,0476373
1464,6707;0,046755
1465,6349;0,0457634
1466,5991;0,0448519
1467,5634;0,0440773
1468,5276;0,043357
1469,4918;0,0425423
1470,4561;0,0414724
1471,4203;0,0400322
1472,3845;0,0382735
1473,3488;0,0364957
1474,3130;0,0350438
1475,2772;0,0340179
1476,2415;0,033302
1477,2057;0,0327505
1478,1699;0,0322724
1479,1342;0,0318256
1480,0984;0,0313975
1481,0626;0,0309961
1482,0269;0,0306456
1482,9911;0,0303736
1483,9553;0,0301922
1484,9196;0,0300862
1485,8838;0,030015
1486,8480;0,0299291
1487,8123;0,029801
1488,7765;0,0296681
1489,7407;0,0296299
1490,7050;0,0297606
1491,6692;0,030045
1492,6334;0,0304186
1493,5977;0,0308248
1494,5619;0,0312341
1495,5261;0,0316401
1496,4904;0,0320551
1497,4546;0,0325054
1498,4188;0,033015
1499,3831;0,0335822
1500,3473;0,0341764
1501,3115;0,0347557
1502,2758;0,0352796
1503,2400;0,0357066
1504,2042;0,0359749
1505,1685;0,035975
1506,1327;0,0355776
1507,0969;0,0348552
1508,0612;0,0341981
1509,0254;0,0338545
1509,9896;0,033731
1510,9539;0,0336611
1511,9181;0,033541
1512,8823;0,0333213
1513,8466;0,0329858
1514,8108;0,0325486
1515,7750;0,032054
1516,7393;0,0315572
1517,7035;0,0310884
1518,6677;0,0306329
1519,6320;0,030153
1520,5962;0,029639
1521,5604;0,0291408
1522,5247;0,0287357
1523,4889;0,0284641
1524,4531;0,028314
1525,4174;0,0282562
1526,3816;0,0282745
1527,3458;0,0283643
1528,3101;0,0285169
1529,2743;0,0287155
1530,2385;0,0289476
1531,2028;0,0292217
1532,1670;0,0295701
1533,1312;0,030024
1534,0955;0,0305755
1535,0597;0,0311721
1536,0239;0,0317525
1536,9882;0,0322686
1537,9524;0,0326678
1538,9166;0,0328522
1539,8809;0,0326809
1540,8451;0,0321518
1541,8093;0,0315603
1542,7736;0,0311729
1543,7378;0,0309909
1544,7020;0,0309211
1545,6663;0,0309049
1546,6305;0,0309205
1547,5947;0,0309557
1548,5590;0,030996
1549,5232;0,0310321
1550,4874;0,0310743
1551,4517;0,0311546
1552,4159;0,0313043
1553,3801;0,0315252
1554,3444;0,0317788
1555,3086;0,0319927
1556,2728;0,0320655
1557,2371;0,0318904
1558,2013;0,0314974
1559,1655;0,0312127
1560,1298;0,0313168
1561,0940;0,031726
1562,0582;0,0322524
1563,0225;0,0327883
1563,9867;0,0332899
1564,9509;0,0337378
1565,9152;0,0341225
1566,8794;0,034451
1567,8436;0,0347609
1568,8079;0,0351147
1569,7721;0,0355575
1570,7363;0,0360772
1571,7006;0,0366212
1572,6648;0,0371422
1573,6290;0,037622
1574,5933;0,0380727
1575,5575;0,0385274
1576,5217;0,0390216
1577,4860;0,0395692
1578,4502;0,0401603
1579,4144;0,0407802
1580,3787;0,0414217
1581,3429;0,0420826
1582,3071;0,0427591
1583,2714;0,0434442
1584,2356;0,0441318
1585,1998;0,0448211
1586,1641;0,0455118
1587,1283;0,0461959
1588,0925;0,0468526
1589,0568;0,0474537
1590,0210;0,0479727
1590,9852;0,0483899
1591,9495;0,0486905
1592,9137;0,0488618
1593,8779;0,0488978
1594,8422;0,0488075
1595,8064;0,0486173
1596,7706;0,0483614
1597,7349;0,0480689
1598,6991;0,0477573
1599,6633;0,0474362
1600,6276;0,0471137
1601,5918;0,0468011
1602,5560;0,0465112
1603,5203;0,0462525
1604,4845;0,0460216
1605,4487;0,0458019
1606,4130;0,0455703
1607,3772;0,0453135
1608,3414;0,0450466
1609,3057;0,0448156
1610,2699;0,0446708
1611,2341;0,0446287
1612,1984;0,044659
1613,1626;0,0446994
1614,1268;0,0446791
1615,0911;0,0445541
1616,0553;0,0443567
1617,0195;0,0442015
1617,9838;0,0441847
1618,9480;0,0442958
1619,9122;0,0444531
1620,8765;0,0445754
1621,8407;0,0446175
1622,8049;0,0445844
1623,7692;0,0445259
1624,7334;0,0444966
1625,6976;0,0445135
1626,6619;0,0445587
1627,6261;0,0446143
1628,5903;0,0446855
1629,5546;0,04479
1630,5188;0,0449312
1631,4830;0,0450819
1632,4473;0,0451834
1633,4115;0,0451527
1634,3757;0,0449136
1635,3400;0,0444904
1636,3042;0,0440751
1637,2684;0,0438637
1638,2327;0,0438662
1639,1969;0,0439819
1640,1611;0,0441267
1641,1254;0,0442614
1642,0896;0,0443672
1643,0538;0,0444159
1644,0181;0,0443545
1644,9823;0,0441245
1645,9465;0,043743
1646,9108;0,0433679
1647,8750;0,043176
1648,8392;0,0431844
1649,8035;0,0432617
1650,7677;0,0432044
1651,7319;0,0427677
1652,6962;0,0418208
1653,6604;0,0407038
1654,6246;0,039992
1655,5889;0,0397715
1656,5531;0,0397846
1657,5173;0,0398185
1658,4816;0,039763
1659,4458;0,0395578
1660,4100;0,0391714
1661,3743;0,0386276
1662,3385;0,0380348
1663,3027;0,0375349
1664,2670;0,0371957
1665,2312;0,0369751
1666,1954;0,0367643
1667,1597;0,0364387
1668,1239;0,0359105
1669,0881;0,0352034
1670,0524;0,0344763
1671,0166;0,0338953
1671,9808;0,0334803
1672,9451;0,0331233
1673,9093;0,0327067
1674,8735;0,0321983
1675,8378;0,0316785
1676,8020;0,0312734
1677,7662;0,0310471
1678,7305;0,0309664
1679,6947;0,0309387
1680,6589;0,0308451
1681,6232;0,030547
1682,5874;0,0299268
1683,5516;0,0290348
1684,5159;0,0281711
1685,4801;0,0276042
1686,4443;0,0273237
1687,4086;0,0271835
1688,3728;0,0270768
1689,3370;0,0269715
1690,3013;0,0268793
1691,2655;0,026819
1692,2297;0,026792
1693,1940;0,0267782
1694,1582;0,0267463
1695,1224;0,0266675
1696,0867;0,0265265
1697,0509;0,0263226
1698,0151;0,0260694
1698,9794;0,0258032
1699,9436;0,0255859
1700,9078;0,025475
1701,8721;0,0254838
1702,8363;0,0255787
1703,8005;0,0257099
1704,7648;0,0258433
1705,7290;0,0259775
1706,6932;0,0261416
1707,6575;0,0263715
1708,6217;0,0266828
1709,5859;0,027065
1710,5502;0,0274929
1711,5144;0,0279372
1712,4786;0,0283656
1713,4429;0,0287415
1714,4071;0,0290249
1715,3713;0,029192
1716,3356;0,0292747
1717,2998;0,0293778
1718,2640;0,0295979
1719,2283;0,0299401
1720,1925;0,0303491
1721,1567;0,0307728
1722,1210;0,0311813
1723,0852;0,0315625
1724,0494;0,0319166
1725,0137;0,0322531
1725,9779;0,0325866
1726,9421;0,0329289
1727,9064;0,0332805
1728,8706;0,0336238
1729,8348;0,033919
1730,7991;0,034103
1731,7633;0,0341031
1732,7275;0,0338895
1733,6918;0,0335472
1734,6560;0,0332378
1735,6202;0,0330473
1736,5845;0,0329304
1737,5487;0,0327852
1738,5129;0,0325266
1739,4772;0,0321222
1740,4414;0,0316049
1741,4056;0,0310537
1742,3699;0,0305381
1743,3341;0,0300758
1744,2983;0,0296405
1745,2626;0,029191
1746,2268;0,0286825
1747,1910;0,0280614
1748,1553;0,0272768
1749,1195;0,0263321
1750,0837;0,0253341
1751,0480;0,024443
1752,0122;0,0237522
1752,9764;0,0232417
1753,9407;0,0228286
1754,9049;0,0224335
1755,8691;0,0220166
1756,8334;0,0215809
1757,7976;0,0211468
1758,7618;0,0207196
1759,7261;0,0202819
1760,6903;0,0198208
1761,6545;0,0193602
1762,6188;0,0189564
1763,5830;0,018656
1764,5472;0,018461
1765,5115;0,0183349
1766,4757;0,018232
1767,4399;0,0181186
1768,4042;0,017976
1769,3684;0,0177888
1770,3326;0,0175379
1771,2969;0,0172185
1772,2611;0,0168731
1773,2253;0,0165864
1774,1896;0,0164239
1775,1538;0,0163863
1776,1180;0,0164253
1777,0823;0,0164808
1778,0465;0,016507
1779,0107;0,016485
1779,9750;0,0164239
1780,9392;0,0163481
1781,9034;0,0162777
1782,8677;0,0162209
1783,8319;0,0161823
1784,7961;0,0161729
1785,7604;0,0162071
1786,7246;0,0162888
1787,6888;0,0164011
1788,6531;0,0165066
1789,6173;0,016557
1790,5815;0,0165114
1791,5458;0,0163693
1792,5100;0,0161911
1793,4742;0,0160614
1794,4385;0,016022
1795,4027;0,0160559
1796,3669;0,0161188
1797,3312;0,0161678
1798,2954;0,0161736
1799,2596;0,0161263
1800,2239;0,0160401
1801,1881;0,0159475
1802,1523;0,0158829
1803,1166;0,0158656
1804,0808;0,0158959
1805,0450;0,0159596
1806,0093;0,0160335
1806,9735;0,0160919
1807,9377;0,0161117
1808,9020;0,0160825
1809,8662;0,0160133
1810,8304;0,0159311
1811,7947;0,0158654
1812,7589;0,015831
1813,7231;0,0158224
1814,6874;0,0158235
1815,6516;0,0158213
1816,6158;0,0158157
1817,5801;0,01582
1818,5443;0,0158502
1819,5085;0,0159104
1820,4728;0,0159859
1821,4370;0,0160512
1822,4012;0,0160842
1823,3655;0,016081
1824,3297;0,0160586
1825,2939;0,0160424
1826,2582;0,0160433
1827,2224;0,0160467
1828,1866;0,0160238
1829,1509;0,0159577
1830,1151;0,0158657
1831,0793;0,0157916
1832,0436;0,0157704
1833,0078;0,0158045
1833,9720;0,0158699
1834,9363;0,0159366
1835,9005;0,015987
1836,8647;0,0160238
1837,8290;0,0160637
1838,7932;0,0161189
1839,7574;0,0161829
1840,7217;0,0162316
1841,6859;0,0162357
1842,6501;0,0161789
1843,6144;0,0160775
1844,5786;0,0159785
1845,5428;0,0159251
1846,5071;0,0159221
1847,4713;0,0159426
1848,4355;0,0159557
1849,3998;0,0159462
1850,3640;0,0159177
1851,3282;0,015887
1852,2925;0,0158733
1853,2567;0,0158889
1854,2209;0,0159354
1855,1852;0,0160051
1856,1494;0,0160848
1857,1136;0,0161586
1858,0779;0,0162126
1859,0421;0,0162386
1860,0063;0,0162378
1860,9706;0,0162209
1861,9348;0,0162029
1862,8990;0,0161948
1863,8633;0,0161986
1864,8275;0,0162071
1865,7917;0,0162086
1866,7560;0,0161941
1867,7202;0,0161638
1868,6844;0,0161279
1869,6487;0,0160981
1870,6129;0,0160775
1871,5771;0,0160617
1872,5414;0,016046
1873,5056;0,0160308
1874,4698;0,0160205
1875,4341;0,0160209
1876,3983;0,0160337
1877,3625;0,0160545
1878,3268;0,016074
1879,2910;0,0160838
1880,2552;0,0160807
1881,2195;0,0160682
1882,1837;0,0160551
1883,1479;0,0160514
1884,1122;0,0160651
1885,0764;0,0160997
1886,0406;0,0161543
1887,0049;0,0162229
1887,9691;0,0162946
1888,9333;0,0163544
1889,8976;0,0163869
1890,8618;0,016383
1891,8260;0,0163448
1892,7903;0,0162854
1893,7545;0,0162264
1894,7188;0,0161913
1895,6830;0,0161961
1896,6472;0,0162397
1897,6115;0,0163035
1898,5757;0,0163627
1899,5399;0,0164025
1900,5042;0,0164265
1901,4684;0,016453
1902,4326;0,0164991
1903,3969;0,0165654
1904,3611;0,0166313
1905,3253;0,0166677
1906,2896;0,016657
1907,2538;0,0166059
1908,2180;0,0165426
1909,1823;0,0164973
1910,1465;0,0164813
1911,1107;0,0164816
1912,0750;0,0164759
1913,0392;0,016454
1914,0034;0,0164261
1914,9677;0,0164161
1915,9319;0,0164456
1916,8961;0,0165172
1917,8604;0,0166087
1918,8246;0,0166848
1919,7888;0,0167184
1920,7531;0,0167022
1921,7173;0,0166446
1922,6815;0,0165601
1923,6458;0,016463
1924,6100;0,0163654
1925,5742;0,0162788
1926,5385;0,0162157
1927,5027;0,0161886
1928,4669;0,0162074
1929,4312;0,0162743
1930,3954;0,0163797
1931,3596;0,0165033
1932,3239;0,0166215
1933,2881;0,0167164
1934,2523;0,0167818
1935,2166;0,0168228
1936,1808;0,0168505
1937,1450;0,0168753
1938,1093;0,0169022
1939,0735;0,0169309
1940,0377;0,0169587
1941,0020;0,0169822
1941,9662;0,0169978
1942,9304;0,0170003
1943,8947;0,0169833
1944,8589;0,0169438
1945,8231;0,0168886
1946,7874;0,0168364
1947,7516;0,0168119
1948,7158;0,0168341
1949,6801;0,0169016
1950,6443;0,0169884
1951,6085;0,017055
1952,5728;0,0170718
1953,5370;0,0170403
1954,5012;0,0169975
1955,4655;0,0169965
1956,4297;0,0170737
1957,3939;0,0172221
1958,3582;0,0173884
1959,3224;0,0174982
1960,2866;0,0174975
1961,2509;0,017388
1962,2151;0,017231
1963,1793;0,0171204
1964,1436;0,0171405
1965,1078;0,0173301
1966,0720;0,0176612
1967,0363;0,0180387
1968,0005;0,0183313
1968,9647;0,0184245
1969,9290;0,0182689
1970,8932;0,0178995
1971,8574;0,0174242
1972,8217;0,0169896
1973,7859;0,0167309
1974,7501;0,01672
1975,7144;0,0169346
1976,6786;0,0172734
1977,6428;0,017612
1978,6071;0,0178632
1979,5713;0,0180006
1980,5355;0,0180411
1981,4998;0,0180167
1982,4640;0,01796
1983,4282;0,0179047
1984,3925;0,0178853
1985,3567;0,0179261
1986,3209;0,0180267
1987,2852;0,0181553
1988,2494;0,0182618
1989,2136;0,0183019
1990,1779;0,0182584
1991,1421;0,0181474
1992,1063;0,018008
1993,0706;0,0178842
1994,0348;0,0178122
1994,9990;0,0178147
1995,9633;0,0178966
1996,9275;0,0180351
1997,8917;0,0181757
1998,8560;0,0182478
1999,8202;0,0182056
2000,7844;0,0180691
2001,7487;0,0179315
2002,7129;0,0179162
2003,6771;0,0181059
2004,6414;0,0184852
2005,6056;0,0189367
2006,5698;0,019302
2007,5341;0,0194711
2008,4983;0,0194372
2009,4625;0,0192751
2010,4268;0,0190733
2011,3910;0,0188822
2012,3552;0,018714
2013,3195;0,0185784
2014,2837;0,0185131
2015,2479;0,0185766
2016,2122;0,0188046
2017,1764;0,0191663
2018,1406;0,0195619
2019,1049;0,0198743
2020,0691;0,0200358
2021,0333;0,0200631
2021,9976;0,0200385
2022,9618;0,0200522
2023,9260;0,020141
2024,8903;0,0202599
2025,8545;0,0203081
2026,8187;0,0201992
2027,7830;0,0199304
2028,7472;0,0196026
2029,7114;0,0193724
2030,6757;0,0193601
2031,6399;0,0195736
2032,6041;0,0199002
2033,5684;0,0201755
2034,5326;0,0202856
2035,4968;0,0202277
2036,4611;0,020089
2037,4253;0,0199699
2038,3895;0,0199163
2039,3538;0,0199041
2040,3180;0,0198748
2041,2822;0,0197882
2042,2465;0,0196548
2043,2107;0,0195286
2044,1749;0,019473
2045,1392;0,0195239
2046,1034;0,0196702
2047,0676;0,0198554
2048,0320;0,0199993
2048,9961;0,0200338
2049,9604;0,0199351
2050,9246;0,0197361
2051,8889;0,0195118
2052,8530;0,0193491
2053,8174;0,0193094
2054,7815;0,0194011
2055,7458;0,0195767
2056,7100;0,0197589
2057,6743;0,0198829
2058,6384;0,0199255
2059,6028;0,0199043
2060,5669;0,0198525
2061,5313;0,0197932
2062,4954;0,0197323
2063,4597;0,0196698
2064,4238;0,0196143
2065,3882;0,0195832
2066,3523;0,0195877
2067,3167;0,019618
2068,2808;0,0196449
2069,2451;0,0196388
2070,2092;0,0195905
2071,1736;0,0195161
2072,1377;0,0194429
2073,1021;0,019386
2074,0662;0,0193377
2075,0305;0,0192766
2075,9946;0,0191887
2076,9590;0,0190833
2077,9231;0,0189892
2078,8875;0,0189363
2079,8516;0,0189368
2080,8159;0,01898
2081,7800;0,0190429
2082,7444;0,0191065
2083,7085;0,0191652
2084,6729;0,0192243
2085,6370;0,0192888
2086,6013;0,0193528
2087,5654;0,0193988
2088,5298;0,0194062
2089,4939;0,0193661
2090,4583;0,0192916
2091,4224;0,019217
2092,3867;0,0191836
2093,3508;0,0192178
2094,3152;0,0193143
2095,2793;0,0194343
2096,2437;0,019525
2097,2078;0,0195499
2098,1721;0,0195096
2099,1362;0,0194403
2100,1006;0,019389
2101,0647;0,0193862
2102,0291;0,0194289
2102,9932;0,0194871
2103,9575;0,0195235
2104,9216;0,0195153
2105,8860;0,019464
2106,8501;0,0193912
2107,8145;0,0193257
2108,7786;0,0192913
2109,7429;0,0192991
2110,7070;0,0193454
2111,6714;0,0194148
2112,6355;0,0194863
2113,5999;0,019542
2114,5640;0,0195761
2115,5283;0,0195975
2116,4924;0,0196257
2117,4568;0,0196783
2118,4209;0,0197594
2119,3853;0,019854
2120,3494;0,0199343
2121,3137;0,0199736
2122,2778;0,0199606
2123,2422;0,0199065
2124,2063;0,0198408
2125,1707;0,0197996
2126,1348;0,0198116
2127,0991;0,0198877
2128,0632;0,020018
2129,0276;0,0201755
2129,9917;0,0203256
2130,9561;0,0204387
2131,9202;0,0205023
2132,8845;0,0205276
2133,8486;0,0205467
2134,8130;0,0205994
2135,7771;0,0207127
2136,7415;0,0208868
2137,7056;0,0210941
2138,6699;0,0212926
2139,6340;0,0214461
2140,5984;0,0215392
2141,5625;0,0215819
2142,5269;0,0216036
2143,4910;0,0216379
2144,4553;0,0217065
2145,4194;0,0218077
2146,3838;0,0219157
2147,3479;0,0219937
2148,3123;0,0220153
2149,2764;0,0219852
2150,2407;0,0219449
2151,2048;0,021959
2152,1692;0,0220854
2153,1333;0,0223449
2154,0977;0,0227059
2155,0618;0,023092
2156,0261;0,0234099
2156,9902;0,0235886
2157,9546;0,0236156
2158,9187;0,0235443
2159,8831;0,023458
2160,8472;0,0234165
2161,8115;0,0234291
2162,7756;0,0234642
2163,7400;0,023474
2164,7041;0,0234145
2165,6685;0,0232582
2166,6326;0,0230027
2167,5969;0,0226754
2168,5610;0,0223293
2169,5254;0,0220289
2170,4895;0,0218267
2171,4539;0,0217409
2172,4180;0,0217456
2173,3823;0,0217845
2174,3464;0,0218051
2175,3108;0,0217935
2176,2749;0,0217841
2177,2393;0,0218314
2178,2034;0,0219645
2179,1677;0,0221554
2180,1318;0,0223267
2181,0962;0,0223965
2182,0603;0,0223302
2183,0247;0,0221631
2183,9888;0,021975
2184,9531;0,0218361
2185,9172;0,0217669
2186,8816;0,0217363
2187,8457;0,0216925
2188,8101;0,0215995
2189,7742;0,021455
2190,7385;0,021283
2191,7026;0,0211158
2192,6670;0,02098
2193,6311;0,0208944
2194,5955;0,0208727
2195,5596;0,0209211
2196,5239;0,0210298
2197,4880;0,0211663
2198,4524;0,0212801
2199,4165;0,0213215
2200,3809;0,0212659
2201,3450;0,0211279
2202,3093;0,0209581
2203,2734;0,0208214
2204,2378;0,0207707
2205,2019;0,0208261
2206,1663;0,0209685
2207,1304;0,0211464
2208,0947;0,0212927
2209,0588;0,0213462
2210,0232;0,0212726
2210,9873;0,0210792
2211,9517;0,020818
2212,9158;0,0205709
2213,8801;0,0204194
2214,8442;0,0204106
2215,8086;0,0205358
2216,7727;0,0207353
2217,7371;0,0209286
2218,7012;0,0210532
2219,6655;0,0210896
2220,6296;0,0210584
2221,5940;0,0209963
2222,5581;0,0209297
2223,5225;0,0208651
2224,4866;0,0207977
2225,4509;0,020728
2226,4150;0,0206663
2227,3794;0,0206244
2228,3435;0,0206013
2229,3079;0,0205814
2230,2720;0,0205469
2231,2363;0,0204953
2232,2004;0,0204424
2233,1648;0,0204076
2234,1289;0,0203922
2235,0933;0,020372
2236,0574;0,0203136
2237,0217;0,0202032
2237,9858;0,0200637
2238,9502;0,0199455
2239,9143;0,0198943
2240,8787;0,019922
2241,8428;0,0200007
2242,8071;0,0200833
2243,7712;0,0201336
2244,7356;0,020144
2245,6997;0,0201304
2246,6641;0,0201139
2247,6282;0,0201043
2248,5925;0,020098
2249,5566;0,0200863
2250,5210;0,0200647
2251,4851;0,0200351
2252,4495;0,0200021
2253,4136;0,0199699
2254,3779;0,0199415
2255,3420;0,0199205
2256,3064;0,0199104
2257,2705;0,0199104
2258,2349;0,0199121
2259,1990;0,0199007
2260,1633;0,019861
2261,1274;0,0197852
2262,0918;0,0196775
2263,0559;0,019554
2264,0203;0,0194383
2264,9844;0,0193548
2265,9487;0,019321
2266,9128;0,0193406
2267,8772;0,0193995
2268,8413;0,0194697
2269,8057;0,0195201
2270,7698;0,0195309
2271,7341;0,0195025
2272,6982;0,0194546
2273,6626;0,019413
2274,6267;0,0193963
2275,5911;0,0194071
2276,5552;0,0194355
2277,5195;0,0194676
2278,4836;0,0194939
2279,4480;0,0195099
2280,4121;0,0195131
2281,3765;0,0195005
2282,3406;0,0194695
2283,3049;0,0194243
2284,2690;0,0193778
2285,2334;0,0193482
2286,1975;0,0193495
2287,1619;0,0193815
2288,1260;0,0194269
2289,0903;0,0194597
2290,0544;0,0194585
2291,0188;0,0194191
2291,9829;0,019356
2292,9473;0,0192937
2293,9114;0,0192529
2294,8757;0,0192403
2295,8398;0,0192505
2296,8042;0,019274
2297,7683;0,0193079
2298,7327;0,0193577
2299,6968;0,0194309
2300,6611;0,0195263
2301,6252;0,0196294
2302,5896;0,0197172
2303,5537;0,0197697
2304,5181;0,0197808
2305,4822;0,0197615
2306,4465;0,0197338
2307,4106;0,0197205
2308,3750;0,0197353
2309,3391;0,0197798
2310,3035;0,0198467
2311,2676;0,0199262
2312,2319;0,02001
2313,1960;0,0200935
2314,1604;0,0201743
2315,1245;0,0202519
2316,0889;0,0203269
2317,0530;0,0203994
2318,0173;0,0204675
2318,9814;0,0205244
2319,9458;0,0205574
2320,9099;0,0205504
2321,8743;0,0204914
2322,8384;0,0203802
2323,8027;0,0202331
2324,7668;0,0200788
2325,7312;0,0199491
2326,6953;0,0198697
2327,6597;0,0198533
2328,6238;0,019896
2329,5881;0,0199775
2330,5522;0,0200658
2331,5166;0,0201285
2332,4807;0,0201452
2333,4451;0,0201129
2334,4092;0,0200412
2335,3735;0,0199434
2336,3376;0,0198304
2337,3020;0,0197105
2338,2661;0,0195895
2339,2305;0,0194689
2340,1946;0,0193436
2341,1589;0,0192076
2342,1230;0,0190687
2343,0874;0,0189568
2344,0515;0,0189015
2345,0159;0,0189016
2345,9800;0,0189391
2346,9443;0,0190157
2347,9084;0,0191553
2348,8728;0,0193777
2349,8369;0,0196737
2350,8013;0,0199981
2351,7654;0,0202816
2352,7297;0,0204606
2353,6938;0,0205107
2354,6582;0,0204557
2355,6223;0,020345
2356,5867;0,02023
2357,5508;0,0201548
2358,5151;0,0201413
2359,4792;0,0201643
2360,4436;0,0201503
2361,4077;0,0200261
2362,3721;0,0197797
2363,3362;0,0194784
2364,3005;0,0192287
2365,2646;0,0191099
2366,2290;0,0191359
2367,1931;0,0192649
2368,1575;0,0194374
2369,1216;0,0196066
2370,0859;0,0197455
2371,0500;0,0198406
2372,0144;0,0198845
2372,9785;0,0198764
2373,9429;0,0198249
2374,9070;0,0197483
2375,8713;0,0196683
2376,8354;0,0196023
2377,7998;0,0195587
2378,7639;0,019538
2379,7283;0,0195381
2380,6924;0,0195588
2381,6567;0,0196026
2382,6208;0,0196708
2383,5852;0,01976
2384,5493;0,01986
2385,5137;0,0199572
2386,4778;0,0200394
2387,4421;0,0201008
2388,4063;0,0201432
2389,3706;0,0201732
2390,3347;0,0201982
2391,2991;0,020223
2392,2632;0,0202496
2393,2275;0,0202789
2394,1917;0,0203122
2395,1560;0,0203506
2396,1201;0,0203929
2397,0845;0,0204347
2398,0486;0,0204695
2399,0129;0,0204921
2399,9771;0,0205021
2400,9414;0,020504
2401,9055;0,0205056
2402,8699;0,0205146
2403,8340;0,0205356
2404,7983;0,0205691
2405,7625;0,0206116
2406,7268;0,0206568
2407,6909;0,0206972
2408,6553;0,020726
2409,6194;0,0207403
2410,5837;0,0207422
2411,5479;0,0207383
2412,5122;0,0207363
2413,4763;0,0207406
2414,4407;0,0207505
2415,4048;0,0207615
2416,3691;0,0207702
2417,3333;0,0207784
2418,2976;0,0207933
2419,2617;0,0208234
2420,2261;0,0208715
2421,1902;0,0209307
2422,1545;0,0209866
2423,1187;0,0210236
2424,0830;0,0210333
2425,0471;0,0210189
2426,0115;0,0209939
2426,9756;0,0209753
2427,9399;0,0209766
2428,9041;0,0210021
2429,8684;0,0210468
2430,8325;0,0210992
2431,7969;0,0211473
2432,7610;0,0211846
2433,7253;0,021212
2434,6895;0,021237
2435,6538;0,0212675
2436,6179;0,0213057
2437,5823;0,0213452
2438,5464;0,0213733
2439,5107;0,0213797
2440,4749;0,0213636
2441,4392;0,021337
2442,4033;0,0213193
2443,3677;0,0213274
2444,3318;0,0213676
2445,2961;0,0214327
2446,2603;0,0215065
2447,2246;0,0215707
2448,1887;0,0216116
2449,1531;0,021623
2450,1172;0,0216067
2451,0815;0,021572
2452,0457;0,0215335
2453,0100;0,0215071
2453,9741;0,0215045
2454,9385;0,0215285
2455,9026;0,0215714
2456,8669;0,0216191
2457,8311;0,0216583
2458,7954;0,0216822
2459,7595;0,0216925
2460,7239;0,0216965
2461,6880;0,0217021
2462,6523;0,0217146
2463,6165;0,0217353
2464,5808;0,021763
2465,5449;0,0217954
2466,5093;0,0218296
2467,4734;0,0218621
2468,4377;0,0218896
2469,4019;0,0219097
2470,3662;0,021921
2471,3303;0,0219243
2472,2947;0,0219214
2473,2588;0,0219161
2474,2231;0,021914
2475,1873;0,0219212
2476,1516;0,0219427
2477,1157;0,0219787
2478,0801;0,0220239
2479,0442;0,0220683
2480,0085;0,022102
2480,9727;0,0221198
2481,9370;0,0221227
2482,9011;0,0221161
2483,8655;0,0221057
2484,8296;0,0220947
2485,7939;0,0220843
2486,7581;0,0220772
2487,7224;0,0220789
2488,6865;0,0220961
2489,6509;0,0221313
2490,6150;0,0221781
2491,5793;0,0222227
2492,5435;0,0222496
2493,5078;0,0222516
2494,4719;0,0222338
2495,4363;0,0222117
2496,4004;0,0222017
2497,3647;0,0222117
2498,3289;0,022238
2499,2932;0,0222705
2500,2573;0,0223004
2501,2217;0,0223261
2502,1858;0,0223522
2503,1501;0,0223826
2504,1143;0,022416
2505,0786;0,0224465
2506,0427;0,0224694
2507,0071;0,0224862
2507,9712;0,0225041
2508,9355;0,0225291
2509,8997;0,0225593
2510,8640;0,0225846
2511,8281;0,0225938
2512,7925;0,022584
2513,7566;0,0225644
2514,7209;0,0225505
2515,6851;0,0225537
2516,6494;0,0225733
2517,6135;0,022598
2518,5779;0,0226146
2519,5420;0,0226176
2520,5063;0,0226115
2521,4705;0,0226062
2522,4348;0,0226094
2523,3989;0,0226224
2524,3633;0,0226411
2525,3274;0,0226598
2526,2917;0,0226745
2527,2559;0,0226823
2528,2202;0,0226811
2529,1843;0,0226698
2530,1487;0,0226514
2531,1128;0,0226337
2532,0771;0,0226267
2533,0413;0,0226373
2534,0056;0,022664
2534,9697;0,0226969
2535,9341;0,0227227
2536,8982;0,022732
2537,8625;0,0227229
2538,8267;0,0227013
2539,7910;0,0226772
2540,7551;0,0226606
2541,7195;0,0226595
2542,6836;0,0226785
2543,6479;0,0227168
2544,6121;0,0227671
2545,5764;0,0228158
2546,5405;0,0228481
2547,5049;0,0228551
2548,4690;0,0228393
2549,4333;0,0228147
2550,3975;0,0227986
2551,3618;0,0228021
2552,3259;0,022824
2553,2903;0,0228532
2554,2544;0,022877
2555,2188;0,0228903
2556,1829;0,0228985
2557,1472;0,0229118
2558,1113;0,0229362
2559,0757;0,0229678
2560,0398;0,0229941
2561,0042;0,0230032
2561,9683;0,0229926
2562,9326;0,0229713
2563,8967;0,0229544
2564,8611;0,0229533
2565,8252;0,0229684
2566,7896;0,0229893
2567,7537;0,0230024
2568,7180;0,0229998
2569,6821;0,0229844
2570,6465;0,022968
2571,6106;0,0229646
2572,5750;0,0229833
2573,5391;0,0230246
2574,5034;0,02308
2575,4675;0,0231363
2576,4319;0,0231801
2577,3960;0,0232026
2578,3604;0,0232026
2579,3245;0,0231867
2580,2888;0,0231664
2581,2529;0,0231537
2582,2173;0,0231553
2583,1814;0,0231705
2584,1458;0,0231916
2585,1099;0,0232083
2586,0742;0,023213
2587,0383;0,023205
2588,0027;0,0231911
2588,9668;0,023183
2589,9312;0,0231917
2590,8953;0,0232221
2591,8596;0,02327
2592,8237;0,0233229
2593,7881;0,0233655
2594,7522;0,0233873
2595,7166;0,0233873
2596,6807;0,0233744
2597,6450;0,0233618
2598,6091;0,02336
2599,5735;0,0233727
2600,5376;0,0233965
2601,5020;0,0234249
2602,4661;0,0234524
2603,4304;0,0234758
2604,3945;0,023494
2605,3589;0,0235073
2606,3230;0,0235178
2607,2874;0,0235296
2608,2515;0,0235482
2609,2158;0,0235767
2610,1799;0,023613
2611,1443;0,0236494
2612,1084;0,0236769
2613,0728;0,0236915
2614,0369;0,0236974
2615,0012;0,0237048
2615,9653;0,0237235
2616,9297;0,0237561
2617,8938;0,0237971
2618,8582;0,0238362
2619,8223;0,0238649
2620,7866;0,0238802
2621,7507;0,0238848
2622,7151;0,0238846
2623,6792;0,0238861
2624,6436;0,0238952
2625,6077;0,0239176
2626,5720;0,0239571
2627,5361;0,0240133
2628,5005;0,0240799
2629,4646;0,0241455
2630,4290;0,0241982
2631,3931;0,0242308
2632,3574;0,0242438
2633,3215;0,0242444
2634,2859;0,0242416
2635,2500;0,0242424
2636,2144;0,0242489
2637,1785;0,0242602
2638,1428;0,0242746
2639,1069;0,024292
2640,0713;0,0243133
2641,0354;0,0243391
2641,9998;0,0243682
2642,9639;0,0243985
2643,9282;0,0244281
2644,8923;0,0244566
2645,8567;0,024485
2646,8208;0,0245143
2647,7852;0,0245442
2648,7493;0,0245729
2649,7136;0,0245976
2650,6777;0,0246175
2651,6421;0,0246337
2652,6062;0,0246498
2653,5706;0,024669
2654,5347;0,0246935
2655,4990;0,0247231
2656,4631;0,0247563
2657,4275;0,0247908
2658,3916;0,0248248
2659,3560;0,0248558
2660,3201;0,0248819
2661,2844;0,0249019
2662,2485;0,0249167
2663,2129;0,0249299
2664,1770;0,0249462
2665,1414;0,0249683
2666,1055;0,024995
2667,0698;0,0250205
2668,0339;0,0250382
2668,9983;0,0250451
2669,9624;0,0250449
2670,9268;0,0250465
2671,8909;0,0250599
2672,8552;0,0250902
2673,8193;0,0251351
2674,7837;0,0251861
2675,7478;0,025233
2676,7122;0,0252692
2677,6763;0,0252938
2678,6406;0,0253113
2679,6047;0,0253284
2680,5691;0,0253501
2681,5332;0,0253782
2682,4976;0,025411
2683,4617;0,0254455
2684,4260;0,0254797
2685,3901;0,0255138
2686,3545;0,0255498
2687,3186;0,0255897
2688,2830;0,0256335
2689,2471;0,0256781
2690,2114;0,0257184
2691,1755;0,0257499
2692,1399;0,0257714
2693,1040;0,0257859
2694,0684;0,0257987
2695,0325;0,0258147
2695,9968;0,0258359
2696,9609;0,0258614
2697,9253;0,0258889
2698,8894;0,0259179
2699,8538;0,0259497
2700,8179;0,0259871
2701,7822;0,026031
2702,7463;0,0260791
2703,7107;0,0261257
2704,6748;0,0261644
2705,6392;0,0261912
2706,6033;0,0262065
2707,5676;0,0262146
2708,5317;0,0262217
2709,4961;0,0262341
2710,4602;0,0262563
2711,4246;0,0262909
2712,3887;0,0263378
2713,3530;0,0263941
2714,3171;0,0264541
2715,2815;0,0265101
2716,2456;0,0265555
2717,2100;0,0265873
2718,1741;0,0266078
2719,1384;0,0266226
2720,1025;0,0266374
2721,0669;0,0266552
2722,0310;0,0266749
2722,9954;0,0266938
2723,9595;0,0267104
2724,9238;0,0267258
2725,8879;0,0267431
2726,8523;0,0267652
2727,8164;0,026793
2728,7808;0,0268253
2729,7449;0,0268603
2730,7092;0,0268965
2731,6733;0,0269333
2732,6377;0,0269696
2733,6018;0,0270034
2734,5662;0,0270319
2735,5303;0,0270533
2736,4946;0,0270675
2737,4587;0,0270768
2738,4231;0,0270852
2739,3872;0,0270967
2740,3516;0,0271147
2741,3157;0,0271414
2742,2800;0,0271767
2743,2441;0,0272176
2744,2085;0,0272582
2745,1726;0,0272913
2746,1370;0,0273117
2747,1011;0,0273188
2748,0654;0,0273181
2749,0295;0,0273188
2749,9939;0,02733
2750,9580;0,0273559
2751,9224;0,0273946
2752,8865;0,0274394
2753,8508;0,0274828
2754,8149;0,0275201
2755,7793;0,0275507
2756,7434;0,0275782
2757,7078;0,0276066
2758,6719;0,0276389
2759,6362;0,027675
2760,6003;0,0277125
2761,5647;0,0277482
2762,5288;0,0277802
2763,4932;0,0278089
2764,4573;0,027837
2765,4216;0,0278681
2766,3857;0,0279051
2767,3501;0,0279482
2768,3142;0,0279944
2769,2786;0,028039
2770,2427;0,0280774
2771,2070;0,0281077
2772,1711;0,0281318
2773,1355;0,028155
2774,0996;0,0281841
2775,0640;0,0282236
2776,0281;0,0282746
2776,9924;0,0283341
2777,9565;0,028397
2778,9209;0,0284587
2779,8850;0,0285163
2780,8494;0,0285694
2781,8135;0,0286188
2782,7778;0,0286659
2783,7419;0,0287116
2784,7063;0,0287567
2785,6704;0,0288017
2786,6348;0,0288474
2787,5989;0,0288947
2788,5632;0,028945
2789,5273;0,0289997
2790,4917;0,0290601
2791,4558;0,0291263
2792,4202;0,0291965
2793,3843;0,0292674
2794,3486;0,0293359
2795,3127;0,0294011
2796,2771;0,0294655
2797,2412;0,0295334
2798,2056;0,0296089
2799,1697;0,0296927
2800,1340;0,0297825
2801,0981;0,0298748
2802,0625;0,0299674
2803,0266;0,0300608
2803,9910;0,0301566
2804,9551;0,0302541
2805,9194;0,0303493
2806,8835;0,0304361
2807,8479;0,0305107
2808,8120;0,0305759
2809,7764;0,0306412
2810,7405;0,0307196
2811,7048;0,0308204
2812,6689;0,0309447
2813,6333;0,0310842
2814,5974;0,0312255
2815,5618;0,0313568
2816,5259;0,0314733
2817,4902;0,0315792
2818,4543;0,0316843
2819,4187;0,0317988
2820,3828;0,0319281
2821,3472;0,032071
2822,3113;0,0322215
2823,2756;0,0323735
2824,2397;0,0325249
2825,2041;0,032679
2826,1682;0,0328418
2827,1326;0,0330181
2828,0967;0,033208
2829,0610;0,0334077
2830,0251;0,0336125
2830,9895;0,033821
2831,9536;0,0340358
2832,9180;0,0342614
2833,8821;0,034501
2834,8464;0,0347546
2835,8105;0,0350209
2836,7749;0,0352999
2837,7390;0,0355959
2838,7034;0,0359174
2839,6675;0,0362749
2840,6318;0,0366786
2841,5959;0,037137
2842,5603;0,0376545
2843,5244;0,0382276
2844,4888;0,0388397
2845,4529;0,0394574
2846,4172;0,0400315
2847,3813;0,0405076
2848,3457;0,0408414
2849,3098;0,0410134
2850,2742;0,0410359
2851,2383;0,040948
2852,2026;0,0408008
2853,1667;0,0406411
2854,1311;0,0404992
2855,0952;0,0403858
2856,0596;0,0402985
2857,0237;0,0402308
2857,9880;0,0401808
2858,9521;0,0401529
2859,9165;0,0401554
2860,8806;0,0401934
2861,8450;0,0402654
2862,8091;0,0403628
2863,7734;0,0404741
2864,7375;0,0405907
2865,7019;0,0407093
2866,6660;0,0408311
2867,6304;0,0409581
2868,5945;0,0410896
2869,5588;0,0412211
2870,5229;0,041346
2871,4873;0,0414587
2872,4514;0,0415567
2873,4158;0,0416412
2874,3799;0,0417163
2875,3442;0,0417875
2876,3083;0,0418592
2877,2727;0,0419342
2878,2368;0,0420124
2879,2012;0,0420925
2880,1653;0,0421738
2881,1296;0,0422579
2882,0938;0,0423492
2883,0581;0,0424527
2884,0222;0,0425701
2884,9866;0,0426982
2885,9507;0,0428291
2886,9150;0,0429543
2887,8792;0,0430692
2888,8435;0,043175
2889,8076;0,0432774
2890,7720;0,043382
2891,7361;0,0434915
2892,7004;0,0436044
2893,6646;0,0437175
2894,6289;0,0438292
2895,5930;0,0439412
2896,5574;0,044057
2897,5215;0,0441792
2898,4858;0,0443063
2899,4500;0,0444319
2900,4143;0,0445467
2901,3784;0,0446433
2902,3428;0,0447204
2903,3069;0,0447848
2904,2712;0,0448506
2905,2354;0,0449349
2906,1997;0,0450527
2907,1638;0,0452139
2908,1282;0,0454239
2909,0923;0,0456853
2910,0566;0,0459992
2911,0208;0,0463618
2911,9851;0,0467598
2912,9492;0,047166
2913,9136;0,0475397
2914,8777;0,047836
2915,8420;0,0480171
2916,8062;0,0480638
2917,7705;0,0479789
2918,7346;0,0477839
2919,6990;0,0475092
2920,6631;0,0471853
2921,6274;0,0468364
2922,5916;0,0464786
2923,5559;0,0461204
2924,5200;0,0457647
2925,4844;0,0454108
2926,4485;0,045057
2927,4128;0,0447038
2928,3770;0,0443554
2929,3413;0,04402
2930,3054;0,0437071
2931,2698;0,0434222
2932,2339;0,0431634
2933,1982;0,0429205
2934,1624;0,0426793
2935,1267;0,0424275
2936,0908;0,0421605
2937,0552;0,0418825
2938,0193;0,0416029
2938,9836;0,0413305
2939,9478;0,0410684
2940,9121;0,0408128
2941,8762;0,0405571
2942,8406;0,0402966
2943,8047;0,0400318
2944,7690;0,0397684
2945,7332;0,0395131
2946,6975;0,0392711
2947,6616;0,0390436
2948,6260;0,0388291
2949,5901;0,0386251
2950,5544;0,0384292
2951,5186;0,0382394
2952,4829;0,0380538
2953,4470;0,0378711
2954,4114;0,0376901
2955,3755;0,0375098
2956,3398;0,0373287
2957,3040;0,0371445
2958,2683;0,0369546
2959,2324;0,0367588
2960,1968;0,0365601
2961,1609;0,0363652
2962,1252;0,0361815
2963,0894;0,0360136
2964,0537;0,0358604
2965,0178;0,0357153
2965,9822;0,0355687
2966,9463;0,0354123
2967,9106;0,0352415
2968,8748;0,0350575
2969,8391;0,0348651
2970,8032;0,0346712
2971,7676;0,0344823
2972,7317;0,0343027
2973,6960;0,0341343
2974,6602;0,0339775
2975,6245;0,0338322
2976,5886;0,0336981
2977,5530;0,0335748
2978,5171;0,0334613
2979,4814;0,0333557
2980,4456;0,0332564
2981,4099;0,0331633
2982,3740;0,0330783
2983,3384;0,033005
2984,3025;0,0329459
2985,2668;0,0329011
2986,2310;0,0328667
2987,1953;0,0328366
2988,1594;0,0328055
2989,1238;0,0327709
2990,0879;0,0327347
2991,0522;0,0327016
2992,0164;0,0326769
2992,9807;0,0326634
2993,9448;0,0326608
2994,9092;0,0326659
2995,8733;0,0326756
2996,8376;0,0326882
2997,8018;0,0327045
2998,7661;0,0327265
2999,7302;0,0327547
3000,6946;0,032787
3001,6587;0,0328193
3002,6230;0,0328485
3003,5872;0,0328754
3004,5515;0,0329052
3005,5156;0,0329448
3006,4800;0,0329977
3007,4441;0,033061
3008,4084;0,0331261
3009,3726;0,0331836
3010,3369;0,0332284
3011,3010;0,0332626
3012,2654;0,0332931
3013,2295;0,0333269
3014,1938;0,0333677
3015,1580;0,0334153
3016,1223;0,0334687
3017,0864;0,0335282
3018,0508;0,0335957
3019,0149;0,0336721
3019,9792;0,0337548
3020,9434;0,0338379
3021,9077;0,0339155
3022,8718;0,033986
3023,8362;0,0340531
3024,8003;0,0341248
3025,7646;0,0342077
3026,7288;0,0343036
3027,6931;0,034408
3028,6572;0,034512
3029,6216;0,0346068
3030,5857;0,0346877
3031,5500;0,0347559
3032,5142;0,0348186
3033,4785;0,0348855
3034,4426;0,0349652
3035,4070;0,0350611
3036,3711;0,0351706
3037,3354;0,0352868
3038,2996;0,0354019
3039,2639;0,0355106
3040,2280;0,0356126
3041,1924;0,0357115
3042,1565;0,0358122
3043,1208;0,0359187
3044,0850;0,0360314
3045,0493;0,0361479
3046,0134;0,0362642
3046,9778;0,0363769
3047,9419;0,0364848
3048,9063;0,0365894
3049,8704;0,0366939
3050,8347;0,0368013
3051,7988;0,0369124
3052,7632;0,0370255
3053,7273;0,0371378
3054,6917;0,0372481
3055,6558;0,0373591
3056,6201;0,0374762
3057,5842;0,0376046
3058,5486;0,0377454
3059,5127;0,0378935
3060,4771;0,0380404
3061,4412;0,0381777
3062,4055;0,0383019
3063,3696;0,0384143
3064,3340;0,0385199
3065,2981;0,0386241
3066,2625;0,0387304
3067,2266;0,0388409
3068,1909;0,0389567
3069,1550;0,0390785
3070,1194;0,0392058
3071,0835;0,0393362
3072,0479;0,0394659
3073,0120;0,0395917
3073,9763;0,0397135
3074,9404;0,0398347
3075,9048;0,03996
3076,8689;0,0400916
3077,8333;0,0402265
3078,7974;0,0403572
3079,7617;0,040476
3080,7258;0,0405804
3081,6902;0,0406754
3082,6543;0,0407712
3083,6187;0,0408775
3084,5828;0,0409987
3085,5471;0,0411318
3086,5112;0,0412703
3087,4756;0,0414085
3088,4397;0,0415451
3089,4041;0,0416825
3090,3682;0,0418237
3091,3325;0,0419687
3092,2966;0,0421146
3093,2610;0,042257
3094,2251;0,042394
3095,1895;0,042526
3096,1536;0,0426545
3097,1179;0,0427801
3098,0820;0,0429023
3099,0464;0,0430214
3100,0105;0,0431407
3100,9749;0,043266
3101,9390;0,0434022
3102,9033;0,0435498
3103,8674;0,0437034
3104,8318;0,0438553
3105,7959;0,044
3106,7603;0,0441378
3107,7244;0,0442743
3108,6887;0,0444159
3109,6528;0,0445655
3110,6172;0,0447209
3111,5813;0,0448769
3112,5457;0,045029
3113,5098;0,045176
3114,4741;0,0453197
3115,4382;0,0454628
3116,4026;0,0456074
3117,3667;0,0457539
3118,3311;0,0459024
3119,2952;0,046053
3120,2595;0,0462057
3121,2236;0,0463598
3122,1880;0,0465135
3123,1521;0,0466651
3124,1165;0,0468143
3125,0806;0,0469638
3126,0449;0,0471176
3127,0090;0,0472789
3127,9734;0,0474481
3128,9375;0,0476227
3129,9019;0,0477989
3130,8660;0,047974
3131,8303;0,0481464
3132,7944;0,048315
3133,7588;0,0484778
3134,7229;0,0486323
3135,6873;0,0487779
3136,6514;0,0489179
3137,6157;0,0490595
3138,5798;0,0492105
3139,5442;0,0493747
3140,5083;0,0495504
3141,4727;0,0497316
3142,4368;0,0499126
3143,4011;0,0500916
3144,3652;0,0502707
3145,3296;0,0504528
3146,2937;0,0506383
3147,2581;0,0508234
3148,2222;0,0510028
3149,1865;0,0511728
3150,1506;0,051334
3151,1150;0,0514908
3152,0791;0,0516488
3153,0435;0,0518125
3154,0076;0,0519836
3154,9719;0,0521617
3155,9360;0,0523451
3156,9004;0,052532
3157,8645;0,0527209
3158,8289;0,0529104
3159,7930;0,0530998
3160,7573;0,053288
3161,7214;0,0534741
3162,6858;0,0536573
3163,6499;0,0538366
3164,6143;0,0540118
3165,5784;0,0541832
3166,5427;0,0543522
3167,5068;0,0545213
3168,4712;0,0546946
3169,4353;0,054881
3170,3997;0,0550771
3171,3638;0,0552884
3172,3281;0,0555116
3173,2922;0,0557384
3174,2566;0,055958
3175,2207;0,0561622
3176,1851;0,0563489
3177,1492;0,0565228
3178,1135;0,0566914
3179,0776;0,0568607
3180,0420;0,0570313
3181,0061;0,0572002
3181,9705;0,0573649
3182,9346;0,0575273
3183,8989;0,0576935
3184,8630;0,057871
3185,8274;0,0580632
3186,7915;0,0582673
3187,7559;0,0584755
3188,7200;0,0586791
3189,6843;0,0588725
3190,6484;0,0590545
3191,6128;0,0592274
3192,5769;0,0593942
3193,5413;0,0595576
3194,5054;0,0597195
3195,4697;0,0598827
3196,4338;0,0600513
3197,3982;0,0602292
3198,3623;0,0604187
3199,3267;0,0606177
3200,2908;0,0608197
3201,2551;0,0610164
3202,2192;0,0612003
3203,1836;0,0613688
3204,1477;0,0615257
3205,1121;0,0616797
3206,0762;0,0618411
3207,0405;0,0620165
3208,0046;0,0622054
3208,9690;0,0623997
3209,9331;0,0625875
3210,8975;0,0627593
3211,8616;0,0629133
3212,8259;0,0630571
3213,7900;0,0632035
3214,7544;0,0633633
3215,7185;0,0635391
3216,6829;0,0637235
3217,6470;0,0639043
3218,6113;0,0640719
3219,5754;0,0642256
3220,5398;0,0643747
3221,5039;0,0645318
3222,4683;0,0647057
3223,4324;0,0648951
3224,3967;0,0650907
3225,3608;0,0652806
3226,3252;0,0654574
3227,2893;0,0656216
3228,2537;0,0657806
3229,2178;0,0659429
3230,1821;0,0661137
3231,1462;0,0662924
3232,1106;0,0664733
3233,0747;0,0666499
3234,0391;0,0668178
3235,0032;0,0669779
3235,9675;0,0671366
3236,9316;0,0673028
3237,8960;0,0674839
3238,8601;0,067681
3239,8245;0,0678877
3240,7886;0,0680922
3241,7529;0,0682837
3242,7170;0,0684585
3243,6814;0,0686224
3244,6455;0,0687878
3245,6099;0,0689665
3246,5740;0,0691632
3247,5383;0,0693744
3248,5024;0,0695918
3249,4668;0,0698079
3250,4309;0,0700195
3251,3953;0,0702265
3252,3594;0,0704298
3253,3237;0,0706284
3254,2878;0,0708208
3255,2522;0,071007
3256,2163;0,0711908
3257,1807;0,0713784
3258,1448;0,0715752
3259,1091;0,0717826
3260,0732;0,0719969
3261,0376;0,0722115
3262,0017;0,0724203
3262,9661;0,0726207
3263,9302;0,072814
3264,8945;0,0730033
3265,8586;0,0731913
3266,8230;0,0733777
3267,7871;0,0735586
3268,7515;0,0737276
3269,7156;0,0738782
3270,6799;0,074006
3271,6440;0,0741109
3272,6084;0,0741974
3273,5725;0,0742735
3274,5369;0,0743472
3275,5010;0,0744244
3276,4653;0,0745073
3277,4294;0,0745942
3278,3938;0,0746811
3279,3579;0,0747629
3280,3223;0,0748351
3281,2864;0,0748952
3282,2507;0,0749445
3283,2148;0,0749876
3284,1792;0,0750309
3285,1433;0,0750795
3286,1077;0,0751341
3287,0718;0,0751909
3288,0361;0,0752437
3289,0002;0,0752884
3289,9646;0,0753245
3290,9287;0,0753544
3291,8931;0,0753808
3292,8572;0,0754041
3293,8215;0,075423
3294,7856;0,0754361
3295,7500;0,0754439
3296,7141;0,0754479
3297,6785;0,0754491
3298,6426;0,0754467
3299,6069;0,0754401
3300,5710;0,0754309
3301,5354;0,0754241
3302,4995;0,0754258
3303,4639;0,0754389
3304,4280;0,0754603
3305,3923;0,075482
3306,3564;0,075495
3307,3208;0,0754942
3308,2849;0,0754799
3309,2493;0,075457
3310,2134;0,0754331
3311,1777;0,0754168
3312,1418;0,0754165
3313,1062;0,0754393
3314,0703;0,0754882
3315,0347;0,0755601
3315,9988;0,0756474
3316,9631;0,0757409
3317,9272;0,0758353
3318,8916;0,0759305
3319,8557;0,0760293
3320,8201;0,076134
3321,7842;0,0762441
3322,7485;0,0763576
3323,7126;0,0764742
3324,6770;0,0765965
3325,6411;0,0767274
3326,6055;0,0768657
3327,5696;0,0770044
3328,5339;0,0771328
3329,4980;0,0772421
3330,4624;0,0773299
3331,4265;0,0774003
3332,3909;0,0774588
3333,3550;0,0775072
3334,3193;0,0775411
3335,2834;0,0775522
3336,2478;0,0775333
3337,2119;0,077483
3338,1763;0,077406
3339,1404;0,0773106
3340,1047;0,0772043
3341,0688;0,0770919
3342,0332;0,0769743
3342,9973;0,0768502
3343,9617;0,0767168
3344,9258;0,0765707
3345,8901;0,0764088
3346,8542;0,0762298
3347,8186;0,0760351
3348,7827;0,0758289
3349,7471;0,0756172
3350,7112;0,0754044
3351,6755;0,0751925
3352,6396;0,0749807
3353,6040;0,0747688
3354,5681;0,0745594
3355,5325;0,0743584
3356,4966;0,0741725
3357,4609;0,0740047
3358,4250;0,0738514
3359,3894;0,0737038
3360,3535;0,0735517
3361,3179;0,0733887
3362,2820;0,0732148
3363,2463;0,0730356
3364,2104;0,0728586
3365,1748;0,0726894
3366,1389;0,072529
3367,1033;0,0723739
3368,0674;0,0722176
3369,0317;0,0720532
3369,9958;0,0718758
3370,9602;0,0716846
3371,9243;0,0714838
3372,8887;0,071281
3373,8528;0,0710847
3374,8171;0,0709006
3375,7813;0,0707296
3376,7456;0,0705686
3377,7097;0,0704131
3378,6741;0,0702592
3379,6382;0,0701044
3380,6025;0,0699458
3381,5667;0,0697795
3382,5310;0,0696017
3383,4951;0,0694125
3384,4595;0,0692185
3385,4236;0,0690323
3386,3879;0,0688663
3387,3521;0,0687264
3388,3164;0,0686079
3389,2805;0,0684984
3390,2449;0,0683837
3391,2090;0,0682541
3392,1733;0,0681079
3393,1375;0,0679497
3394,1018;0,0677859
3395,0659;0,0676217
3396,0303;0,06746
3396,9944;0,0673017
3397,9587;0,0671463
3398,9229;0,0669918
3399,8872;0,0668353
3400,8513;0,0666735
3401,8157;0,0665047
3402,7798;0,0663292
3403,7441;0,0661486
3404,7083;0,0659641
3405,6726;0,0657751
3406,6367;0,0655802
3407,6011;0,0653791
3408,5652;0,0651734
3409,5295;0,0649661
3410,4937;0,0647608
3411,4580;0,0645593
3412,4221;0,0643618
3413,3865;0,0641661
3414,3506;0,0639679
3415,3149;0,063761
3416,2791;0,0635387
3417,2434;0,0632966
3418,2075;0,0630358
3419,1719;0,0627646
3420,1360;0,0624958
3421,1003;0,0622421
3422,0645;0,0620106
3423,0288;0,0618005
3423,9929;0,061605
3424,9573;0,0614145
3425,9214;0,0612192
3426,8857;0,0610119
3427,8499;0,06079
3428,8142;0,0605565
3429,7783;0,0603182
3430,7427;0,060082
3431,7068;0,0598501
3432,6711;0,0596183
3433,6353;0,0593795
3434,5996;0,0591288
3435,5637;0,0588675
3436,5281;0,0586022
3437,4922;0,0583413
3438,4565;0,0580909
3439,4207;0,0578533
3440,3850;0,0576274
3441,3491;0,0574096
3442,3135;0,0571921
3443,2776;0,0569627
3444,2419;0,0567078
3445,2061;0,05642
3446,1704;0,0561065
3447,1345;0,0557899
3448,0989;0,0554991
3449,0630;0,0552537
3450,0273;0,055054
3450,9915;0,0548832
3451,9558;0,054717
3452,9199;0,0545353
3453,8843;0,0543287
3454,8484;0,0540986
3455,8127;0,0538518
3456,7769;0,0535932
3457,7412;0,0533244
3458,7053;0,0530453
3459,6697;0,0527594
3460,6338;0,0524757
3461,5981;0,0522061
3462,5623;0,0519589
3463,5266;0,0517331
3464,4907;0,0515183
3465,4551;0,0513003
3466,4192;0,0510694
3467,3835;0,0508253
3468,3477;0,0505751
3469,3120;0,0503258
3470,2761;0,0500773
3471,2405;0,0498219
3472,2046;0,0495523
3473,1689;0,0492713
3474,1331;0,048995
3475,0974;0,0487445
3476,0615;0,0485307
3477,0259;0,0483443
3477,9900;0,0481581
3478,9543;0,0479425
3479,9185;0,0476839
3480,8828;0,047395
3481,8469;0,0471075
3482,8113;0,0468511
3483,7754;0,0466337
3484,7397;0,0464392
3485,7039;0,0462405
3486,6682;0,0460173
3487,6323;0,0457684
3488,5967;0,0455097
3489,5608;0,0452609
3490,5251;0,0450303
3491,4893;0,0448106
3492,4536;0,0445856
3493,4177;0,0443445
3494,3821;0,0440927
3495,3462;0,0438514
3496,3105;0,0436432
3497,2747;0,0434744
3498,2390;0,043325
3499,2031;0,0431572
3500,1675;0,0429353
3501,1316;0,0426486
3502,0959;0,0423239
3503,0601;0,0420132
3504,0244;0,0417593
3504,9885;0,0415663
3505,9529;0,0413992
3506,9170;0,0412095
3507,8813;0,0409649
3508,8455;0,040669
3509,8098;0,0403589
3510,7739;0,0400812
3511,7383;0,0398618
3512,7024;0,0396939
3513,6667;0,0395494
3514,6309;0,039401
3515,5952;0,0392367
3516,5593;0,0390616
3517,5237;0,0388867
3518,4878;0,0387165
3519,4521;0,0385435
3520,4163;0,0383541
3521,3806;0,0381401
3522,3447;0,0379065
3523,3091;0,0376682
3524,2732;0,0374376
3525,2375;0,0372135
3526,2017;0,0369831
3527,1660;0,0367343
3528,1301;0,0364705
3529,0945;0,0362116
3530,0586;0,0359813
3531,0229;0,0357894
3531,9871;0,0356252
3532,9514;0,035463
3533,9155;0,0352776
3534,8799;0,0350587
3535,8440;0,0348197
3536,8083;0,0345919
3537,7725;0,0344077
3538,7368;0,034283
3539,7009;0,0342085
3540,6653;0,0341518
3541,6294;0,0340657
3542,5938;0,0339035
3543,5579;0,0336401
3544,5222;0,0332943
3545,4863;0,0329293
3546,4507;0,0326177
3547,4148;0,032394
3548,3792;0,0322377
3549,3433;0,0320934
3550,3076;0,0319071
3551,2717;0,031657
3552,2361;0,0313672
3553,2002;0,0310929
3554,1646;0,0308815
3555,1287;0,0307422
3556,0930;0,0306467
3557,0571;0,0305542
3558,0215;0,0304406
3558,9856;0,0303145
3559,9500;0,0302098
3560,9141;0,0301564
3561,8784;0,0301478
3562,8425;0,0301276
3563,8069;0,0300005
3564,7710;0,0296729
3565,7354;0,0291277
3566,6995;0,0284869
3567,6638;0,0279504
3568,6279;0,0276371
3569,5923;0,0275207
3570,5564;0,0274995
3571,5208;0,0274753
3572,4849;0,0273886
3573,4492;0,0272272
3574,4133;0,0270188
3575,3777;0,0268076
3576,3418;0,0266241
3577,3062;0,0264716
3578,2703;0,0263384
3579,2346;0,0262218
3580,1987;0,026137
3581,1631;0,0261042
3582,1272;0,0261218
3583,0916;0,0261474
3584,0557;0,0261001
3585,0200;0,0258897
3585,9841;0,0254823
3586,9485;0,0249659
3587,9126;0,024516
3588,8770;0,0242537
3589,8411;0,0241663
3590,8054;0,024158
3591,7695;0,0241286
3592,7339;0,0240176
3593,6980;0,0238228
3594,6624;0,0235908
3595,6265;0,023373
3596,5908;0,0231809
3597,5549;0,022985
3598,5193;0,0227578
3599,4834;0,0225149
3600,4478;0,0223171
3601,4119;0,022226
3602,3762;0,0222533
3603,3403;0,0223488
3604,3047;0,0224293
3605,2688;0,0224198
3606,2332;0,0222897
3607,1973;0,022072
3608,1616;0,021845
3609,1257;0,0216744
3610,0901;0,0215722
3611,0542;0,0215085
3612,0186;0,0214504
3612,9827;0,0213864
3613,9470;0,0213169
3614,9111;0,0212282
3615,8755;0,0210775
3616,8396;0,0208065
3617,8040;0,020389
3618,7681;0,0198874
3619,7324;0,0194515
3620,6965;0,0192248
3621,6609;0,0192525
3622,6250;0,019481
3623,5894;0,0198075
3624,5535;0,0201073
3625,5178;0,020233
3626,4819;0,020035
3627,4463;0,0194599
3628,4104;0,0186863
3629,3748;0,0180489
3630,3389;0,0177322
3631,3032;0,0176718
3632,2673;0,0177169
3633,2317;0,0177595
3634,1958;0,017758
3635,1602;0,0177199
3636,1243;0,0176714
3637,0886;0,0176307
3638,0527;0,0176003
3639,0171;0,01758
3639,9812;0,0175863
3640,9456;0,0176571
3641,9097;0,0178335
3642,8740;0,0181307
3643,8381;0,0185152
3644,8025;0,0188906
3645,7666;0,0190878
3646,7310;0,0188863
3647,6951;0,0181606
3648,6594;0,0171428
3649,6235;0,0163529
3650,5879;0,016064
3651,5520;0,0161413
3652,5164;0,0163315
3653,4805;0,016443
3654,4448;0,0163753
3655,4089;0,0161295
3656,3733;0,0158085
3657,3374;0,0155524
3658,3018;0,0154357
3659,2659;0,0154357
3660,2302;0,0154892
3661,1943;0,0155586
3662,1587;0,0156567
3663,1228;0,0158239
3664,0872;0,0160803
3665,0513;0,0163914
3666,0156;0,0166697
3666,9797;0,0168093
3667,9441;0,0167529
3668,9082;0,0165646
3669,8726;0,0164091
3670,8367;0,0163958
3671,8010;0,0164673
3672,7651;0,0164498
3673,7295;0,0161752
3674,6936;0,0156162
3675,6580;0,014969
3676,6221;0,0145129
3677,5864;0,0143516
3678,5505;0,0143922
3679,5149;0,014507
3680,4790;0,0146328
3681,4434;0,0147761
3682,4075;0,0149755
3683,3718;0,0152552
3684,3359;0,0155906
3685,3003;0,0158972
3686,2644;0,0160447
3687,2288;0,0159034
3688,1929;0,0154465
3689,1572;0,0148391
3690,1213;0,0143429
3691,0857;0,0140946
3692,0498;0,0140562
3693,0142;0,014132
3693,9783;0,0142546
3694,9426;0,0143961
3695,9067;0,0145468
3696,8711;0,0146903
3697,8352;0,0147906
3698,7996;0,0148002
3699,7637;0,0146896
3700,7280;0,0144867
3701,6921;0,014289
3702,6565;0,0142151
3703,6206;0,0143298
3704,5850;0,0146149
3705,5491;0,0149926
3706,5134;0,0153563
3707,4775;0,0155847
3708,4419;0,0155611
3709,4060;0,0152342
3710,3704;0,0147101
3711,3345;0,0142404
3712,2988;0,0140288
3713,2629;0,0140879
3714,2273;0,0143084
3715,1914;0,0145747
3716,1558;0,0148088
3717,1199;0,0149693
3718,0842;0,0150442
3719,0483;0,0150456
3720,0127;0,014998
3720,9768;0,0149193
3721,9412;0,0148109
3722,9053;0,0146699
3723,8696;0,0145149
3724,8337;0,0143985
3725,7981;0,0143843
3726,7622;0,0145086
3727,7266;0,0147631
3728,6907;0,0151059
3729,6550;0,0154777
3730,6191;0,0158049
3731,5835;0,0159934
3732,5476;0,0159381
3733,5120;0,0155836
3734,4761;0,0150281
3735,4404;0,014532
3736,4045;0,0143333
3737,3689;0,0144844
3738,3330;0,0148903
3739,2974;0,0154124
3740,2615;0,0159126
3741,2258;0,0162571
3742,1899;0,0163402
3743,1543;0,0161683
3744,1184;0,0159294
3745,0828;0,0158695
3746,0469;0,0160543
3747,0112;0,0163323
3747,9753;0,0164679
3748,9397;0,0162658
3749,9038;0,0157102
3750,8682;0,015069
3751,8323;0,0147006
3752,7966;0,0147142
3753,7607;0,0149621
3754,7251;0,0152428
3755,6892;0,0154065
3756,6536;0,0153788
3757,6177;0,0151807
3758,5820;0,0149281
3759,5461;0,0147624
3760,5105;0,0147526
3761,4746;0,0148721
3762,4390;0,0150479
3763,4031;0,015212
3764,3674;0,0153218
3765,3315;0,0153576
3766,2959;0,0153121
3767,2600;0,0151825
3768,2244;0,0149788
3769,1885;0,0147426
3770,1528;0,0145487
3771,1169;0,0144733
3772,0813;0,0145476
3773,0454;0,0147425
3774,0098;0,0149868
3774,9739;0,0151963
3775,9382;0,0152989
3776,9023;0,0152616
3777,8667;0,0151154
3778,8308;0,0149467
3779,7952;0,014841
3780,7593;0,014826
3781,7236;0,01487
3782,6877;0,0149206
3783,6521;0,0149379
3784,6162;0,0149096
3785,5806;0,0148486
3786,5447;0,0147833
3787,5090;0,0147456
3788,4731;0,0147603
3789,4375;0,0148377
3790,4016;0,0149687
3791,3660;0,0151282
3792,3301;0,0152867
3793,2944;0,0154281
3794,2585;0,0155621
3795,2229;0,015715
3796,1870;0,0158974
3797,1514;0,0160734
3798,1155;0,0161627
3799,0798;0,0160884
3800,0439;0,0158497
3801,0083;0,0155583
3801,9724;0,0153594
3802,9368;0,0152965
3803,9009;0,0152822
3804,8652;0,0151889
3805,8293;0,0149581
3806,7937;0,0146644
3807,7578;0,0144791
3808,7222;0,0145358
3809,6863;0,0148322
3810,6506;0,0152612
3811,6147;0,0156892
3812,5791;0,0160063
3813,5432;0,0161592
3814,5076;0,0161793
3815,4717;0,0161643
3816,4360;0,0161847
3817,4001;0,0162055
3818,3645;0,0161156
3819,3286;0,0158352
3820,2930;0,0154116
3821,2571;0,0150124
3822,2214;0,014789
3823,1855;0,0147644
3824,1499;0,0148646
3825,1140;0,0150064
3826,0784;0,015143
3827,0425;0,0152668
3828,0068;0,0153911
3828,9709;0,0155306
3829,9353;0,0156908
3830,8994;0,0158697
3831,8638;0,0160632
3832,8279;0,0162602
3833,7922;0,0164318
3834,7563;0,0165241
3835,7207;0,0164725
3836,6848;0,0162422
3837,6492;0,0158726
3838,6133;0,0154744
3839,5776;0,0151561
3840,5417;0,0149562
3841,5061;0,0148512
3842,4702;0,0148099
3843,4346;0,0148319
3844,3987;0,014949
3845,3630;0,015199
3846,3271;0,0155973
3847,2915;0,016122
3848,2556;0,0167094
3849,2200;0,0172428
3850,1841;0,0175322
3851,1484;0,017334
3852,1125;0,0165296
3853,0769;0,0154321
3854,0410;0,0146448
3855,0054;0,0144295
3855,9695;0,0146245
3856,9338;0,0149997
3857,8979;0,0154061
3858,8623;0,0157545
3859,8264;0,0159814
3860,7908;0,0160502
3861,7549;0,0159772
3862,7192;0,0158485
3863,6833;0,0157783
3864,6477;0,0158267
3865,6118;0,0159636
3866,5762;0,0161024
3867,5403;0,0161539
3868,5046;0,0160642
3869,4688;0,0158385
3870,4331;0,0155432
3871,3972;0,0152759
3872,3616;0,0151176
3873,3257;0,015103
3874,2900;0,0152207
3875,2542;0,0154269
3876,2185;0,0156595
3877,1826;0,0158536
3878,1470;0,0159618
3879,1111;0,0159754
3880,0754;0,0159271
3881,0396;0,01586
3882,0039;0,0157886
3882,9680;0,0156979
3883,9324;0,0155832
3884,8965;0,0154815
3885,8608;0,0154512
3886,8250;0,0155136
3887,7893;0,0156213
3888,7534;0,0156831
3889,7178;0,0156247
3890,6819;0,0154543
3891,6462;0,0152838
3892,6104;0,0152543
3893,5747;0,0154227
3894,5388;0,0157354
3895,5032;0,0160895
3896,4673;0,0163894
3897,4316;0,0165721
3898,3958;0,016615
3899,3601;0,0165282
3900,3242;0,0163304
3901,2886;0,0160318
3902,2527;0,0156554
3903,2170;0,0152678
3904,1812;0,0149642
3905,1455;0,014808
3906,1096;0,0147945
3907,0740;0,0148722
3908,0381;0,0149863
3909,0024;0,0151053
3909,9666;0,0152248
3910,9309;0,0153551
3911,8950;0,0155002
3912,8594;0,0156431
3913,8235;0,0157466
3914,7878;0,0157729
3915,7520;0,0157122
3916,7163;0,0156005
3917,6804;0,0155044
3918,6448;0,0154739
3919,6089;0,0155075
3920,5732;0,0155607
3921,5374;0,0155814
3922,5017;0,0155458
3923,4658;0,0154757
3924,4302;0,0154265
3925,3943;0,0154471
3926,3586;0,0155415
3927,3228;0,0156645
3928,2871;0,0157486
3929,2512;0,0157376
3930,2156;0,0156177
3931,1797;0,01543
3932,1440;0,0152518
3933,1082;0,0151503
3934,0725;0,0151503
3935,0366;0,0152362
3936,0010;0,0153732
3936,9651;0,015522
3937,9294;0,0156455
3938,8936;0,0157134
3939,8579;0,0157116
3940,8220;0,0156534
3941,7864;0,0155795
3942,7505;0,0155386
3943,7148;0,0155553
3944,6790;0,0156144
3945,6433;0,0156728
3946,6074;0,0156868
3947,5718;0,0156394
3948,5359;0,0155499
3949,5002;0,015461
3950,4644;0,0154084
3951,4287;0,0153993
3952,3928;0,0154155
3953,3572;0,0154328
3954,3213;0,015438
3955,2856;0,0154337
3956,2498;0,015431
3957,2141;0,0154372
3958,1782;0,0154502
3959,1426;0,0154615
3960,1067;0,015465
3961,0710;0,015463
3962,0352;0,0154647
3962,9995;0,0154779
3963,9636;0,0155028
3964,9280;0,0155308
3965,8921;0,0155514
3966,8564;0,0155582
3967,8206;0,0155534
3968,7849;0,0155454
3969,7490;0,0155418
3970,7134;0,0155446
3971,6775;0,0155483
3972,6418;0,0155448
3973,6060;0,0155303
3974,5703;0,015508
3975,5344;0,0154874
3976,4988;0,0154779
3977,4629;0,015484
3978,4272;0,0155031
3979,3914;0,0155282
3980,3557;0,0155513
3981,3198;0,0155673
3982,2842;0,0155748
3983,2483;0,0155755
3984,2126;0,0155726
3985,1768;0,0155685
3986,1411;0,0155646
3987,1052;0,0155615
3988,0696;0,0155597
3989,0337;0,0155604
3989,9980;0,0155645
3990,9622;0,0155716
3991,9265;0,0155794
3992,8906;0,0155849
3993,8550;0,0155867
3994,8191;0,0155862
3995,7834;0,0155868
3996,7476;0,0155909
3997,7119;0,0155978
3998,6760;0,015604
3999,6404;0,0156068
4000,6045;0,0155421

##### Extended Information
[Comments]
Sample name
Comment
Username
Division
Organization;UNIVERSIDAD INDUSTRIAL DE SANTANDER

[Detailed Information]
Creation date;14/03/2025 3:18 p.m.

Data array type;Linear data array
Horizontal axis;Wavenumber [cm-1]
Vertical axis;Abs
Start;399,193 cm-1
End;4000,6 cm-1
Data interval;0,964233 cm-1
Data points;3736    

[Measurement Information]
Model name;FT/IR-4X1typeA
Serial No.;A035162111

Accessory;ATR PRO 4X
Accessory S/N;A021162126
Incident angle;45 deg

Measurement date;14/03/2025 3:18 p.m.

Light source;Standard
Detector;TGS
Accumulation;40
Resolution;4 cm-1
Zero filling;On
Apodization;Cosine
Gain;Auto (8)
Aperture;Auto (7 mm)
Scan speed;Auto (2 mm/sec)
Filter;Auto (12800 Hz)

