TITLE;
DATA TYPE;INFRARED SPECTRUM
ORIGIN;JASCO
OWNER;
DATE;25/03/14
TIME;15:09:06
SPECTROMETER/DATA SYSTEM;
LOCALE;9226
RESOLUTION;
DELTAX;0,964233
XUNITS;1/CM
YUNITS;ABSORBANCE
FIRSTX;  399,1927
LASTX; 4000,6047
NPOINTS;    3736
FIRSTY;     0,13988
MAXY;     0,20496
MINY;     0,01328
XYDATA
399,1927;0,139879
400,1569;0,140075
401,1211;0,139793
402,0854;0,139183
403,0496;0,138367
404,0138;0,137381
404,9781;0,136239
405,9423;0,135035
406,9065;0,134034
407,8708;0,133624
408,8350;0,134127
409,7992;0,135571
410,7635;0,137568
411,7277;0,139442
412,6919;0,140582
413,6562;0,140758
414,6204;0,140134
415,5846;0,139085
416,5489;0,138047
417,5131;0,137457
418,4773;0,137652
419,4416;0,138617
420,4058;0,13995
421,3700;0,141224
422,3343;0,142224
423,2985;0,142873
424,2627;0,143145
425,2270;0,143087
426,1912;0,142868
427,1554;0,142746
428,1197;0,142955
429,0839;0,143589
430,0481;0,144552
431,0124;0,145605
431,9766;0,146463
432,9408;0,146931
433,9051;0,146977
434,8693;0,146728
435,8335;0,146385
436,7978;0,146114
437,7620;0,145973
438,7262;0,145922
439,6905;0,145879
440,6547;0,145789
441,6189;0,145649
442,5832;0,14551
443,5474;0,145428
444,5116;0,145414
445,4759;0,145416
446,4401;0,14534
447,4043;0,145102
448,3686;0,144663
449,3328;0,144063
450,2970;0,143422
451,2613;0,142914
452,2255;0,142699
453,1897;0,142847
454,1540;0,143288
455,1182;0,143821
456,0824;0,14417
457,0467;0,144113
458,0109;0,143627
458,9751;0,14294
459,9394;0,142375
460,9036;0,142115
461,8678;0,142135
462,8321;0,142276
463,7963;0,142377
464,7605;0,142367
465,7248;0,142291
466,6890;0,142257
467,6532;0,142339
468,6175;0,142509
469,5817;0,142653
470,5459;0,142645
471,5102;0,142448
472,4744;0,142148
473,4386;0,141898
474,4029;0,141798
475,3671;0,141833
476,3313;0,141915
477,2956;0,141965
478,2598;0,141966
479,2240;0,14197
480,1883;0,142048
481,1525;0,142242
482,1167;0,142538
483,0810;0,142875
484,0452;0,143193
485,0094;0,143476
485,9737;0,143756
486,9379;0,144085
487,9021;0,144481
488,8664;0,144903
489,8306;0,145259
490,7948;0,145453
491,7591;0,145447
492,7233;0,145301
493,6875;0,145151
494,6518;0,145127
495,6160;0,145279
496,5802;0,145548
497,5445;0,145817
498,5087;0,145983
499,4729;0,146018
500,4372;0,145987
501,4014;0,146003
502,3656;0,146148
503,3299;0,146405
504,2941;0,146671
505,2583;0,146833
506,2226;0,14685
507,1868;0,146781
508,1510;0,146756
509,1153;0,146907
510,0795;0,147296
511,0437;0,147893
512,0080;0,148603
512,9722;0,149325
513,9365;0,149989
514,9007;0,150569
515,8649;0,151061
516,8292;0,151464
517,7934;0,15177
518,7576;0,151974
519,7219;0,152092
520,6861;0,152167
521,6503;0,15224
522,6146;0,152333
523,5788;0,152436
524,5430;0,152518
525,5073;0,152544
526,4715;0,152506
527,4357;0,152426
528,4000;0,152342
529,3642;0,152276
530,3284;0,152219
531,2927;0,152137
532,2569;0,151987
533,2211;0,151745
534,1854;0,151421
535,1496;0,151064
536,1138;0,150743
537,0781;0,150517
538,0423;0,150402
539,0065;0,150366
539,9708;0,150352
540,9350;0,150314
541,8992;0,150258
542,8635;0,150237
543,8277;0,15032
544,7919;0,150545
545,7562;0,150889
546,7204;0,151282
547,6846;0,151652
548,6489;0,15198
549,6131;0,152303
550,5773;0,152681
551,5416;0,15315
552,5058;0,153706
553,4700;0,154312
554,4343;0,154933
555,3985;0,155542
556,3627;0,1561
557,3270;0,156525
558,2912;0,156698
559,2554;0,156507
560,2197;0,155918
561,1839;0,155015
562,1481;0,153972
563,1124;0,152973
564,0766;0,15212
565,0408;0,151404
566,0051;0,150743
566,9693;0,150061
567,9335;0,149352
568,8978;0,148677
569,8620;0,148118
570,8262;0,147718
571,7905;0,147456
572,7547;0,147276
573,7189;0,147124
574,6832;0,146975
575,6474;0,146827
576,6116;0,146687
577,5759;0,146558
578,5401;0,146438
579,5043;0,146327
580,4686;0,146232
581,4328;0,146156
582,3970;0,146091
583,3613;0,146023
584,3255;0,145945
585,2897;0,145867
586,2540;0,145822
587,2182;0,145845
588,1824;0,14595
589,1467;0,146122
590,1109;0,146315
591,0751;0,146473
592,0394;0,146549
593,0036;0,146517
593,9678;0,146372
594,9321;0,146119
595,8963;0,145772
596,8605;0,145348
597,8248;0,144882
598,7890;0,144424
599,7532;0,14403
600,7175;0,14374
601,6817;0,143558
602,6459;0,143452
603,6102;0,143366
604,5744;0,143243
605,5386;0,143043
606,5029;0,14275
607,4671;0,142365
608,4313;0,141895
609,3956;0,141347
610,3598;0,140721
611,3240;0,140027
612,2883;0,139284
613,2525;0,138528
614,2167;0,137797
615,1810;0,137115
616,1452;0,136482
617,1094;0,135865
618,0737;0,135214
619,0379;0,134485
620,0021;0,133664
620,9664;0,132768
621,9306;0,131835
622,8948;0,13091
623,8591;0,130029
624,8233;0,129218
625,7875;0,128463
626,7518;0,127751
627,7160;0,127062
628,6802;0,126387
629,6445;0,125727
630,6087;0,125092
631,5729;0,12449
632,5372;0,123924
633,5014;0,123386
634,4656;0,122863
635,4299;0,122342
636,3941;0,121817
637,3583;0,121296
638,3226;0,120801
639,2868;0,120353
640,2510;0,119964
641,2153;0,119621
642,1795;0,119294
643,1437;0,118949
644,1080;0,118568
645,0722;0,11816
646,0364;0,117757
647,0007;0,117386
647,9649;0,11706
648,9291;0,116768
649,8934;0,116498
650,8576;0,116259
651,8218;0,116083
652,7861;0,116011
653,7503;0,116059
654,7145;0,116204
655,6788;0,116397
656,6430;0,116585
657,6072;0,116737
658,5715;0,116842
659,5357;0,116893
660,4999;0,116877
661,4642;0,116794
662,4284;0,116671
663,3926;0,116566
664,3569;0,116522
665,3211;0,116522
666,2853;0,116436
667,2496;0,116023
668,2138;0,115108
669,1780;0,113843
670,1423;0,112559
671,1065;0,111405
672,0707;0,11034
673,0350;0,109268
673,9992;0,108109
674,9634;0,106841
675,9277;0,105507
676,8919;0,104196
677,8561;0,102972
678,8204;0,101851
679,7846;0,100824
680,7488;0,0998904
681,7131;0,0990627
682,6773;0,0983468
683,6415;0,0977246
684,6058;0,0971586
685,5700;0,0966123
686,5342;0,0960701
687,4985;0,095542
688,4627;0,0950526
689,4269;0,0946272
690,3912;0,0942748
691,3554;0,0939827
692,3196;0,0937226
693,2839;0,0934637
694,2481;0,0931867
695,2123;0,0928899
696,1766;0,0925848
697,1408;0,0922841
698,1050;0,0919906
699,0693;0,091695
700,0335;0,091383
700,9977;0,0910447
701,9620;0,09068
702,9262;0,0902978
703,8904;0,0899143
704,8547;0,0895442
705,8189;0,0892
706,7831;0,0888867
707,7474;0,0885961
708,7116;0,0883041
709,6758;0,0879769
710,6401;0,0875851
711,6043;0,0871212
712,5685;0,0866074
713,5328;0,0860863
714,4970;0,0855985
715,4612;0,0852736
716,4255;0,0848404
717,3897;0,0843888
718,3539;0,0838849
719,3182;0,0833165
720,2824;0,0826946
721,2466;0,082041
722,2109;0,0813711
723,1751;0,0806886
724,1393;0,0799932
725,1036;0,0792915
726,0678;0,0785989
727,0320;0,0779326
727,9963;0,0773014
728,9605;0,0767028
729,9247;0,0761309
730,8890;0,0755872
731,8532;0,0750829
732,8174;0,0746308
733,7817;0,0742317
734,7459;0,0738684
735,7101;0,0735127
736,6744;0,0731409
737,6386;0,0727459
738,6028;0,0723392
739,5671;0,0719407
740,5313;0,0715661
741,4955;0,0712186
742,4598;0,0708896
743,4240;0,0705647
744,3882;0,0702306
745,3525;0,0698778
746,3167;0,0695003
747,2809;0,0690944
748,2452;0,0686604
749,2094;0,0682048
750,1736;0,067742
751,1379;0,0672913
752,1021;0,0668684
753,0663;0,0664784
754,0306;0,066113
754,9948;0,0657566
755,9590;0,0653963
756,9233;0,0650302
757,8875;0,0646675
758,8517;0,0643208
759,8160;0,0639978
760,7802;0,0636981
761,7444;0,0634167
762,7087;0,0631503
763,6729;0,0628986
764,6371;0,0626614
765,6014;0,0624331
766,5656;0,0622006
767,5298;0,0619482
768,4941;0,0616654
769,4583;0,0613523
770,4225;0,0610207
771,3868;0,0606895
772,3510;0,0603783
773,3152;0,0601024
774,2795;0,0598698
775,2437;0,0596799
776,2079;0,0595241
777,1722;0,0593889
778,1364;0,0592593
779,1006;0,0591214
780,0649;0,0589635
781,0291;0,0587755
781,9933;0,0585499
782,9576;0,0582855
783,9218;0,0579919
784,8860;0,0576889
785,8503;0,0574009
786,8145;0,0571459
787,7787;0,056927
788,7430;0,0567336
789,7072;0,0565496
790,6714;0,056365
791,6357;0,0561809
792,5999;0,056005
793,5641;0,0558427
794,5284;0,0556902
795,4926;0,0555376
796,4568;0,0553782
797,4211;0,055217
798,3853;0,0550705
799,3495;0,0549578
800,3138;0,0548876
801,2780;0,054851
802,2422;0,0548245
803,2065;0,0547804
804,1707;0,0546999
805,1349;0,0545802
806,0992;0,0544345
807,0634;0,0542846
808,0276;0,0541509
808,9919;0,0540444
809,9561;0,0539626
810,9203;0,0538918
811,8846;0,0538149
812,8488;0,0537197
813,8130;0,0536058
814,7773;0,0534842
815,7415;0,0533714
816,7057;0,0532799
817,6700;0,053213
818,6342;0,053164
819,5984;0,0531214
820,5627;0,0530754
821,5269;0,0530226
822,4911;0,0529651
823,4554;0,0529091
824,4196;0,0528619
825,3839;0,0528299
826,3481;0,0528174
827,3123;0,0528245
828,2766;0,052844
829,2408;0,052861
830,2050;0,0528549
831,1693;0,0528064
832,1335;0,0527052
833,0977;0,0525542
834,0620;0,0523686
835,0262;0,0521684
835,9904;0,0519693
836,9547;0,051778
837,9189;0,0515918
838,8831;0,0514049
839,8474;0,0512139
840,8116;0,0510209
841,7758;0,0508321
842,7401;0,0506536
843,7043;0,0504887
844,6685;0,0503376
845,6328;0,0501997
846,5970;0,0500752
847,5612;0,0499659
848,5255;0,0498735
849,4897;0,0497977
850,4539;0,0497357
851,4182;0,0496829
852,3824;0,0496341
853,3466;0,0495856
854,3109;0,0495359
855,2751;0,049486
856,2393;0,0494387
857,2036;0,0493962
858,1678;0,0493597
859,1320;0,0493292
860,0963;0,0493055
861,0605;0,0492926
862,0247;0,0492982
862,9890;0,0493307
863,9532;0,0493955
864,9174;0,0494911
865,8817;0,049611
866,8459;0,0497473
867,8101;0,0498951
868,7744;0,0500537
869,7386;0,050223
870,7028;0,0503985
871,6671;0,0505695
872,6313;0,050722
873,5955;0,0508452
874,5598;0,0509368
875,5240;0,0510051
876,4882;0,0510651
877,4525;0,0511334
878,4167;0,0512232
879,3809;0,0513426
880,3452;0,0514962
881,3094;0,0516881
882,2736;0,0519251
883,2379;0,0522168
884,2021;0,0525734
885,1663;0,0530019
886,1306;0,0535026
887,0948;0,0540686
888,0590;0,0546887
889,0233;0,0553509
889,9875;0,0560446
890,9517;0,0567579
891,9160;0,0574744
892,8802;0,058169
893,8444;0,0588092
894,8087;0,0593585
895,7729;0,0597829
896,7371;0,0600557
897,7014;0,0601616
898,6656;0,0600992
899,6298;0,0598821
900,5941;0,0595374
901,5583;0,0590997
902,5225;0,0586039
903,4868;0,0580787
904,4510;0,0575458
905,4152;0,0570252
906,3795;0,0565403
907,3437;0,0561185
908,3079;0,0557846
909,2722;0,0555502
910,2364;0,0554085
911,2007;0,0553375
912,1649;0,0553113
913,1292;0,0553116
914,0934;0,0553341
915,0576;0,0553856
916,0219;0,0554756
916,9861;0,0556092
917,9503;0,0557839
918,9146;0,0559913
919,8788;0,0562205
920,8430;0,0564607
921,8073;0,0567029
922,7715;0,0569386
923,7357;0,0571597
924,7000;0,0573592
925,6642;0,0575325
926,6284;0,0576799
927,5927;0,0578072
928,5569;0,0579237
929,5211;0,0580382
930,4854;0,0581545
931,4496;0,0582697
932,4138;0,0583791
933,3781;0,0584825
934,3423;0,0585902
935,3065;0,0587223
936,2708;0,0589007
937,2350;0,0591405
938,1992;0,0594429
939,1635;0,0597976
940,1277;0,0601899
941,0919;0,0606097
942,0562;0,0610561
943,0204;0,0615367
943,9846;0,0620621
944,9489;0,0626402
945,9131;0,0632722
946,8773;0,0639543
947,8416;0,0646806
948,8058;0,0654495
949,7700;0,0662661
950,7343;0,0671413
951,6985;0,0680856
952,6627;0,0691034
953,6270;0,0701903
954,5912;0,0713369
955,5554;0,0725361
956,5197;0,0737891
957,4839;0,0751037
958,4481;0,0764863
959,4124;0,0779328
960,3766;0,0794251
961,3408;0,0809369
962,3051;0,0824443
963,2693;0,0839361
964,2335;0,0854171
965,1978;0,0869053
966,1620;0,0884249
967,1262;0,09
968,0905;0,0916511
969,0547;0,0933944
970,0189;0,0952421
970,9832;0,097206
971,9474;0,0993004
972,9116;0,101545
973,8759;0,103967
974,8401;0,106592
975,8043;0,10944
976,7686;0,112517
977,7328;0,115808
978,6970;0,119274
979,6613;0,122857
980,6255;0,126476
981,5897;0,13003
982,5540;0,133413
983,5182;0,136523
984,4824;0,139285
985,4467;0,141667
986,4109;0,143679
987,3751;0,145363
988,3394;0,146775
989,3036;0,147969
990,2678;0,148987
991,2321;0,149859
992,1963;0,150613
993,1605;0,151274
994,1248;0,151868
995,0890;0,152422
996,0532;0,15296
997,0175;0,153503
997,9817;0,154068
998,9459;0,154664
999,9102;0,155295
1000,8744;0,155961
1001,8386;0,156662
1002,8029;0,157408
1003,7671;0,158216
1004,7313;0,159117
1005,6956;0,160145
1006,6598;0,161334
1007,6240;0,162714
1008,5883;0,164304
1009,5525;0,166111
1010,5167;0,168122
1011,4810;0,170307
1012,4452;0,172621
1013,4094;0,175007
1014,3737;0,177403
1015,3379;0,179752
1016,3021;0,182008
1017,2664;0,184141
1018,2306;0,186141
1019,1948;0,188019
1020,1591;0,189797
1021,1233;0,191504
1022,0875;0,193161
1023,0518;0,194778
1024,0160;0,196352
1024,9802;0,197871
1025,9445;0,199324
1026,9087;0,200698
1027,8729;0,201975
1028,8372;0,203114
1029,8014;0,20405
1030,7656;0,204696
1031,7299;0,204956
1032,6941;0,204758
1033,6583;0,20407
1034,6226;0,202919
1035,5868;0,201387
1036,5510;0,199602
1037,5153;0,197717
1038,4795;0,195889
1039,4437;0,194259
1040,4080;0,192933
1041,3722;0,191964
1042,3364;0,191347
1043,3007;0,191023
1044,2649;0,190893
1045,2291;0,190849
1046,1934;0,190793
1047,1576;0,190654
1048,1218;0,190391
1049,0861;0,189978
1050,0503;0,189392
1051,0145;0,188608
1051,9788;0,187605
1052,9430;0,186376
1053,9072;0,184933
1054,8715;0,1833
1055,8357;0,181495
1056,7999;0,179514
1057,7642;0,177321
1058,7284;0,174865
1059,6926;0,172106
1060,6569;0,169044
1061,6211;0,165739
1062,5853;0,162302
1063,5496;0,158863
1064,5138;0,155546
1065,4780;0,152433
1066,4423;0,149564
1067,4065;0,146938
1068,3707;0,144531
1069,3350;0,142308
1070,2992;0,140234
1071,2634;0,138271
1072,2277;0,13638
1073,1919;0,134525
1074,1561;0,132672
1075,1204;0,130795
1076,0846;0,128885
1077,0488;0,12695
1078,0131;0,125013
1078,9773;0,123114
1079,9415;0,121299
1080,9058;0,119613
1081,8700;0,118089
1082,8342;0,116747
1083,7985;0,115587
1084,7627;0,1146
1085,7269;0,113766
1086,6912;0,113064
1087,6554;0,112471
1088,6196;0,111969
1089,5839;0,111545
1090,5481;0,111193
1091,5123;0,110919
1092,4766;0,110734
1093,4408;0,110648
1094,4050;0,110662
1095,3693;0,110763
1096,3335;0,11093
1097,2977;0,111138
1098,2620;0,111366
1099,2262;0,111602
1100,1904;0,111841
1101,1547;0,112075
1102,1189;0,112284
1103,0831;0,112438
1104,0474;0,112502
1105,0116;0,112447
1105,9758;0,112264
1106,9401;0,11196
1107,9043;0,111549
1108,8685;0,111037
1109,8328;0,11041
1110,7970;0,109634
1111,7612;0,108675
1112,7255;0,107516
1113,6897;0,106183
1114,6539;0,104739
1115,6182;0,103276
1116,5824;0,101883
1117,5466;0,10062
1118,5109;0,0995078
1119,4751;0,098517
1120,4393;0,0975856
1121,4036;0,096635
1122,3678;0,0955896
1123,3320;0,0943929
1124,2963;0,0930157
1125,2605;0,0914581
1126,2247;0,0897441
1127,1890;0,0879124
1128,1532;0,0860056
1129,1174;0,0840614
1130,0817;0,0821088
1131,0459;0,0801703
1132,0101;0,0782679
1132,9744;0,0764296
1133,9386;0,0746921
1134,9028;0,0730972
1135,8671;0,0716842
1136,8313;0,0704812
1137,7955;0,0695004
1138,7598;0,0687386
1139,7240;0,068182
1140,6882;0,0678113
1141,6525;0,0676047
1142,6167;0,0675391
1143,5809;0,0675903
1144,5452;0,0677351
1145,5094;0,0679551
1146,4736;0,0682398
1147,4379;0,0685869
1148,4021;0,0689993
1149,3663;0,0694782
1150,3306;0,0700186
1151,2948;0,0706055
1152,2590;0,0712144
1153,2233;0,0718141
1154,1875;0,0723693
1155,1517;0,0728416
1156,1160;0,0731902
1157,0802;0,0733711
1158,0444;0,0733371
1159,0087;0,0730387
1159,9729;0,0724274
1160,9371;0,0714633
1161,9014;0,0701246
1162,8656;0,0684168
1163,8298;0,0663788
1164,7941;0,0640803
1165,7583;0,0616129
1166,7225;0,0590756
1167,6868;0,0565611
1168,6510;0,0541456
1169,6152;0,0518843
1170,5795;0,0498124
1171,5437;0,0479479
1172,5079;0,0462962
1173,4722;0,0448535
1174,4364;0,0436091
1175,4006;0,0425468
1176,3649;0,0416476
1177,3291;0,0408909
1178,2933;0,0402569
1179,2576;0,0397269
1180,2218;0,0392838
1181,1860;0,0389122
1182,1503;0,038599
1183,1145;0,0383355
1184,0787;0,0381193
1185,0430;0,0379558
1186,0072;0,0378566
1186,9714;0,0378353
1187,9357;0,0379017
1188,8999;0,0380567
1189,8641;0,038291
1190,8284;0,0385887
1191,7926;0,0389343
1192,7568;0,0393184
1193,7211;0,039741
1194,6853;0,0402075
1195,6495;0,0407222
1196,6138;0,0412816
1197,5780;0,041872
1198,5422;0,0424729
1199,5065;0,0430334
1200,4707;0,0436045
1201,4349;0,0441482
1202,3992;0,0446671
1203,3634;0,0451654
1204,3276;0,0456452
1205,2919;0,0461061
1206,2561;0,0465487
1207,2203;0,0469792
1208,1846;0,0474114
1209,1488;0,0478656
1210,1130;0,048363
1211,0773;0,04892
1212,0415;0,0495435
1213,0057;0,0502302
1213,9700;0,0509694
1214,9342;0,0517471
1215,8984;0,0525495
1216,8627;0,0533644
1217,8269;0,0541796
1218,7911;0,0549833
1219,7554;0,0557635
1220,7196;0,0565105
1221,6838;0,057219
1222,6481;0,0578888
1223,6123;0,0585239
1224,5765;0,0591287
1225,5408;0,0597048
1226,5050;0,0602504
1227,4692;0,0607615
1228,4335;0,0612349
1229,3977;0,0616704
1230,3619;0,0620698
1231,3262;0,0624345
1232,2904;0,0627623
1233,2546;0,0630471
1234,2189;0,0632814
1235,1831;0,0634612
1236,1473;0,0635897
1237,1116;0,063677
1238,0758;0,0637359
1239,0400;0,0637759
1240,0043;0,0637996
1240,9685;0,0638016
1241,9327;0,0637726
1242,8970;0,0637037
1243,8612;0,0635893
1244,8254;0,0634275
1245,7897;0,0632188
1246,7539;0,0629639
1247,7181;0,0626644
1248,6824;0,0623249
1249,6466;0,0619541
1250,6108;0,0615657
1251,5751;0,0611757
1252,5393;0,0607981
1253,5035;0,0604405
1254,4678;0,060101
1255,4320;0,0597684
1256,3962;0,0594257
1257,3605;0,0590565
1258,3247;0,0586498
1259,2889;0,0582039
1260,2532;0,0577249
1261,2174;0,057222
1262,1816;0,0567019
1263,1459;0,056166
1264,1101;0,0556107
1265,0743;0,0550308
1266,0386;0,054423
1267,0028;0,0537873
1267,9670;0,0531269
1268,9313;0,052448
1269,8955;0,0517586
1270,8597;0,051067
1271,8240;0,0503803
1272,7882;0,0497026
1273,7524;0,0490359
1274,7167;0,0483819
1275,6809;0,047745
1276,6451;0,0471315
1277,6094;0,0465472
1278,5736;0,0459922
1279,5378;0,0454604
1280,5021;0,0449415
1281,4663;0,0444274
1282,4305;0,0439165
1283,3948;0,0434144
1284,3590;0,0429309
1285,3232;0,0424764
1286,2875;0,0420609
1287,2517;0,0416952
1288,2159;0,041391
1289,1802;0,0411584
1290,1444;0,0410015
1291,1086;0,0409157
1292,0729;0,04089
1293,0371;0,040913
1294,0013;0,0409784
1294,9656;0,0410878
1295,9298;0,0412478
1296,8940;0,0414657
1297,8583;0,0417444
1298,8225;0,0420812
1299,7867;0,0424686
1300,7510;0,0428961
1301,7152;0,0433539
1302,6794;0,0438356
1303,6437;0,0443405
1304,6079;0,044874
1305,5721;0,0454433
1306,5364;0,0460519
1307,5006;0,0466947
1308,4648;0,0473579
1309,4291;0,0480241
1310,3933;0,048677
1311,3575;0,0493044
1312,3218;0,0498961
1313,2860;0,0504397
1314,2502;0,0509175
1315,2145;0,051307
1316,1787;0,0515858
1317,1429;0,0517391
1318,1072;0,0517675
1319,0714;0,051691
1320,0356;0,0515436
1320,9999;0,0513605
1321,9641;0,0511661
1322,9283;0,0509709
1323,8926;0,0507777
1324,8568;0,0505896
1325,8210;0,050414
1326,7853;0,0502612
1327,7495;0,0501371
1328,7137;0,0500388
1329,6780;0,049953
1330,6422;0,0498607
1331,6064;0,049743
1332,5707;0,0495853
1333,5349;0,0493768
1334,4991;0,0491067
1335,4634;0,0487615
1336,4276;0,0483282
1337,3918;0,0478072
1338,3561;0,0472281
1339,3203;0,0466526
1340,2845;0,0461487
1341,2488;0,0457529
1342,2130;0,0454569
1343,1772;0,0452274
1344,1415;0,0450327
1345,1057;0,044859
1346,0699;0,0447122
1347,0342;0,044611
1347,9984;0,0445767
1348,9626;0,044622
1349,9269;0,0447452
1350,8911;0,0449319
1351,8553;0,0451614
1352,8196;0,0454179
1353,7838;0,0456976
1354,7480;0,0460089
1355,7123;0,0463627
1356,6765;0,0467601
1357,6407;0,0471868
1358,6050;0,0476197
1359,5692;0,048038
1360,5334;0,0484318
1361,4977;0,0488051
1362,4619;0,0491699
1363,4261;0,0495356
1364,3904;0,0498998
1365,3546;0,050249
1366,3188;0,0505666
1367,2831;0,0508382
1368,2473;0,0510526
1369,2115;0,0511988
1370,1758;0,0512628
1371,1400;0,0512262
1372,1042;0,0510718
1373,0685;0,050797
1374,0327;0,0504282
1374,9969;0,0500156
1375,9612;0,0496
1376,9254;0,0491791
1377,8896;0,0487114
1378,8539;0,0481505
1379,8181;0,0474839
1380,7823;0,0467464
1381,7466;0,0459977
1382,7108;0,0452794
1383,6750;0,044587
1384,6393;0,0438819
1385,6035;0,0431345
1386,5677;0,0423734
1387,5320;0,0416914
1388,4962;0,0411824
1389,4604;0,0408677
1390,4247;0,0406963
1391,3889;0,0405954
1392,3531;0,0405128
1393,3174;0,0404292
1394,2816;0,0403524
1395,2458;0,0402995
1396,2101;0,0402797
1397,1743;0,0402899
1398,1385;0,0403242
1399,1028;0,040383
1400,0670;0,0404689
1401,0313;0,040579
1401,9955;0,0407033
1402,9597;0,0408326
1403,9240;0,0409687
1404,8882;0,0411285
1405,8524;0,041335
1406,8167;0,0416013
1407,7809;0,0419234
1408,7451;0,0422893
1409,7094;0,0426921
1410,6736;0,043133
1411,6378;0,0436119
1412,6021;0,0441164
1413,5663;0,0446211
1414,5305;0,0450978
1415,4948;0,0455268
1416,4590;0,0459021
1417,4232;0,0462317
1418,3875;0,0465333
1419,3517;0,0468202
1420,3159;0,0470836
1421,2802;0,0472902
1422,2444;0,0474011
1423,2086;0,0473939
1424,1729;0,047273
1425,1371;0,0470588
1426,1013;0,0467634
1427,0656;0,0463715
1428,0298;0,0458524
1428,9940;0,0452016
1429,9583;0,0444772
1430,9225;0,0437784
1431,8867;0,0431722
1432,8510;0,0426408
1433,8152;0,0420963
1434,7794;0,0414423
1435,7437;0,0406617
1436,7079;0,0398787
1437,6721;0,0392853
1438,6364;0,0389713
1439,6006;0,0388818
1440,5648;0,0389141
1441,5291;0,0389968
1442,4933;0,039105
1443,4575;0,0392417
1444,4218;0,0394144
1445,3860;0,0396216
1446,3502;0,039854
1447,3145;0,040104
1448,2787;0,0403728
1449,2429;0,040667
1450,2072;0,0409855
1451,1714;0,0413122
1452,1356;0,0416166
1453,0999;0,0418562
1454,0641;0,0419729
1455,0283;0,0418887
1455,9926;0,0415464
1456,9568;0,041046
1457,9210;0,0406782
1458,8853;0,0406171
1459,8495;0,0407669
1460,8137;0,0409482
1461,7780;0,0410155
1462,7422;0,0408579
1463,7064;0,040406
1464,6707;0,0396882
1465,6349;0,0388591
1466,5991;0,0380903
1467,5634;0,0374335
1468,5276;0,0368132
1469,4918;0,0360934
1470,4561;0,0351269
1471,4203;0,0338132
1472,3845;0,0322131
1473,3488;0,0306166
1474,3130;0,0293423
1475,2772;0,0284696
1476,2415;0,0278788
1477,2057;0,0274316
1478,1699;0,027047
1479,1342;0,0266938
1480,0984;0,0263688
1481,0626;0,0260849
1482,0269;0,0258626
1482,9911;0,0257178
1483,9553;0,0256477
1484,9196;0,0256252
1485,8838;0,0256055
1486,8480;0,0255454
1487,8123;0,0254373
1488,7765;0,0253463
1489,7407;0,0253865
1490,7050;0,0256166
1491,6692;0,0259946
1492,6334;0,0264401
1493,5977;0,026893
1494,5619;0,0273264
1495,5261;0,02774
1496,4904;0,0281573
1497,4546;0,0286189
1498,4188;0,0291556
1499,3831;0,0297588
1500,3473;0,0303865
1501,3115;0,030989
1502,2758;0,0315219
1503,2400;0,0319388
1504,2042;0,0321705
1505,1685;0,0321027
1506,1327;0,0316261
1507,0969;0,0308679
1508,0612;0,0302428
1509,0254;0,0299545
1509,9896;0,0298668
1510,9539;0,0298027
1511,9181;0,0296599
1512,8823;0,0293893
1513,8466;0,0289739
1514,8108;0,0284296
1515,7750;0,0278099
1516,7393;0,027185
1517,7035;0,0265987
1518,6677;0,0260431
1519,6320;0,0254813
1520,5962;0,0249039
1521,5604;0,0243621
1522,5247;0,0239323
1523,4889;0,0236485
1524,4531;0,0234893
1525,4174;0,0234172
1526,3816;0,0234131
1527,3458;0,0234751
1528,3101;0,0236001
1529,2743;0,0237757
1530,2385;0,0239909
1531,2028;0,0242531
1532,1670;0,0245917
1533,1312;0,0250365
1534,0955;0,0255794
1535,0597;0,0261684
1536,0239;0,0267417
1536,9882;0,0272475
1537,9524;0,0276234
1538,9166;0,0277543
1539,8809;0,027487
1540,8451;0,0268381
1541,8093;0,0261434
1542,7736;0,0256821
1543,7378;0,0254421
1544,7020;0,025318
1545,6663;0,025246
1546,6305;0,0252031
1547,5947;0,0251784
1548,5590;0,0251599
1549,5232;0,025141
1550,4874;0,025134
1551,4517;0,0251702
1552,4159;0,0252795
1553,3801;0,0254622
1554,3444;0,0256786
1555,3086;0,025853
1556,2728;0,025876
1557,2371;0,0256323
1558,2013;0,0251619
1559,1655;0,0248181
1560,1298;0,0248811
1561,0940;0,0252436
1562,0582;0,0257073
1563,0225;0,0261659
1563,9867;0,0265792
1564,9509;0,0269309
1565,9152;0,0272124
1566,8794;0,0274285
1567,8436;0,027613
1568,8079;0,0278303
1569,7721;0,0281365
1570,7363;0,0285335
1571,7006;0,0289741
1572,6648;0,0294037
1573,6290;0,0297876
1574,5933;0,0301195
1575,5575;0,0304277
1576,5217;0,0307692
1577,4860;0,0311884
1578,4502;0,031682
1579,4144;0,0322188
1580,3787;0,0327731
1581,3429;0,0333323
1582,3071;0,033892
1583,2714;0,0344526
1584,2356;0,0350187
1585,1998;0,0355971
1586,1641;0,0361897
1587,1283;0,0367877
1588,0925;0,0373686
1589,0568;0,0379024
1590,0210;0,0383595
1590,9852;0,038717
1591,9495;0,0389594
1592,9137;0,039078
1593,8779;0,0390745
1594,8422;0,0389648
1595,8064;0,0387768
1596,7706;0,03854
1597,7349;0,0382751
1598,6991;0,0379926
1599,6633;0,0376979
1600,6276;0,0373995
1601,5918;0,0371111
1602,5560;0,0368488
1603,5203;0,036622
1604,4845;0,0364254
1605,4487;0,0362392
1606,4130;0,0360377
1607,3772;0,0358075
1608,3414;0,0355663
1609,3057;0,0353628
1610,2699;0,0352476
1611,2341;0,0352353
1612,1984;0,0352926
1613,1626;0,0353536
1614,1268;0,035344
1615,0911;0,0352173
1616,0553;0,0350085
1617,0195;0,0348392
1617,9838;0,0348103
1618,9480;0,0349125
1619,9122;0,0350655
1620,8765;0,0351906
1621,8407;0,0352444
1622,8049;0,0352313
1623,7692;0,0351957
1624,7334;0,0351836
1625,6976;0,0352058
1626,6619;0,0352444
1627,6261;0,0352881
1628,5903;0,0353505
1629,5546;0,0354561
1630,5188;0,0356108
1631,4830;0,0357869
1632,4473;0,035923
1633,4115;0,0359309
1634,3757;0,0357278
1635,3400;0,0353322
1636,3042;0,034933
1637,2684;0,0347254
1638,2327;0,0347253
1639,1969;0,0348421
1640,1611;0,0349993
1641,1254;0,0351598
1642,0896;0,0353006
1643,0538;0,0353851
1644,0181;0,0353498
1644,9823;0,0351307
1645,9465;0,0347534
1646,9108;0,0343953
1647,8750;0,0342437
1648,8392;0,0343128
1649,8035;0,034467
1650,7677;0,0345026
1651,7319;0,0341792
1652,6962;0,0333744
1653,6604;0,0324193
1654,6246;0,03185
1655,5889;0,0317343
1656,5531;0,0318313
1657,5173;0,0319481
1658,4816;0,0319817
1659,4458;0,0318718
1660,4100;0,0315869
1661,3743;0,031155
1662,3385;0,0306893
1663,3027;0,030327
1664,2670;0,0301254
1665,2312;0,030037
1666,1954;0,0299562
1667,1597;0,0297654
1668,1239;0,0293806
1669,0881;0,0288199
1670,0524;0,0282286
1671,0166;0,0277639
1671,9808;0,0274546
1672,9451;0,0272133
1673,9093;0,0269392
1674,8735;0,0265999
1675,8378;0,0262547
1676,8020;0,0260019
1677,7662;0,0258925
1678,7305;0,0259014
1679,6947;0,0259543
1680,6589;0,0259503
1681,6232;0,0257662
1682,5874;0,0252964
1683,5516;0,0245884
1684,5159;0,0239094
1685,4801;0,023491
1686,4443;0,0233214
1687,4086;0,0232764
1688,3728;0,0232669
1689,3370;0,0232642
1690,3013;0,0232744
1691,2655;0,0233097
1692,2297;0,0233699
1693,1940;0,023439
1694,1582;0,0234913
1695,1224;0,0235024
1696,0867;0,0234585
1697,0509;0,02336
1698,0151;0,0232238
1698,9794;0,0230864
1699,9436;0,0229976
1700,9078;0,0229937
1701,8721;0,0230754
1702,8363;0,0232143
1703,8005;0,0233778
1704,7648;0,0235487
1705,7290;0,0237334
1706,6932;0,0239577
1707,6575;0,0242486
1708,6217;0,0246174
1709,5859;0,0250573
1710,5502;0,0255505
1711,5144;0,0260722
1712,4786;0,026588
1713,4429;0,027053
1714,4071;0,0274177
1715,3713;0,027653
1716,3356;0,0277963
1717,2998;0,02796
1718,2640;0,0282368
1719,2283;0,0286218
1720,1925;0,0290595
1721,1567;0,0295056
1722,1210;0,0299378
1723,0852;0,0303467
1724,0494;0,0307293
1725,0137;0,0310879
1725,9779;0,0314299
1726,9421;0,0317633
1727,9064;0,0320908
1728,8706;0,0324013
1729,8348;0,032662
1730,7991;0,0328123
1731,7633;0,0327766
1732,7275;0,0325214
1733,6918;0,0321321
1734,6560;0,0317765
1735,6202;0,031546
1736,5845;0,0313987
1737,5487;0,0312332
1738,5129;0,0309603
1739,4772;0,0305396
1740,4414;0,0299974
1741,4056;0,0294114
1742,3699;0,0288566
1743,3341;0,0283595
1744,2983;0,0279009
1745,2626;0,0274446
1746,2268;0,0269487
1747,1910;0,0263618
1748,1553;0,0256344
1749,1195;0,0247675
1750,0837;0,0238575
1751,0480;0,023049
1752,0122;0,0224236
1752,9764;0,0219588
1753,9407;0,0215749
1754,9049;0,0211965
1755,8691;0,0207879
1756,8334;0,0203575
1757,7976;0,0199315
1758,7618;0,0195188
1759,7261;0,0190997
1760,6903;0,0186536
1761,6545;0,0181962
1762,6188;0,0177823
1763,5830;0,0174652
1764,5472;0,0172578
1765,5115;0,0171319
1766,4757;0,0170428
1767,4399;0,0169507
1768,4042;0,0168262
1769,3684;0,016644
1770,3326;0,016383
1771,2969;0,0160468
1772,2611;0,0156921
1773,2253;0,0154097
1774,1896;0,0152591
1775,1538;0,0152323
1776,1180;0,0152766
1777,0823;0,0153315
1778,0465;0,015353
1779,0107;0,0153245
1779,9750;0,0152585
1780,9392;0,0151819
1781,9034;0,0151151
1782,8677;0,0150629
1783,8319;0,0150257
1784,7961;0,015011
1785,7604;0,0150336
1786,7246;0,0151011
1787,6888;0,0152019
1788,6531;0,0153027
1789,6173;0,0153567
1790,5815;0,0153222
1791,5458;0,0151966
1792,5100;0,0150361
1793,4742;0,0149191
1794,4385;0,0148831
1795,4027;0,0149121
1796,3669;0,0149656
1797,3312;0,0150033
1798,2954;0,0149971
1799,2596;0,0149393
1800,2239;0,0148481
1801,1881;0,0147597
1802,1523;0,0147082
1803,1166;0,0147094
1804,0808;0,0147593
1805,0450;0,0148415
1806,0093;0,0149336
1806,9735;0,015011
1807,9377;0,0150513
1808,9020;0,0150421
1809,8662;0,014989
1810,8304;0,0149166
1811,7947;0,0148557
1812,7589;0,0148251
1813,7231;0,0148229
1814,6874;0,014833
1815,6516;0,0148379
1816,6158;0,0148316
1817,5801;0,0148249
1818,5443;0,0148377
1819,5085;0,0148822
1820,4728;0,0149509
1821,4370;0,0150206
1822,4012;0,0150663
1823,3655;0,0150787
1824,3297;0,015071
1825,2939;0,0150676
1826,2582;0,0150804
1827,2224;0,015095
1828,1866;0,0150813
1829,1509;0,0150218
1830,1151;0,014935
1831,0793;0,0148668
1832,0436;0,0148528
1833,0078;0,014893
1833,9720;0,0149584
1834,9363;0,0150144
1835,9005;0,0150426
1836,8647;0,0150529
1837,8290;0,015075
1838,7932;0,0151317
1839,7574;0,0152169
1840,7217;0,0152942
1841,6859;0,0153134
1842,6501;0,0152389
1843,6144;0,0150843
1844,5786;0,014919
1845,5428;0,014819
1846,5071;0,0148072
1847,4713;0,0148522
1848,4355;0,0149061
1849,3998;0,0149357
1850,3640;0,0149326
1851,3282;0,0149102
1852,2925;0,0148925
1853,2567;0,0148997
1854,2209;0,0149397
1855,1852;0,0150073
1856,1494;0,0150888
1857,1136;0,0151674
1858,0779;0,015228
1859,0421;0,0152616
1860,0063;0,0152683
1860,9706;0,0152575
1861,9348;0,0152439
1862,8990;0,0152395
1863,8633;0,0152465
1864,8275;0,0152553
1865,7917;0,0152482
1866,7560;0,0152099
1867,7202;0,0151419
1868,6844;0,0150686
1869,6487;0,0150201
1870,6129;0,015009
1871,5771;0,0150256
1872,5414;0,0150503
1873,5056;0,0150652
1874,4698;0,0150606
1875,4341;0,0150384
1876,3983;0,0150114
1877,3625;0,0149975
1878,3268;0,0150099
1879,2910;0,0150503
1880,2552;0,0151099
1881,2195;0,0151746
1882,1837;0,0152316
1883,1479;0,0152739
1884,1122;0,0152995
1885,0764;0,0153076
1886,0406;0,0152976
1887,0049;0,0152701
1887,9691;0,0152327
1888,9333;0,0152014
1889,8976;0,0151926
1890,8618;0,0152111
1891,8260;0,0152444
1892,7903;0,0152715
1893,7545;0,0152768
1894,7188;0,015261
1895,6830;0,0152412
1896,6472;0,0152382
1897,6115;0,0152611
1898,5757;0,0153011
1899,5399;0,0153406
1900,5042;0,0153669
1901,4684;0,015381
1902,4326;0,0153932
1903,3969;0,0154111
1904,3611;0,0154311
1905,3253;0,0154408
1906,2896;0,0154306
1907,2538;0,0154052
1908,2180;0,0153831
1909,1823;0,0153844
1910,1465;0,015414
1911,1107;0,0154575
1912,0750;0,0154929
1913,0392;0,0155082
1914,0034;0,0155097
1914,9677;0,0155177
1915,9319;0,0155539
1916,8961;0,0156252
1917,8604;0,0157125
1918,8246;0,0157769
1919,7888;0,0157821
1920,7531;0,0157178
1921,7173;0,015606
1922,6815;0,0154915
1923,6458;0,0154174
1924,6100;0,0153984
1925,5742;0,015411
1926,5385;0,015411
1927,5027;0,0153653
1928,4669;0,0152766
1929,4312;0,0151858
1930,3954;0,0151492
1931,3596;0,0152037
1932,3239;0,0153422
1933,2881;0,0155178
1934,2523;0,0156724
1935,2166;0,0157673
1936,1808;0,0157973
1937,1450;0,0157821
1938,1093;0,0157466
1939,0735;0,015707
1940,0377;0,0156705
1941,0020;0,0156428
1941,9662;0,0156314
1942,9304;0,0156392
1943,8947;0,0156539
1944,8589;0,0156503
1945,8231;0,015606
1946,7874;0,0155193
1947,7516;0,0154159
1948,7158;0,0153405
1949,6801;0,0153362
1950,6443;0,0154214
1951,6085;0,0155775
1952,5728;0,0157563
1953,5370;0,0159021
1954,5012;0,0159769
1955,4655;0,015976
1956,4297;0,0159273
1957,3939;0,0158745
1958,3582;0,0158535
1959,3224;0,0158736
1960,2866;0,015914
1961,2509;0,0159401
1962,2151;0,0159321
1963,1793;0,0159081
1964,1436;0,0159256
1965,1078;0,0160548
1966,0720;0,0163317
1967,0363;0,0167133
1968,0005;0,0170717
1968,9647;0,0172443
1969,9290;0,0171144
1970,8932;0,0166711
1971,8574;0,0160225
1972,8217;0,0153647
1973,7859;0,0149158
1974,7501;0,0148307
1975,7144;0,0151261
1976,6786;0,0156641
1977,6428;0,0162185
1978,6071;0,0165952
1979,5713;0,0167237
1980,5355;0,016664
1981,4998;0,0165423
1982,4640;0,0164727
1983,4282;0,0165079
1984,3925;0,0166307
1985,3567;0,0167797
1986,3209;0,0168923
1987,2852;0,0169384
1988,2494;0,0169268
1989,2136;0,0168868
1990,1779;0,0168409
1991,1421;0,016788
1992,1063;0,0167091
1993,0706;0,0165874
1994,0348;0,016429
1994,9990;0,0162646
1995,9633;0,0161361
1996,9275;0,0160762
1997,8917;0,0160942
1998,8560;0,0161728
1999,8202;0,0162802
2000,7844;0,0163919
2001,7487;0,0165091
2002,7129;0,0166594
2003,6771;0,0168778
2004,6414;0,0171758
2005,6056;0,017517
2006,5698;0,017819
2007,5341;0,0179882
2008,4983;0,0179702
2009,4625;0,0177808
2010,4268;0,0174977
2011,3910;0,0172207
2012,3552;0,0170306
2013,3195;0,016967
2014,2837;0,0170305
2015,2479;0,0171981
2016,2122;0,0174367
2017,1764;0,0177079
2018,1406;0,017968
2019,1049;0,0181717
2020,0691;0,0182882
2021,0333;0,0183185
2021,9976;0,0183006
2022,9618;0,0182909
2023,9260;0,0183276
2024,8903;0,0184007
2025,8545;0,0184541
2026,8187;0,0184281
2027,7830;0,018311
2028,7472;0,018159
2029,7114;0,0180631
2030,6757;0,0180836
2031,6399;0,0182026
2032,6041;0,0183356
2033,5684;0,0183949
2034,5326;0,0183568
2035,4968;0,0182739
2036,4611;0,018227
2037,4253;0,0182591
2038,3895;0,0183464
2039,3538;0,0184204
2040,3180;0,0184167
2041,2822;0,0183147
2042,2465;0,0181416
2043,2107;0,0179476
2044,1749;0,017775
2045,1392;0,0176459
2046,1034;0,0175648
2047,0676;0,0175275
2048,0320;0,0175246
2048,9961;0,0175437
2049,9604;0,0175736
2050,9246;0,0176112
2051,8889;0,0176618
2052,8530;0,0177297
2053,8174;0,0178073
2054,7815;0,0178711
2055,7458;0,0178928
2056,7100;0,0178594
2057,6743;0,0177869
2058,6384;0,0177137
2059,6028;0,0176778
2060,5669;0,0176927
2061,5313;0,0177424
2062,4954;0,0177962
2063,4597;0,0178321
2064,4238;0,0178491
2065,3882;0,0178591
2066,3523;0,0178679
2067,3167;0,0178631
2068,2808;0,0178231
2069,2451;0,0177378
2070,2092;0,017625
2071,1736;0,0175263
2072,1377;0,0174839
2073,1021;0,0175138
2074,0662;0,0175936
2075,0305;0,0176742
2075,9946;0,0177074
2076,9590;0,0176702
2077,9231;0,0175743
2078,8875;0,0174569
2079,8516;0,0173616
2080,8159;0,017321
2081,7800;0,0173464
2082,7444;0,0174274
2083,7085;0,017538
2084,6729;0,0176471
2085,6370;0,0177283
2086,6013;0,0177675
2087,5654;0,0177641
2088,5298;0,0177266
2089,4939;0,0176666
2090,4583;0,0175942
2091,4224;0,0175197
2092,3867;0,0174567
2093,3508;0,017422
2094,3152;0,0174296
2095,2793;0,0174807
2096,2437;0,0175584
2097,2078;0,0176351
2098,1721;0,0176888
2099,1362;0,0177163
2100,1006;0,0177335
2101,0647;0,0177636
2102,0291;0,0178174
2102,9932;0,0178859
2103,9575;0,0179462
2104,9216;0,0179777
2105,8860;0,017977
2106,8501;0,0179596
2107,8145;0,0179477
2108,7786;0,0179535
2109,7429;0,0179699
2110,7070;0,017976
2111,6714;0,0179533
2112,6355;0,0179002
2113,5999;0,0178354
2114,5640;0,0177874
2115,5283;0,0177784
2116,4924;0,0178131
2117,4568;0,0178781
2118,4209;0,0179523
2119,3853;0,0180179
2120,3494;0,0180668
2121,3137;0,0180991
2122,2778;0,0181172
2123,2422;0,018123
2124,2063;0,0181198
2125,1707;0,0181165
2126,1348;0,0181291
2127,0991;0,0181749
2128,0632;0,0182624
2129,0276;0,0183829
2129,9917;0,0185099
2130,9561;0,0186086
2131,9202;0,0186509
2132,8845;0,0186311
2133,8486;0,0185733
2134,8130;0,0185265
2135,7771;0,0185447
2136,7415;0,0186607
2137,7056;0,0188675
2138,6699;0,0191174
2139,6340;0,0193429
2140,5984;0,0194885
2141,5625;0,019538
2142,5269;0,0195228
2143,4910;0,019502
2144,4553;0,0195258
2145,4194;0,0196027
2146,3838;0,0196946
2147,3479;0,0197445
2148,3123;0,0197212
2149,2764;0,0196501
2150,2407;0,0196093
2151,2048;0,0196898
2152,1692;0,0199433
2153,1333;0,0203464
2154,0977;0,0208016
2155,0618;0,0211722
2156,0261;0,021339
2156,9902;0,02126
2157,9546;0,0210021
2158,9187;0,0207129
2159,8831;0,020533
2160,8472;0,0205177
2161,8115;0,0206321
2162,7756;0,0208
2163,7400;0,0209511
2164,7041;0,0210377
2165,6685;0,0210307
2166,6326;0,0209144
2167,5969;0,0206923
2168,5610;0,020398
2169,5254;0,0200964
2170,4895;0,0198643
2171,4539;0,0197562
2172,4180;0,0197757
2173,3823;0,0198739
2174,3464;0,0199808
2175,3108;0,020049
2176,2749;0,0200766
2177,2393;0,0200903
2178,2034;0,0201069
2179,1677;0,0201093
2180,1318;0,0200605
2181,0962;0,0199439
2182,0603;0,0197931
2183,0247;0,0196789
2183,9888;0,0196576
2184,9531;0,0197247
2185,9172;0,0198132
2186,8816;0,0198407
2187,8457;0,0197664
2188,8101;0,0196162
2189,7742;0,0194588
2190,7385;0,0193549
2191,7026;0,0193188
2192,6670;0,0193196
2193,6311;0,0193149
2194,5955;0,019287
2195,5596;0,0192527
2196,5239;0,0192421
2197,4880;0,0192678
2198,4524;0,0193095
2199,4165;0,0193267
2200,3809;0,0192873
2201,3450;0,01919
2202,3093;0,0190648
2203,2734;0,0189545
2204,2378;0,0188918
2205,2019;0,0188878
2206,1663;0,018936
2207,1304;0,0190221
2208,0947;0,0191304
2209,0588;0,0192414
2210,0232;0,0193284
2210,9873;0,0193607
2211,9517;0,0193155
2212,9158;0,0191918
2213,8801;0,0190153
2214,8442;0,0188279
2215,8086;0,0186683
2216,7727;0,0185573
2217,7371;0,0184948
2218,7012;0,0184711
2219,6655;0,0184783
2220,6296;0,0185136
2221,5940;0,0185724
2222,5581;0,0186399
2223,5225;0,0186917
2224,4866;0,0187049
2225,4509;0,0186723
2226,4150;0,0186063
2227,3794;0,0185303
2228,3435;0,0184623
2229,3079;0,0184056
2230,2720;0,0183522
2231,2363;0,0182949
2232,2004;0,0182364
2233,1648;0,0181877
2234,1289;0,0181577
2235,0933;0,0181447
2236,0574;0,0181381
2237,0217;0,0181283
2237,9858;0,0181163
2238,9502;0,0181145
2239,9143;0,018137
2240,8787;0,0181902
2241,8428;0,0182676
2242,8071;0,0183539
2243,7712;0,0184322
2244,7356;0,0184888
2245,6997;0,018515
2246,6641;0,0185073
2247,6282;0,0184696
2248,5925;0,0184133
2249,5566;0,0183545
2250,5210;0,018306
2251,4851;0,0182706
2252,4495;0,0182409
2253,4136;0,0182066
2254,3779;0,0181639
2255,3420;0,0181184
2256,3064;0,0180794
2257,2705;0,0180509
2258,2349;0,0180279
2259,1990;0,0180011
2260,1633;0,0179648
2261,1274;0,0179208
2262,0918;0,0178762
2263,0559;0,0178377
2264,0203;0,017809
2264,9844;0,0177927
2265,9487;0,0177925
2266,9128;0,0178121
2267,8772;0,0178506
2268,8413;0,0178984
2269,8057;0,0179407
2270,7698;0,0179646
2271,7341;0,0179647
2272,6982;0,0179429
2273,6626;0,0179035
2274,6267;0,0178493
2275,5911;0,0177837
2276,5552;0,017716
2277,5195;0,0176633
2278,4836;0,0176437
2279,4480;0,0176655
2280,4121;0,0177192
2281,3765;0,0177814
2282,3406;0,017827
2283,3049;0,0178417
2284,2690;0,017828
2285,2334;0,0178009
2286,1975;0,0177773
2287,1619;0,0177667
2288,1260;0,0177669
2289,0903;0,0177666
2290,0544;0,0177527
2291,0188;0,0177186
2291,9829;0,0176699
2292,9473;0,0176239
2293,9114;0,0176024
2294,8757;0,0176213
2295,8398;0,0176811
2296,8042;0,017766
2297,7683;0,0178518
2298,7327;0,0179181
2299,6968;0,017958
2300,6611;0,0179793
2301,6252;0,0179957
2302,5896;0,0180166
2303,5537;0,0180406
2304,5181;0,0180564
2305,4822;0,0180507
2306,4465;0,0180157
2307,4106;0,0179547
2308,3750;0,0178818
2309,3391;0,0178179
2310,3035;0,0177842
2311,2676;0,0177952
2312,2319;0,0178535
2313,1960;0,0179481
2314,1604;0,0180583
2315,1245;0,0181604
2316,0889;0,0182346
2317,0530;0,0182688
2318,0173;0,0182607
2318,9814;0,0182169
2319,9458;0,0181524
2320,9099;0,0180873
2321,8743;0,0180403
2322,8384;0,0180202
2323,8027;0,0180213
2324,7668;0,0180263
2325,7312;0,018015
2326,6953;0,0179735
2327,6597;0,017901
2328,6238;0,0178115
2329,5881;0,0177297
2330,5522;0,0176791
2331,5166;0,0176706
2332,4807;0,0176988
2333,4451;0,0177469
2334,4092;0,017795
2335,3735;0,017826
2336,3376;0,0178281
2337,3020;0,0177967
2338,2661;0,0177338
2339,2305;0,0176433
2340,1946;0,0175247
2341,1589;0,0173745
2342,1230;0,0172016
2343,0874;0,0170462
2344,0515;0,0169734
2345,0159;0,0170288
2345,9800;0,0172039
2346,9443;0,0174517
2347,9084;0,0177193
2348,8728;0,0179661
2349,8369;0,0181642
2350,8013;0,0182976
2351,7654;0,0183639
2352,7297;0,0183798
2353,6938;0,0183798
2354,6582;0,0183994
2355,6223;0,0184523
2356,5867;0,0185266
2357,5508;0,0186002
2358,5151;0,0186528
2359,4792;0,0186627
2360,4436;0,0186004
2361,4077;0,018434
2362,3721;0,018149
2363,3362;0,0177689
2364,3005;0,0173599
2365,2646;0,0170116
2366,2290;0,0168017
2367,1931;0,0167661
2368,1575;0,0168866
2369,1216;0,0171008
2370,0859;0,0173261
2371,0500;0,01749
2372,0144;0,0175537
2372,9785;0,017521
2373,9429;0,0174282
2374,9070;0,0173249
2375,8713;0,0172532
2376,8354;0,0172359
2377,7998;0,017275
2378,7639;0,017359
2379,7283;0,0174721
2380,6924;0,0176002
2381,6567;0,017733
2382,6208;0,0178625
2383,5852;0,0179809
2384,5493;0,0180804
2385,5137;0,018155
2386,4778;0,0182033
2387,4421;0,0182296
2388,4063;0,018243
2389,3706;0,0182533
2390,3347;0,018267
2391,2991;0,0182863
2392,2632;0,0183099
2393,2275;0,0183367
2394,1917;0,0183677
2395,1560;0,0184056
2396,1201;0,018452
2397,0845;0,0185045
2398,0486;0,018557
2399,0129;0,0186019
2399,9771;0,0186341
2400,9414;0,0186524
2401,9055;0,0186605
2402,8699;0,0186642
2403,8340;0,0186701
2404,7983;0,0186827
2405,7625;0,0187032
2406,7268;0,0187283
2407,6909;0,0187511
2408,6553;0,0187639
2409,6194;0,0187618
2410,5837;0,0187468
2411,5479;0,0187274
2412,5122;0,018715
2413,4763;0,0187188
2414,4407;0,0187406
2415,4048;0,0187749
2416,3691;0,0188128
2417,3333;0,0188465
2418,2976;0,0188737
2419,2617;0,0188967
2420,2261;0,0189195
2421,1902;0,0189442
2422,1545;0,0189693
2423,1187;0,0189908
2424,0830;0,019005
2425,0471;0,0190112
2426,0115;0,0190122
2426,9756;0,0190135
2427,9399;0,019021
2428,9041;0,0190381
2429,8684;0,0190645
2430,8325;0,0190954
2431,7969;0,0191235
2432,7610;0,0191417
2433,7253;0,019147
2434,6895;0,0191425
2435,6538;0,0191368
2436,6179;0,0191401
2437,5823;0,0191591
2438,5464;0,0191922
2439,5107;0,0192301
2440,4749;0,0192605
2441,4392;0,0192746
2442,4033;0,0192727
2443,3677;0,019265
2444,3318;0,0192656
2445,2961;0,0192849
2446,2603;0,0193224
2447,2246;0,0193658
2448,1887;0,0193971
2449,1531;0,019402
2450,1172;0,0193787
2451,0815;0,0193397
2452,0457;0,019306
2453,0100;0,0192966
2453,9741;0,0193191
2454,9385;0,0193674
2455,9026;0,0194263
2456,8669;0,0194803
2457,8311;0,0195209
2458,7954;0,019547
2459,7595;0,0195618
2460,7239;0,0195675
2461,6880;0,0195639
2462,6523;0,0195507
2463,6165;0,0195319
2464,5808;0,019516
2465,5449;0,0195129
2466,5093;0,0195277
2467,4734;0,0195575
2468,4377;0,0195923
2469,4019;0,0196214
2470,3662;0,0196389
2471,3303;0,0196456
2472,2947;0,019647
2473,2588;0,0196484
2474,2231;0,0196523
2475,1873;0,019658
2476,1516;0,0196638
2477,1157;0,0196688
2478,0801;0,0196738
2479,0442;0,019681
2480,0085;0,0196938
2480,9727;0,0197162
2481,9370;0,0197507
2482,9011;0,0197962
2483,8655;0,0198458
2484,8296;0,0198875
2485,7939;0,0199097
2486,7581;0,0199076
2487,7224;0,0198877
2488,6865;0,0198645
2489,6509;0,0198533
2490,6150;0,0198603
2491,5793;0,0198801
2492,5435;0,0198994
2493,5078;0,0199066
2494,4719;0,0198994
2495,4363;0,0198853
2496,4004;0,0198763
2497,3647;0,01988
2498,3289;0,0198956
2499,2932;0,019916
2500,2573;0,0199343
2501,2217;0,0199483
2502,1858;0,0199616
2503,1501;0,0199798
2504,1143;0,020005
2505,0786;0,0200346
2506,0427;0,0200629
2507,0071;0,0200847
2507,9712;0,0200982
2508,9355;0,0201046
2509,8997;0,0201068
2510,8640;0,0201073
2511,8281;0,0201082
2512,7925;0,0201112
2513,7566;0,0201163
2514,7209;0,0201213
2515,6851;0,020121
2516,6494;0,0201101
2517,6135;0,0200868
2518,5779;0,0200565
2519,5420;0,0200302
2520,5063;0,0200193
2521,4705;0,0200291
2522,4348;0,0200561
2523,3989;0,0200903
2524,3633;0,0201216
2525,3274;0,0201442
2526,2917;0,0201582
2527,2559;0,0201664
2528,2202;0,0201709
2529,1843;0,0201724
2530,1487;0,0201721
2531,1128;0,0201734
2532,0771;0,0201813
2533,0413;0,0201983
2534,0056;0,0202221
2534,9697;0,0202446
2535,9341;0,0202564
2536,8982;0,0202517
2537,8625;0,0202315
2538,8267;0,0202023
2539,7910;0,0201728
2540,7551;0,0201495
2541,7195;0,0201351
2542,6836;0,0201292
2543,6479;0,0201298
2544,6121;0,0201349
2545,5764;0,0201421
2546,5405;0,0201497
2547,5049;0,0201565
2548,4690;0,0201629
2549,4333;0,0201711
2550,3975;0,020184
2551,3618;0,0202033
2552,3259;0,0202282
2553,2903;0,0202545
2554,2544;0,0202766
2555,2188;0,02029
2556,1829;0,0202932
2557,1472;0,0202889
2558,1113;0,020282
2559,0757;0,0202777
2560,0398;0,0202791
2561,0042;0,0202871
2561,9683;0,0203012
2562,9326;0,0203204
2563,8967;0,0203432
2564,8611;0,0203664
2565,8252;0,0203848
2566,7896;0,0203923
2567,7537;0,0203846
2568,7180;0,0203626
2569,6821;0,0203327
2570,6465;0,0203051
2571,6106;0,0202888
2572,5750;0,0202886
2573,5391;0,0203039
2574,5034;0,0203304
2575,4675;0,020362
2576,4319;0,0203934
2577,3960;0,02042
2578,3604;0,0204391
2579,3245;0,0204496
2580,2888;0,0204527
2581,2529;0,0204515
2582,2173;0,0204491
2583,1814;0,020447
2584,1458;0,0204443
2585,1099;0,0204393
2586,0742;0,0204316
2587,0383;0,0204234
2588,0027;0,0204191
2588,9668;0,0204229
2589,9312;0,0204361
2590,8953;0,0204568
2591,8596;0,0204811
2592,8237;0,0205044
2593,7881;0,0205238
2594,7522;0,0205373
2595,7166;0,0205439
2596,6807;0,020543
2597,6450;0,0205351
2598,6091;0,0205235
2599,5735;0,0205145
2600,5376;0,0205162
2601,5020;0,020535
2602,4661;0,0205716
2603,4304;0,0206185
2604,3945;0,0206626
2605,3589;0,0206913
2606,3230;0,0206995
2607,2874;0,0206927
2608,2515;0,0206836
2609,2158;0,0206844
2610,1799;0,0206987
2611,1443;0,0207198
2612,1084;0,0207363
2613,0728;0,020741
2614,0369;0,0207362
2615,0012;0,0207329
2615,9653;0,0207424
2616,9297;0,0207684
2617,8938;0,0208047
2618,8582;0,0208389
2619,8223;0,0208606
2620,7866;0,0208675
2621,7507;0,0208651
2622,7151;0,0208629
2623,6792;0,0208677
2624,6436;0,0208811
2625,6077;0,0209007
2626,5720;0,0209229
2627,5361;0,0209457
2628,5005;0,020969
2629,4646;0,020993
2630,4290;0,0210168
2631,3931;0,0210382
2632,3574;0,0210551
2633,3215;0,021067
2634,2859;0,0210754
2635,2500;0,0210826
2636,2144;0,0210906
2637,1785;0,0210998
2638,1428;0,0211101
2639,1069;0,0211218
2640,0713;0,0211366
2641,0354;0,0211563
2641,9998;0,0211808
2642,9639;0,0212074
2643,9282;0,0212313
2644,8923;0,0212493
2645,8567;0,0212612
2646,8208;0,0212708
2647,7852;0,0212827
2648,7493;0,0212991
2649,7136;0,0213177
2650,6777;0,0213333
2651,6421;0,0213416
2652,6062;0,0213423
2653,5706;0,0213397
2654,5347;0,0213405
2655,4990;0,0213496
2656,4631;0,0213679
2657,4275;0,0213925
2658,3916;0,0214189
2659,3560;0,0214436
2660,3201;0,0214651
2661,2844;0,0214833
2662,2485;0,0214984
2663,2129;0,02151
2664,1770;0,0215179
2665,1414;0,0215224
2666,1055;0,0215245
2667,0698;0,0215259
2668,0339;0,0215282
2668,9983;0,0215326
2669,9624;0,0215403
2670,9268;0,0215526
2671,8909;0,0215716
2672,8552;0,0215985
2673,8193;0,0216322
2674,7837;0,0216688
2675,7478;0,0217022
2676,7122;0,0217272
2677,6763;0,0217418
2678,6406;0,0217483
2679,6047;0,0217525
2680,5691;0,0217601
2681,5332;0,0217742
2682,4976;0,0217946
2683,4617;0,0218191
2684,4260;0,0218452
2685,3901;0,0218724
2686,3545;0,0219013
2687,3186;0,0219326
2688,2830;0,0219657
2689,2471;0,0219977
2690,2114;0,0220248
2691,1755;0,0220436
2692,1399;0,0220533
2693,1040;0,0220561
2694,0684;0,022057
2695,0325;0,0220612
2695,9968;0,0220726
2696,9609;0,0220916
2697,9253;0,0221161
2698,8894;0,0221424
2699,8538;0,0221678
2700,8179;0,0221917
2701,7822;0,022215
2702,7463;0,0222388
2703,7107;0,0222627
2704,6748;0,0222849
2705,6392;0,022303
2706,6033;0,0223156
2707,5676;0,0223234
2708,5317;0,0223299
2709,4961;0,0223398
2710,4602;0,022358
2711,4246;0,0223874
2712,3887;0,0224277
2713,3530;0,0224749
2714,3171;0,0225217
2715,2815;0,0225603
2716,2456;0,0225856
2717,2100;0,0225975
2718,1741;0,0226013
2719,1384;0,0226053
2720,1025;0,0226161
2721,0669;0,0226359
2722,0310;0,0226616
2722,9954;0,022687
2723,9595;0,0227071
2724,9238;0,0227207
2725,8879;0,0227308
2726,8523;0,0227424
2727,8164;0,0227597
2728,7808;0,0227836
2729,7449;0,022812
2730,7092;0,0228414
2731,6733;0,0228692
2732,6377;0,0228947
2733,6018;0,0229182
2734,5662;0,0229399
2735,5303;0,0229587
2736,4946;0,0229724
2737,4587;0,0229796
2738,4231;0,0229813
2739,3872;0,0229821
2740,3516;0,0229883
2741,3157;0,0230048
2742,2800;0,0230322
2743,2441;0,0230654
2744,2085;0,0230952
2745,1726;0,023113
2746,1370;0,0231154
2747,1011;0,023106
2748,0654;0,0230947
2749,0295;0,0230924
2749,9939;0,0231059
2750,9580;0,023134
2751,9224;0,0231689
2752,8865;0,023201
2753,8508;0,0232244
2754,8149;0,0232407
2755,7793;0,0232568
2756,7434;0,0232801
2757,7078;0,0233129
2758,6719;0,0233503
2759,6362;0,0233827
2760,6003;0,0234017
2761,5647;0,0234053
2762,5288;0,0233991
2763,4932;0,0233937
2764,4573;0,0233991
2765,4216;0,0234196
2766,3857;0,0234535
2767,3501;0,0234944
2768,3142;0,0235356
2769,2786;0,0235732
2770,2427;0,0236066
2771,2070;0,0236374
2772,1711;0,023667
2773,1355;0,0236954
2774,0996;0,0237213
2775,0640;0,0237434
2776,0281;0,0237623
2776,9924;0,0237807
2777,9565;0,0238029
2778,9209;0,0238328
2779,8850;0,0238716
2780,8494;0,0239174
2781,8135;0,0239664
2782,7778;0,0240143
2783,7419;0,0240582
2784,7063;0,0240974
2785,6704;0,0241328
2786,6348;0,0241662
2787,5989;0,0241997
2788,5632;0,0242359
2789,5273;0,0242778
2790,4917;0,024328
2791,4558;0,0243866
2792,4202;0,0244503
2793,3843;0,0245125
2794,3486;0,024566
2795,3127;0,0246064
2796,2771;0,0246349
2797,2412;0,0246581
2798,2056;0,0246853
2799,1697;0,0247243
2800,1340;0,0247787
2801,0981;0,0248476
2802,0625;0,0249266
2803,0266;0,0250101
2803,9910;0,0250929
2804,9551;0,0251704
2805,9194;0,0252395
2806,8835;0,0252987
2807,8479;0,0253496
2808,8120;0,0253968
2809,7764;0,025446
2810,7405;0,0255027
2811,7048;0,0255699
2812,6689;0,0256483
2813,6333;0,0257365
2814,5974;0,0258324
2815,5618;0,025933
2816,5259;0,0260349
2817,4902;0,0261343
2818,4543;0,0262285
2819,4187;0,0263177
2820,3828;0,0264052
2821,3472;0,026496
2822,3113;0,0265945
2823,2756;0,0267027
2824,2397;0,0268201
2825,2041;0,0269453
2826,1682;0,0270771
2827,1326;0,0272154
2828,0967;0,0273595
2829,0610;0,0275083
2830,0251;0,0276605
2830,9895;0,0278155
2831,9536;0,0279748
2832,9180;0,0281411
2833,8821;0,0283167
2834,8464;0,0285023
2835,8105;0,0286971
2836,7749;0,0289008
2837,7390;0,0291156
2838,7034;0,0293482
2839,6675;0,0296084
2840,6318;0,0299077
2841,5959;0,0302555
2842,5603;0,0306551
2843,5244;0,0310999
2844,4888;0,0315701
2845,4529;0,0320319
2846,4172;0,032442
2847,3813;0,0327563
2848,3457;0,0329422
2849,3098;0,0329897
2850,2742;0,0329155
2851,2383;0,0327586
2852,2026;0,0325674
2853,1667;0,0323852
2854,1311;0,0322389
2855,0952;0,0321352
2856,0596;0,0320671
2857,0237;0,0320229
2857,9880;0,0319957
2858,9521;0,0319865
2859,9165;0,0320011
2860,8806;0,0320444
2861,8450;0,0321153
2862,8091;0,0322057
2863,7734;0,0323047
2864,7375;0,0324032
2865,7019;0,0324976
2866,6660;0,0325901
2867,6304;0,0326851
2868,5945;0,0327853
2869,5588;0,0328892
2870,5229;0,0329906
2871,4873;0,033082
2872,4514;0,033158
2873,4158;0,0332184
2874,3799;0,0332683
2875,3442;0,0333158
2876,3083;0,0333683
2877,2727;0,0334292
2878,2368;0,0334971
2879,2012;0,033567
2880,1653;0,0336336
2881,1296;0,0336941
2882,0938;0,033749
2883,0581;0,0338016
2884,0222;0,0338562
2884,9866;0,0339162
2885,9507;0,0339841
2886,9150;0,0340608
2887,8792;0,0341457
2888,8435;0,0342365
2889,8076;0,0343287
2890,7720;0,0344165
2891,7361;0,0344944
2892,7004;0,0345596
2893,6646;0,0346135
2894,6289;0,0346615
2895,5930;0,0347112
2896,5574;0,0347687
2897,5215;0,0348361
2898,4858;0,0349106
2899,4500;0,0349856
2900,4143;0,0350539
2901,3784;0,0351119
2902,3428;0,0351616
2903,3069;0,0352108
2904,2712;0,0352708
2905,2354;0,0353515
2906,1997;0,0354589
2907,1638;0,035595
2908,1282;0,0357614
2909,0923;0,0359631
2910,0566;0,0362095
2911,0208;0,0365088
2911,9851;0,0368583
2912,9492;0,0372356
2913,9136;0,0375973
2914,8777;0,0378877
2915,8420;0,0380561
2916,8062;0,0380736
2917,7705;0,0379423
2918,7346;0,0376922
2919,6990;0,037368
2920,6631;0,0370141
2921,6274;0,0366623
2922,5916;0,0363286
2923,5559;0,036016
2924,5200;0,0357205
2925,4844;0,0354365
2926,4485;0,0351601
2927,4128;0,0348907
2928,3770;0,0346309
2929,3413;0,0343861
2930,3054;0,0341628
2931,2698;0,0339658
2932,2339;0,0337953
2933,1982;0,0336453
2934,1624;0,033505
2935,1267;0,0333618
2936,0908;0,0332067
2937,0552;0,0330375
2938,0193;0,0328587
2938,9836;0,0326788
2939,9478;0,032505
2940,9121;0,0323391
2941,8762;0,032177
2942,8406;0,0320112
2943,8047;0,0318359
2944,7690;0,0316508
2945,7332;0,0314621
2946,6975;0,0312796
2947,6616;0,0311117
2948,6260;0,030961
2949,5901;0,0308232
2950,5544;0,0306901
2951,5186;0,0305541
2952,4829;0,0304127
2953,4470;0,0302692
2954,4114;0,0301296
2955,3755;0,0299983
2956,3398;0,0298744
2957,3040;0,0297522
2958,2683;0,0296251
2959,2324;0,0294897
2960,1968;0,029348
2961,1609;0,0292064
2962,1252;0,0290717
2963,0894;0,0289472
2964,0537;0,0288319
2965,0178;0,0287216
2965,9822;0,0286122
2966,9463;0,0285017
2967,9106;0,0283909
2968,8748;0,0282813
2969,8391;0,0281736
2970,8032;0,0280663
2971,7676;0,0279562
2972,7317;0,0278405
2973,6960;0,0277185
2974,6602;0,0275925
2975,6245;0,0274677
2976,5886;0,0273504
2977,5530;0,027246
2978,5171;0,0271576
2979,4814;0,0270853
2980,4456;0,0270268
2981,4099;0,0269779
2982,3740;0,0269344
2983,3384;0,0268932
2984,3025;0,0268533
2985,2668;0,0268156
2986,2310;0,0267818
2987,1953;0,0267527
2988,1594;0,0267273
2989,1238;0,0267032
2990,0879;0,0266789
2991,0522;0,0266557
2992,0164;0,0266375
2992,9807;0,0266288
2993,9448;0,0266313
2994,9092;0,0266424
2995,8733;0,0266565
2996,8376;0,0266688
2997,8018;0,0266782
2998,7661;0,026687
2999,7302;0,0266981
3000,6946;0,0267117
3001,6587;0,0267248
3002,6230;0,026734
3003,5872;0,0267408
3004,5515;0,0267521
3005,5156;0,0267775
3006,4800;0,0268221
3007,4441;0,0268814
3008,4084;0,0269423
3009,3726;0,0269897
3010,3369;0,0270148
3011,3010;0,0270203
3012,2654;0,0270177
3013,2295;0,0270208
3014,1938;0,0270385
3015,1580;0,0270726
3016,1223;0,0271197
3017,0864;0,0271754
3018,0508;0,0272354
3019,0149;0,0272954
3019,9792;0,0273498
3020,9434;0,0273928
3021,9077;0,0274225
3022,8718;0,027443
3023,8362;0,0274642
3024,8003;0,0274973
3025,7646;0,0275487
3026,7288;0,027617
3027,6931;0,027694
3028,6572;0,0277693
3029,6216;0,0278347
3030,5857;0,0278874
3031,5500;0,0279299
3032,5142;0,0279685
3033,4785;0,0280108
3034,4426;0,0280636
3035,4070;0,0281296
3036,3711;0,0282066
3037,3354;0,0282874
3038,2996;0,0283626
3039,2639;0,0284253
3040,2280;0,0284752
3041,1924;0,0285191
3042,1565;0,0285676
3043,1208;0,0286297
3044,0850;0,0287075
3045,0493;0,0287958
3046,0134;0,0288853
3046,9778;0,0289678
3047,9419;0,0290405
3048,9063;0,0291068
3049,8704;0,0291732
3050,8347;0,0292447
3051,7988;0,0293213
3052,7632;0,0293994
3053,7273;0,0294743
3054,6917;0,0295446
3055,6558;0,0296142
3056,6201;0,0296898
3057,5842;0,0297774
3058,5486;0,0298773
3059,5127;0,0299844
3060,4771;0,0300898
3061,4412;0,030186
3062,4055;0,0302693
3063,3696;0,0303414
3064,3340;0,0304066
3065,2981;0,0304698
3066,2625;0,0305341
3067,2266;0,0306009
3068,1909;0,0306709
3069,1550;0,0307451
3070,1194;0,0308247
3071,0835;0,0309103
3072,0479;0,0310011
3073,0120;0,0310957
3073,9763;0,0311923
3074,9404;0,0312898
3075,9048;0,0313868
3076,8689;0,0314809
3077,8333;0,0315682
3078,7974;0,0316439
3079,7617;0,0317063
3080,7258;0,0317578
3081,6902;0,0318062
3082,6543;0,0318606
3083,6187;0,0319276
3084,5828;0,0320086
3085,5471;0,0321004
3086,5112;0,0321982
3087,4756;0,0322985
3088,4397;0,0323995
3089,4041;0,0325004
3090,3682;0,0325991
3091,3325;0,0326935
3092,2966;0,0327827
3093,2610;0,032869
3094,2251;0,0329571
3095,1895;0,0330507
3096,1536;0,033149
3097,1179;0,0332466
3098,0820;0,0333364
3099,0464;0,0334151
3100,0105;0,0334851
3100,9749;0,0335536
3101,9390;0,0336281
3102,9033;0,0337126
3103,8674;0,0338067
3104,8318;0,0339078
3105,7959;0,0340135
3106,7603;0,0341232
3107,7244;0,0342364
3108,6887;0,0343512
3109,6528;0,0344633
3110,6172;0,0345669
3111,5813;0,0346581
3112,5457;0,0347367
3113,5098;0,0348073
3114,4741;0,0348782
3115,4382;0,0349579
3116,4026;0,0350517
3117,3667;0,0351595
3118,3311;0,0352762
3119,2952;0,035394
3120,2595;0,0355071
3121,2236;0,0356134
3122,1880;0,0357158
3123,1521;0,035819
3124,1165;0,0359271
3125,0806;0,0360405
3126,0449;0,0361555
3127,0090;0,0362664
3127,9734;0,0363691
3128,9375;0,0364634
3129,9019;0,0365542
3130,8660;0,0366495
3131,8303;0,0367558
3132,7944;0,0368742
3133,7588;0,0369985
3134,7229;0,0371185
3135,6873;0,0372255
3136,6514;0,0373181
3137,6157;0,0374029
3138,5798;0,0374911
3139,5442;0,037592
3140,5083;0,0377087
3141,4727;0,0378375
3142,4368;0,037972
3143,4011;0,0381068
3144,3652;0,0382394
3145,3296;0,0383688
3146,2937;0,0384937
3147,2581;0,038612
3148,2222;0,0387231
3149,1865;0,0388301
3150,1506;0,0389394
3151,1150;0,0390576
3152,0791;0,0391873
3153,0435;0,0393245
3154,0076;0,0394601
3154,9719;0,039584
3155,9360;0,0396908
3156,9004;0,0397825
3157,8645;0,0398684
3158,8289;0,0399613
3159,7930;0,0400722
3160,7573;0,040206
3161,7214;0,0403591
3162,6858;0,0405215
3163,6499;0,0406809
3164,6143;0,0408281
3165,5784;0,0409592
3166,5427;0,0410765
3167,5068;0,0411858
3168,4712;0,0412934
3169,4353;0,0414113
3170,3997;0,0415302
3171,3638;0,0416592
3172,3281;0,0417987
3173,2922;0,0419462
3174,2566;0,0420971
3175,2207;0,0422464
3176,1851;0,0423907
3177,1492;0,0425295
3178,1135;0,0426628
3179,0776;0,0427892
3180,0420;0,0429051
3181,0061;0,0430069
3181,9705;0,0430958
3182,9346;0,0431805
3183,8989;0,0432745
3184,8630;0,0433894
3185,8274;0,0435281
3186,7915;0,0436826
3187,7559;0,0438394
3188,7200;0,0439867
3189,6843;0,0441208
3190,6484;0,0442452
3191,6128;0,0443659
3192,5769;0,0444868
3193,5413;0,0446079
3194,5054;0,0447281
3195,4697;0,0448476
3196,4338;0,0449689
3197,3982;0,0450936
3198,3623;0,0452201
3199,3267;0,0453443
3200,2908;0,0454625
3201,2551;0,0455747
3202,2192;0,045685
3203,1836;0,0457987
3204,1477;0,0459186
3205,1121;0,0460445
3206,0762;0,0461739
3207,0405;0,046305
3208,0046;0,0464374
3208,9690;0,0465711
3209,9331;0,0467041
3210,8975;0,0468327
3211,8616;0,0469529
3212,8259;0,0470635
3213,7900;0,0471675
3214,7544;0,0472718
3215,7185;0,047383
3216,6829;0,047505
3217,6470;0,0476364
3218,6113;0,0477718
3219,5754;0,0479039
3220,5398;0,0480272
3221,5039;0,0481409
3222,4683;0,0482491
3223,4324;0,0483586
3224,3967;0,0484752
3225,3608;0,0486007
3226,3252;0,0487317
3227,2893;0,0488624
3228,2537;0,0489885
3229,2178;0,0491098
3230,1821;0,0492302
3231,1462;0,0493533
3232,1106;0,0494791
3233,0747;0,0496028
3234,0391;0,0497181
3235,0032;0,0498222
3235,9675;0,0499193
3236,9316;0,0500198
3237,8960;0,0501339
3238,8601;0,0502657
3239,8245;0,0504092
3240,7886;0,0505513
3241,7529;0,0506792
3242,7170;0,0507872
3243,6814;0,0508808
3244,6455;0,0509736
3245,6099;0,0510805
3246,5740;0,0512097
3247,5383;0,0513605
3248,5024;0,0515244
3249,4668;0,05169
3250,4309;0,0518478
3251,3953;0,0519918
3252,3594;0,0521201
3253,3237;0,0522345
3254,2878;0,0523394
3255,2522;0,0524415
3256,2163;0,0525482
3257,1807;0,0526648
3258,1448;0,0527926
3259,1091;0,0529289
3260,0732;0,0530681
3261,0376;0,0532055
3262,0017;0,0533398
3262,9661;0,0534737
3263,9302;0,053612
3264,8945;0,0537584
3265,8586;0,053912
3266,8230;0,0540672
3267,7871;0,0542149
3268,7515;0,0543464
3269,7156;0,0544559
3270,6799;0,0545422
3271,6440;0,0546085
3272,6084;0,0546608
3273,5725;0,0547064
3274,5369;0,0547528
3275,5010;0,0548069
3276,4653;0,0548733
3277,4294;0,0549534
3278,3938;0,0550437
3279,3579;0,0551363
3280,3223;0,0552212
3281,2864;0,0552908
3282,2507;0,0553431
3283,2148;0,0553836
3284,1792;0,0554219
3285,1433;0,0554666
3286,1077;0,0555198
3287,0718;0,0555762
3288,0361;0,0556262
3289,0002;0,0556618
3289,9646;0,0556812
3290,9287;0,0556893
3291,8931;0,0556944
3292,8572;0,0557039
3293,8215;0,0557215
3294,7856;0,0557473
3295,7500;0,0557799
3296,7141;0,0558169
3297,6785;0,0558552
3298,6426;0,0558903
3299,6069;0,0559176
3300,5710;0,0559352
3301,5354;0,0559458
3302,4995;0,0559551
3303,4639;0,0559691
3304,4280;0,0559893
3305,3923;0,0560124
3306,3564;0,056033
3307,3208;0,0560475
3308,2849;0,056057
3309,2493;0,0560656
3310,2134;0,0560774
3311,1777;0,0560943
3312,1418;0,056117
3313,1062;0,0561464
3314,0703;0,0561856
3315,0347;0,0562377
3315,9988;0,0563037
3316,9631;0,0563806
3317,9272;0,0564629
3318,8916;0,0565448
3319,8557;0,056623
3320,8201;0,0566969
3321,7842;0,0567673
3322,7485;0,0568354
3323,7126;0,0569027
3324,6770;0,056971
3325,6411;0,0570421
3326,6055;0,0571159
3327,5696;0,0571894
3328,5339;0,0572573
3329,4980;0,0573146
3330,4624;0,0573596
3331,4265;0,0573946
3332,3909;0,0574236
3333,3550;0,0574489
3334,3193;0,0574689
3335,2834;0,0574792
3336,2478;0,0574765
3337,2119;0,0574612
3338,1763;0,0574377
3339,1404;0,0574109
3340,1047;0,057382
3341,0688;0,057347
3342,0332;0,0572996
3342,9973;0,0572349
3343,9617;0,0571531
3344,9258;0,0570591
3345,8901;0,05696
3346,8542;0,0568619
3347,8186;0,0567673
3348,7827;0,056676
3349,7471;0,0565856
3350,7112;0,0564927
3351,6755;0,0563937
3352,6396;0,056285
3353,6040;0,0561644
3354,5681;0,0560326
3355,5325;0,0558939
3356,4966;0,0557557
3357,4609;0,0556259
3358,4250;0,0555107
3359,3894;0,0554128
3360,3535;0,0553301
3361,3179;0,0552561
3362,2820;0,0551813
3363,2463;0,0550964
3364,2104;0,0549958
3365,1748;0,0548801
3366,1389;0,0547568
3367,1033;0,0546355
3368,0674;0,0545226
3369,0317;0,0544174
3369,9958;0,0543128
3370,9602;0,0542003
3371,9243;0,054076
3372,8887;0,0539429
3373,8528;0,0538094
3374,8171;0,0536836
3375,7813;0,0535687
3376,7456;0,0534626
3377,7097;0,0533595
3378,6741;0,053254
3379,6382;0,0531432
3380,6025;0,0530265
3381,5667;0,0529047
3382,5310;0,0527799
3383,4951;0,0526552
3384,4595;0,0525355
3385,4236;0,0524254
3386,3879;0,0523274
3387,3521;0,0522397
3388,3164;0,0521567
3389,2805;0,0520708
3390,2449;0,0519756
3391,2090;0,0518675
3392,1733;0,0517465
3393,1375;0,0516154
3394,1018;0,0514794
3395,0659;0,0513444
3396,0303;0,0512163
3396,9944;0,0510988
3397,9587;0,0509911
3398,9229;0,0508883
3399,8872;0,0507826
3400,8513;0,0506679
3401,8157;0,0505427
3402,7798;0,0504108
3403,7441;0,0502781
3404,7083;0,0501492
3405,6726;0,0500241
3406,6367;0,0498994
3407,6011;0,0497708
3408,5652;0,0496355
3409,5295;0,0494941
3410,4937;0,0493494
3411,4580;0,0492053
3412,4221;0,0490647
3413,3865;0,0489285
3414,3506;0,0487941
3415,3149;0,048656
3416,2791;0,0485072
3417,2434;0,0483427
3418,2075;0,0481624
3419,1719;0,0479725
3420,1360;0,0477831
3421,1003;0,0476041
3422,0645;0,047441
3423,0288;0,0472936
3423,9929;0,047157
3424,9573;0,0470251
3425,9214;0,0468914
3426,8857;0,0467505
3427,8499;0,0465997
3428,8142;0,0464396
3429,7783;0,0462738
3430,7427;0,0461062
3431,7068;0,0459385
3432,6711;0,0457693
3433,6353;0,0455961
3434,5996;0,0454186
3435,5637;0,0452403
3436,5281;0,0450659
3437,4922;0,0448984
3438,4565;0,0447368
3439,4207;0,0445773
3440,3850;0,0444166
3441,3491;0,044253
3442,3135;0,0440844
3443,2776;0,0439059
3444,2419;0,0437103
3445,2061;0,0434934
3446,1704;0,0432614
3447,1345;0,0430325
3448,0989;0,0428291
3449,0630;0,0426652
3450,0273;0,0425382
3450,9915;0,0424309
3451,9558;0,0423208
3452,9199;0,0421905
3453,8843;0,0420345
3454,8484;0,0418582
3455,8127;0,041673
3456,7769;0,0414882
3457,7412;0,041307
3458,7053;0,0411269
3459,6697;0,0409443
3460,6338;0,0407585
3461,5981;0,040573
3462,5623;0,0403928
3463,5266;0,0402204
3464,4907;0,0400528
3465,4551;0,0398839
3466,4192;0,0397083
3467,3835;0,0395264
3468,3477;0,0393437
3469,3120;0,0391659
3470,2761;0,0389941
3471,2405;0,0388227
3472,2046;0,0386447
3473,1689;0,0384583
3474,1331;0,038271
3475,0974;0,0380941
3476,0615;0,0379342
3477,0259;0,0377858
3477,9900;0,0376339
3478,9543;0,0374637
3479,9185;0,0372715
3480,8828;0,0370693
3481,8469;0,0368773
3482,8113;0,0367097
3483,7754;0,0365644
3484,7397;0,0364254
3485,7039;0,0362733
3486,6682;0,0360984
3487,6323;0,0359068
3488,5967;0,0357168
3489,5608;0,0355469
3490,5251;0,0354039
3491,4893;0,0352783
3492,4536;0,0351509
3493,4177;0,0350051
3494,3821;0,0348387
3495,3462;0,0346675
3496,3105;0,0345139
3497,2747;0,0343895
3498,2390;0,0342827
3499,2031;0,0341619
3500,1675;0,0339939
3501,1316;0,0337679
3502,0959;0,0335098
3503,0601;0,0332718
3504,0244;0,0330977
3504,9885;0,0329924
3505,9529;0,0329196
3506,9170;0,0328267
3507,8813;0,0326748
3508,8455;0,0324601
3509,8098;0,032215
3510,7739;0,0319863
3511,7383;0,0318055
3512,7024;0,0316745
3513,6667;0,0315732
3514,6309;0,031479
3515,5952;0,0313807
3516,5593;0,0312801
3517,5237;0,0311824
3518,4878;0,0310857
3519,4521;0,0309779
3520,4163;0,0308435
3521,3806;0,0306761
3522,3447;0,0304848
3523,3091;0,0302899
3524,2732;0,0301083
3525,2375;0,0299415
3526,2017;0,0297764
3527,1660;0,0295989
3528,1301;0,0294081
3529,0945;0,0292195
3530,0586;0,0290537
3531,0229;0,0289212
3531,9871;0,0288138
3532,9514;0,0287098
3533,9155;0,0285855
3534,8799;0,0284294
3535,8440;0,0282502
3536,8083;0,0280752
3537,7725;0,0279359
3538,7368;0,0278509
3539,7009;0,0278151
3540,6653;0,0277989
3541,6294;0,0277565
3542,5938;0,0276418
3543,5579;0,0274326
3544,5222;0,0271526
3545,4863;0,0268677
3546,4507;0,0266466
3547,4148;0,0265134
3548,3792;0,0264365
3549,3433;0,026355
3550,3076;0,026217
3551,2717;0,0260098
3552,2361;0,0257694
3553,2002;0,0255579
3554,1646;0,0254215
3555,1287;0,0253604
3556,0930;0,0253361
3557,0571;0,025301
3558,0215;0,0252298
3558,9856;0,0251359
3559,9500;0,025061
3560,9141;0,0250428
3561,8784;0,0250797
3562,8425;0,0251174
3563,8069;0,0250619
3564,7710;0,0248207
3565,7354;0,0243745
3566,6995;0,0238335
3567,6638;0,0233782
3568,6279;0,0231132
3569,5923;0,0230148
3570,5564;0,0229968
3571,5208;0,0229797
3572,4849;0,0229192
3573,4492;0,0228096
3574,4133;0,0226749
3575,3777;0,022547
3576,3418;0,0224424
3577,3062;0,0223569
3578,2703;0,0222793
3579,2346;0,0222118
3580,1987;0,0221732
3581,1631;0,0221829
3582,1272;0,0222359
3583,0916;0,0222884
3584,0557;0,0222629
3585,0200;0,0220804
3585,9841;0,0217229
3586,9485;0,0212884
3587,9126;0,0209433
3588,8770;0,0207857
3589,8411;0,0207858
3590,8054;0,0208439
3591,7695;0,0208635
3592,7339;0,0207885
3593,6980;0,0206201
3594,6624;0,0204095
3595,6265;0,0202154
3596,5908;0,0200572
3597,5549;0,0199123
3598,5193;0,0197545
3599,4834;0,0195933
3600,4478;0,0194764
3601,4119;0,0194511
3602,3762;0,0195212
3603,3403;0,0196378
3604,3047;0,0197264
3605,2688;0,019722
3606,2332;0,019602
3607,1973;0,0194026
3608,1616;0,0191966
3609,1257;0,0190407
3610,0901;0,0189415
3611,0542;0,0188728
3612,0186;0,0188139
3612,9827;0,0187657
3613,9470;0,0187343
3614,9111;0,0187024
3615,8755;0,0186177
3616,8396;0,0184145
3617,8040;0,0180669
3618,7681;0,017643
3619,7324;0,0172951
3620,6965;0,0171594
3621,6609;0,0172691
3622,6250;0,0175641
3623,5894;0,0179432
3624,5535;0,0182867
3625,5178;0,0184526
3626,4819;0,0182946
3627,4463;0,0177605
3628,4104;0,0170243
3629,3748;0,0164094
3630,3389;0,0160928
3631,3032;0,0160171
3632,2673;0,016046
3633,2317;0,0160812
3634,1958;0,0160825
3635,1602;0,0160509
3636,1243;0,0160055
3637,0886;0,0159617
3638,0527;0,0159248
3639,0171;0,0159002
3639,9812;0,0159074
3640,9456;0,0159825
3641,9097;0,0161607
3642,8740;0,0164522
3643,8381;0,0168216
3644,8025;0,017175
3645,7666;0,0173491
3646,7310;0,0171357
3647,6951;0,0164282
3648,6594;0,0154674
3649,6235;0,0147472
3650,5879;0,014504
3651,5520;0,0145983
3652,5164;0,0147982
3653,4805;0,0149341
3654,4448;0,014915
3655,4089;0,0147344
3656,3733;0,0144746
3657,3374;0,0142537
3658,3018;0,0141394
3659,2659;0,0141204
3660,2302;0,0141512
3661,1943;0,0142077
3662,1587;0,0143067
3663,1228;0,0144841
3664,0872;0,0147539
3665,0513;0,0150783
3666,0156;0,0153706
3666,9797;0,0155277
3667,9441;0,0154939
3668,9082;0,0153321
3669,8726;0,0152016
3670,8367;0,0152064
3671,8010;0,0152904
3672,7651;0,0152869
3673,7295;0,0150348
3674,6936;0,0145082
3675,6580;0,0138968
3676,6221;0,0134696
3677,5864;0,0133272
3678,5505;0,0133848
3679,5149;0,0135237
3680,4790;0,0136816
3681,4434;0,0138569
3682,4075;0,0140767
3683,3718;0,0143584
3684,3359;0,0146786
3685,3003;0,0149612
3686,2644;0,0150882
3687,2288;0,0149454
3688,1929;0,0145212
3689,1572;0,0139827
3690,1213;0,01357
3691,0857;0,0133906
3692,0498;0,0133938
3693,0142;0,0134872
3693,9783;0,0136119
3694,9426;0,013747
3695,9067;0,0138888
3696,8711;0,0140267
3697,8352;0,0141309
3698,7996;0,0141578
3699,7637;0,0140778
3700,7280;0,0139117
3701,6921;0,0137436
3702,6565;0,0136789
3703,6206;0,013778
3704,5850;0,0140295
3705,5491;0,0143687
3706,5134;0,014702
3707,4775;0,0149161
3708,4419;0,0148948
3709,4060;0,0145774
3710,3704;0,0140519
3711,3345;0,0135537
3712,2988;0,0132856
3713,2629;0,0132775
3714,2273;0,0134421
3715,1914;0,0136797
3716,1558;0,0139186
3717,1199;0,0141143
3718,0842;0,0142463
3719,0483;0,0143162
3720,0127;0,0143398
3720,9768;0,0143307
3721,9412;0,0142894
3722,9053;0,0142109
3723,8696;0,0141093
3724,8337;0,0140305
3725,7981;0,0140346
3726,7622;0,0141593
3727,7266;0,0144015
3728,6907;0,014723
3729,6550;0,0150646
3730,6191;0,0153495
3731,5835;0,0154813
3732,5476;0,0153608
3733,5120;0,0149492
3734,4761;0,0143604
3735,4404;0,0138495
3736,4045;0,0136295
3737,3689;0,0137372
3738,3330;0,0140842
3739,2974;0,0145508
3740,2615;0,015015
3741,2258;0,015349
3742,1899;0,0154402
3743,1543;0,0152763
3744,1184;0,0150231
3745,0828;0,0149155
3746,0469;0,0150284
3747,0112;0,0152331
3747,9753;0,015316
3748,9397;0,0150965
3749,9038;0,0145621
3750,8682;0,0139628
3751,8323;0,0136227
3752,7966;0,01363
3753,7607;0,0138453
3754,7251;0,0140885
3755,6892;0,0142268
3756,6536;0,0141929
3757,6177;0,0140057
3758,5820;0,0137723
3759,5461;0,0136235
3760,5105;0,0136226
3761,4746;0,0137445
3762,4390;0,0139216
3763,4031;0,0140909
3764,3674;0,0142117
3765,3315;0,0142636
3766,2959;0,0142358
3767,2600;0,0141212
3768,2244;0,0139256
3769,1885;0,013688
3770,1528;0,0134837
3771,1169;0,0133916
3772,0813;0,0134473
3773,0454;0,0136263
3774,0098;0,013861
3774,9739;0,0140692
3775,9382;0,0141781
3776,9023;0,0141526
3777,8667;0,0140192
3778,8308;0,0138589
3779,7952;0,0137523
3780,7593;0,0137257
3781,7236;0,0137508
3782,6877;0,0137819
3783,6521;0,013786
3784,6162;0,0137542
3785,5806;0,0136985
3786,5447;0,0136426
3787,5090;0,0136128
3788,4731;0,013631
3789,4375;0,013708
3790,4016;0,0138376
3791,3660;0,0139966
3792,3301;0,0141543
3793,2944;0,0142908
3794,2585;0,0144114
3795,2229;0,0145424
3796,1870;0,0147014
3797,1514;0,0148642
3798,1155;0,014961
3799,0798;0,0149153
3800,0439;0,0147146
3801,0083;0,0144499
3801,9724;0,0142526
3802,9368;0,0141728
3803,9009;0,0141453
3804,8652;0,0140642
3805,8293;0,0138766
3806,7937;0,0136403
3807,7578;0,0134966
3808,7222;0,0135578
3809,6863;0,0138244
3810,6506;0,0142091
3811,6147;0,0145981
3812,5791;0,0148905
3813,5432;0,0150299
3814,5076;0,0150384
3815,4717;0,0150062
3816,4360;0,0150058
3817,4001;0,0150131
3818,3645;0,0149303
3819,3286;0,0146839
3820,2930;0,0143134
3821,2571;0,0139645
3822,2214;0,0137669
3823,1855;0,0137372
3824,1499;0,0138111
3825,1140;0,0139201
3826,0784;0,0140281
3827,0425;0,0141318
3828,0068;0,0142442
3828,9709;0,014377
3829,9353;0,0145325
3830,8994;0,014708
3831,8638;0,0149008
3832,8279;0,0151036
3833,7922;0,0152905
3834,7563;0,0154083
3835,7207;0,0153887
3836,6848;0,015189
3837,6492;0,014839
3838,6133;0,0144419
3839,5776;0,0141059
3840,5417;0,013877
3841,5061;0,0137431
3842,4702;0,0136826
3843,4346;0,0136977
3844,3987;0,0138156
3845,3630;0,0140648
3846,3271;0,0144531
3847,2915;0,0149572
3848,2556;0,0155183
3849,2200;0,0160284
3850,1841;0,0163103
3851,1484;0,0161383
3852,1125;0,0154111
3853,0769;0,014426
3854,0410;0,0137209
3855,0054;0,0135083
3855,9695;0,0136414
3856,9338;0,0139338
3857,8979;0,01427
3858,8623;0,0145755
3859,8264;0,0147866
3860,7908;0,014856
3861,7549;0,0147867
3862,7192;0,0146553
3863,6833;0,0145767
3864,6477;0,0146207
3865,6118;0,0147673
3866,5762;0,0149342
3867,5403;0,0150261
3868,5046;0,0149744
3869,4688;0,0147681
3870,4331;0,0144659
3871,3972;0,0141708
3872,3616;0,0139769
3873,3257;0,0139296
3874,2900;0,0140217
3875,2542;0,0142093
3876,2185;0,0144299
3877,1826;0,0146193
3878,1470;0,0147319
3879,1111;0,0147606
3880,0754;0,0147378
3881,0396;0,0147039
3882,0039;0,0146692
3882,9680;0,0146135
3883,9324;0,0145253
3884,8965;0,014434
3885,8608;0,0143928
3886,8250;0,0144251
3887,7893;0,0144925
3888,7534;0,0145147
3889,7178;0,0144244
3890,6819;0,0142308
3891,6462;0,0140431
3892,6104;0,0139996
3893,5747;0,0141576
3894,5388;0,014469
3895,5032;0,0148359
3896,4673;0,0151628
3897,4316;0,0153799
3898,3958;0,0154544
3899,3601;0,0153893
3900,3242;0,0152031
3901,2886;0,014911
3902,2527;0,014539
3903,2170;0,0141514
3904,1812;0,0138386
3905,1455;0,0136635
3906,1096;0,0136273
3907,0740;0,0136867
3908,0381;0,0137917
3909,0024;0,0139097
3909,9666;0,0140307
3910,9309;0,0141594
3911,8950;0,0142985
3912,8594;0,0144346
3913,8235;0,0145359
3914,7878;0,0145674
3915,7520;0,0145167
3916,7163;0,0144138
3917,6804;0,0143197
3918,6448;0,0142851
3919,6089;0,0143144
3920,5732;0,0143701
3921,5374;0,0144022
3922,5017;0,0143811
3923,4658;0,0143172
3924,4302;0,0142565
3925,3943;0,0142465
3926,3586;0,0143004
3927,3228;0,0143879
3928,2871;0,0144545
3929,2512;0,0144514
3930,2156;0,0143626
3931,1797;0,014219
3932,1440;0,0140822
3933,1082;0,0140067
3934,0725;0,014012
3935,0366;0,0140859
3936,0010;0,0142002
3936,9651;0,0143226
3937,9294;0,0144211
3938,8936;0,0144683
3939,8579;0,0144516
3940,8220;0,0143842
3941,7864;0,0143067
3942,7505;0,0142659
3943,7148;0,014285
3944,6790;0,0143473
3945,6433;0,0144087
3946,6074;0,0144257
3947,5718;0,0143807
3948,5359;0,0142931
3949,5002;0,0142055
3950,4644;0,014154
3951,4287;0,014146
3952,3928;0,0141635
3953,3572;0,0141832
3954,3213;0,0141925
3955,2856;0,0141945
3956,2498;0,0141996
3957,2141;0,0142137
3958,1782;0,0142321
3959,1426;0,0142445
3960,1067;0,0142447
3961,0710;0,0142373
3962,0352;0,0142348
3962,9995;0,0142477
3963,9636;0,0142759
3964,9280;0,0143082
3965,8921;0,0143297
3966,8564;0,014331
3967,8206;0,0143136
3968,7849;0,0142885
3969,7490;0,0142687
3970,7134;0,0142614
3971,6775;0,0142637
3972,6418;0,0142665
3973,6060;0,0142607
3974,5703;0,0142436
3975,5344;0,0142203
3976,4988;0,0142005
3977,4629;0,014193
3978,4272;0,0142014
3979,3914;0,0142236
3980,3557;0,0142532
3981,3198;0,0142821
3982,2842;0,0143035
3983,2483;0,0143133
3984,2126;0,0143111
3985,1768;0,0143
3986,1411;0,0142854
3987,1052;0,0142733
3988,0696;0,0142687
3989,0337;0,0142734
3989,9980;0,0142855
3990,9622;0,0142999
3991,9265;0,0143114
3992,8906;0,0143169
3993,8550;0,0143172
3994,8191;0,0143155
3995,7834;0,0143144
3996,7476;0,0143135
3997,7119;0,0143098
3998,6760;0,0143006
3999,6404;0,0142878
4000,6045;0,0141884

##### Extended Information
[Comments]
Sample name
Comment
Username
Division
Organization;UNIVERSIDAD INDUSTRIAL DE SANTANDER

[Detailed Information]
Creation date;14/03/2025 3:09 p.m.

Data array type;Linear data array
Horizontal axis;Wavenumber [cm-1]
Vertical axis;Abs
Start;399,193 cm-1
End;4000,6 cm-1
Data interval;0,964233 cm-1
Data points;3736    

[Measurement Information]
Model name;FT/IR-4X1typeA
Serial No.;A035162111

Accessory;ATR PRO 4X
Accessory S/N;A021162126
Incident angle;45 deg

Measurement date;14/03/2025 3:05 p.m.

Light source;Standard
Detector;TGS
Accumulation;40
Resolution;4 cm-1
Zero filling;On
Apodization;Cosine
Gain;Auto (8)
Aperture;Auto (7 mm)
Scan speed;Auto (2 mm/sec)
Filter;Auto (12800 Hz)

