TITLE;
DATA TYPE;INFRARED SPECTRUM
ORIGIN;JASCO
OWNER;
DATE;25/02/25
TIME;18:36:25
SPECTROMETER/DATA SYSTEM;
LOCALE;9226
RESOLUTION;
DELTAX;0,964233
XUNITS;1/CM
YUNITS;ABSORBANCE
FIRSTX;  399,1927
LASTX; 4000,6047
NPOINTS;    3736
FIRSTY;     0,12675
MAXY;     0,13013
MINY;     0,00446
XYDATA
399,1927;0,126749
400,1569;0,127122
401,1211;0,127342
402,0854;0,127345
403,0496;0,127205
404,0138;0,127023
404,9781;0,12689
405,9423;0,126863
406,9065;0,126961
407,8708;0,127164
408,8350;0,12743
409,7992;0,127711
410,7635;0,127968
411,7277;0,128169
412,6919;0,128277
413,6562;0,128248
414,6204;0,128033
415,5846;0,12761
416,5489;0,127025
417,5131;0,126476
418,4773;0,126309
419,4416;0,12675
420,4058;0,127601
421,3700;0,128419
422,3343;0,128897
423,2985;0,128956
424,2627;0,128671
425,2270;0,128218
426,1912;0,127797
427,1554;0,127559
428,1197;0,127542
429,0839;0,127682
430,0481;0,127879
431,0124;0,128071
431,9766;0,128275
432,9408;0,128567
433,9051;0,129008
434,8693;0,12955
435,8335;0,130007
436,7978;0,130132
437,7620;0,129757
438,7262;0,128903
439,6905;0,127776
440,6547;0,126698
441,6189;0,125989
442,5832;0,125842
443,5474;0,126221
444,5116;0,126879
445,4759;0,127505
446,4401;0,127898
447,4043;0,128029
448,3686;0,128002
449,3328;0,127949
450,2970;0,127941
451,2613;0,127953
452,2255;0,127891
453,1897;0,127676
454,1540;0,127317
455,1182;0,126924
456,0824;0,126658
457,0467;0,126624
458,0109;0,126773
458,9751;0,12692
459,9394;0,126901
460,9036;0,126708
461,8678;0,126481
462,8321;0,126385
463,7963;0,126491
464,7605;0,126724
465,7248;0,126896
466,6890;0,126818
467,6532;0,126425
468,6175;0,125808
469,5817;0,125145
470,5459;0,124596
471,5102;0,124221
472,4744;0,12396
473,4386;0,123706
474,4029;0,123405
475,3671;0,123101
476,3313;0,122888
477,2956;0,122844
478,2598;0,122969
479,2240;0,123177
480,1883;0,123332
481,1525;0,123312
482,1167;0,123072
483,0810;0,122667
484,0452;0,122226
485,0094;0,12188
485,9737;0,121699
486,9379;0,121668
487,9021;0,121732
488,8664;0,121838
489,8306;0,121965
490,7948;0,122109
491,7591;0,122268
492,7233;0,122429
493,6875;0,122568
494,6518;0,122661
495,6160;0,122685
496,5802;0,122616
497,5445;0,12242
498,5087;0,122073
499,4729;0,121575
500,4372;0,120984
501,4014;0,120412
502,3656;0,119995
503,3299;0,119829
504,2941;0,119929
505,2583;0,120225
506,2226;0,120601
507,1868;0,120935
508,1510;0,121141
509,1153;0,121189
510,0795;0,121121
511,0437;0,121025
512,0080;0,120989
512,9722;0,12106
513,9365;0,121225
514,9007;0,12142
515,8649;0,121564
516,8292;0,121603
517,7934;0,12153
518,7576;0,121385
519,7219;0,12122
520,6861;0,121064
521,6503;0,120923
522,6146;0,120794
523,5788;0,120671
524,5430;0,120547
525,5073;0,1204
526,4715;0,120195
527,4357;0,119901
528,4000;0,119517
529,3642;0,119076
530,3284;0,118631
531,2927;0,118229
532,2569;0,117893
533,2211;0,117617
534,1854;0,11738
535,1496;0,117161
536,1138;0,116958
537,0781;0,116776
538,0423;0,116623
539,0065;0,116487
539,9708;0,116346
540,9350;0,116171
541,8992;0,115952
542,8635;0,115705
543,8277;0,11547
544,7919;0,115295
545,7562;0,115209
546,7204;0,115196
547,6846;0,1152
548,6489;0,115149
549,6131;0,114999
550,5773;0,114767
551,5416;0,114534
552,5058;0,114403
553,4700;0,114444
554,4343;0,114651
555,3985;0,114932
556,3627;0,115144
557,3270;0,115154
558,2912;0,114901
559,2554;0,114407
560,2197;0,113765
561,1839;0,11309
562,1481;0,112472
563,1124;0,111952
564,0766;0,111519
565,0408;0,111133
566,0051;0,110756
566,9693;0,110376
567,9335;0,110005
568,8978;0,109663
569,8620;0,109355
570,8262;0,109068
571,7905;0,108782
572,7547;0,10849
573,7189;0,108209
574,6832;0,107971
575,6474;0,107795
576,6116;0,107672
577,5759;0,107565
578,5401;0,10743
579,5043;0,107247
580,4686;0,107023
581,4328;0,106783
582,3970;0,106546
583,3613;0,106312
584,3255;0,106069
585,2897;0,105805
586,2540;0,105529
587,2182;0,105272
588,1824;0,105074
589,1467;0,104962
590,1109;0,104941
591,0751;0,104982
592,0394;0,105027
593,0036;0,105009
593,9678;0,104873
594,9321;0,104599
595,8963;0,104204
596,8605;0,103737
597,8248;0,10326
598,7890;0,102823
599,7532;0,102453
600,7175;0,102139
601,6817;0,101854
602,6459;0,101571
603,6102;0,101281
604,5744;0,100985
605,5386;0,100685
606,5029;0,100376
607,4671;0,100046
608,4313;0,0996867
609,3956;0,0993026
610,3598;0,098906
611,3240;0,0985029
612,2883;0,0980834
613,2525;0,0976267
614,2167;0,0971235
615,1810;0,0965986
616,1452;0,0961147
617,1094;0,0957427
618,0737;0,0955124
619,0379;0,0953798
620,0021;0,095245
620,9664;0,0950072
621,9306;0,0946164
622,8948;0,0940947
623,8591;0,0935208
624,8233;0,0929955
625,7875;0,0925688
626,7518;0,0922483
627,7160;0,0919967
628,6802;0,0917661
629,6445;0,0915252
630,6087;0,0912671
631,5729;0,090998
632,5372;0,0907221
633,5014;0,0904346
634,4656;0,0901256
635,4299;0,089792
636,3941;0,0894448
637,3583;0,089108
638,3226;0,0888082
639,2868;0,0885618
640,2510;0,0883644
641,2153;0,0881896
642,1795;0,0879966
643,1437;0,0877468
644,1080;0,0874204
645,0722;0,0870258
646,0364;0,0865954
647,0007;0,0861707
647,9649;0,0857839
648,9291;0,085445
649,8934;0,0851426
650,8576;0,0848561
651,8218;0,084572
652,7861;0,0842928
653,7503;0,0840361
654,7145;0,0838241
655,6788;0,0836711
656,6430;0,0835733
657,6072;0,0835085
658,5715;0,0834451
659,5357;0,0833571
660,4999;0,0832372
661,4642;0,0830992
662,4284;0,0829644
663,3926;0,0828388
664,3569;0,0826853
665,3211;0,0823926
666,2853;0,0817718
667,2496;0,0806789
668,2138;0,0793229
669,1780;0,0782624
670,1423;0,0777244
671,1065;0,0774472
672,0707;0,0771553
673,0350;0,0767286
673,9992;0,0761462
674,9634;0,0754528
675,9277;0,0747429
676,8919;0,0741147
677,8561;0,0736104
678,8204;0,0732026
679,7846;0,0728335
680,7488;0,0724626
681,7131;0,072087
682,6773;0,0717345
683,6415;0,0714391
684,6058;0,071219
685,5700;0,0710668
686,5342;0,070952
687,4985;0,0708356
688,4627;0,0706894
689,4269;0,0705139
690,3912;0,0703359
691,3554;0,0701911
692,3196;0,0701023
693,2839;0,0700683
694,2481;0,0700684
695,2123;0,070077
696,1766;0,0700778
697,1408;0,0700662
698,1050;0,0700433
699,0693;0,0700071
700,0335;0,0699504
700,9977;0,0698647
701,9620;0,069748
702,9262;0,0696073
703,8904;0,0694571
704,8547;0,0693052
705,8189;0,0691502
706,7831;0,0689813
707,7474;0,0687877
708,7116;0,0685684
709,6758;0,0683376
710,6401;0,0681193
711,6043;0,0679353
712,5685;0,0677899
713,5328;0,0676624
714,4970;0,0675134
715,4612;0,0674366
716,4255;0,0671073
717,3897;0,0666869
718,3539;0,066225
719,3182;0,0657962
720,2824;0,0654665
721,2466;0,0652571
722,2109;0,0651319
723,1751;0,0650195
724,1393;0,0648539
725,1036;0,0646055
726,0678;0,0642906
727,0320;0,0639579
727,9963;0,06366
728,9605;0,0634242
729,9247;0,0632413
730,8890;0,0630754
731,8532;0,0628894
732,8174;0,0626661
733,7817;0,0624156
734,7459;0,0621654
735,7101;0,0619416
736,6744;0,0617545
737,6386;0,0615954
738,6028;0,0614441
739,5671;0,0612814
740,5313;0,0610968
741,4955;0,0608893
742,4598;0,0606622
743,4240;0,0604194
744,3882;0,060166
745,3525;0,0599111
746,3167;0,0596692
747,2809;0,0594547
748,2452;0,0592716
749,2094;0,0591083
750,1736;0,0589414
751,1379;0,058751
752,1021;0,0585366
753,0663;0,0583228
754,0306;0,058147
754,9948;0,0580376
755,9590;0,0579955
756,9233;0,0579926
757,8875;0,0579875
758,8517;0,057948
759,8160;0,057865
760,7802;0,0577514
761,7444;0,057629
762,7087;0,0575151
763,6729;0,0574179
764,6371;0,05734
765,6014;0,0572843
766,5656;0,0572541
767,5298;0,0572489
768,4941;0,0572605
769,4583;0,0572756
770,4225;0,0572836
771,3868;0,0572841
772,3510;0,0572864
773,3152;0,0573019
774,2795;0,0573347
775,2437;0,057378
776,2079;0,0574185
777,1722;0,0574423
778,1364;0,0574386
779,1006;0,0573965
780,0649;0,0573017
781,0291;0,057139
781,9933;0,0569004
782,9576;0,0565958
783,9218;0,0562549
784,8860;0,0559191
785,8503;0,0556255
786,8145;0,0553946
787,7787;0,0552266
788,7430;0,0551071
789,7072;0,0550164
790,6714;0,0549358
791,6357;0,0548504
792,5999;0,0547504
793,5641;0,0546343
794,5284;0,0545116
795,4926;0,054402
796,4568;0,0543289
797,4211;0,0543093
798,3853;0,0543451
799,3495;0,0544226
800,3138;0,0545193
801,2780;0,0546131
802,2422;0,0546903
803,2065;0,0547467
804,1707;0,0547858
805,1349;0,0548141
806,0992;0,0548391
807,0634;0,0548662
808,0276;0,054898
808,9919;0,054933
809,9561;0,0549661
810,9203;0,0549924
811,8846;0,0550113
812,8488;0,0550293
813,8130;0,0550583
814,7773;0,0551094
815,7415;0,0551866
816,7057;0,0552844
817,6700;0,0553916
818,6342;0,055498
819,5984;0,0556011
820,5627;0,0557067
821,5269;0,055825
822,4911;0,055964
823,4554;0,0561243
824,4196;0,0562975
825,3839;0,0564688
826,3481;0,0566204
827,3123;0,0567357
828,2766;0,0568026
829,2408;0,0568165
830,2050;0,0567808
831,1693;0,0567051
832,1335;0,0565992
833,0977;0,0564657
834,0620;0,0562952
835,0262;0,0560682
835,9904;0,0557628
836,9547;0,0553662
837,9189;0,0548824
838,8831;0,054333
839,8474;0,0537501
840,8116;0,0531659
841,7758;0,0526045
842,7401;0,0520791
843,7043;0,0515942
844,6685;0,0511486
845,6328;0,0507379
846,5970;0,050354
847,5612;0,0499854
848,5255;0,049619
849,4897;0,049246
850,4539;0,0488664
851,4182;0,0484908
852,3824;0,0481377
853,3466;0,0478246
854,3109;0,0475611
855,2751;0,0473444
856,2393;0,047162
857,2036;0,0469988
858,1678;0,0468446
859,1320;0,0466972
860,0963;0,0465611
861,0605;0,0464423
862,0247;0,0463433
862,9890;0,0462618
863,9532;0,0461939
864,9174;0,0461384
865,8817;0,0460997
866,8459;0,0460875
867,8101;0,0461129
868,7744;0,0461843
869,7386;0,0463034
870,7028;0,046463
871,6671;0,046647
872,6313;0,0468314
873,5955;0,0469883
874,5598;0,0470936
875,5240;0,0471351
876,4882;0,0471193
877,4525;0,0470716
878,4167;0,047028
879,3809;0,047022
880,3452;0,047072
881,3094;0,047177
882,2736;0,0473219
883,2379;0,0474886
884,2021;0,0476675
885,1663;0,0478619
886,1306;0,0480843
887,0948;0,0483484
888,0590;0,0486612
889,0233;0,0490192
889,9875;0,0494086
890,9517;0,0498075
891,9160;0,0501879
892,8802;0,0505185
893,8444;0,050769
894,8087;0,0509164
895,7729;0,0509511
896,7371;0,0508782
897,7014;0,0507132
898,6656;0,0504739
899,6298;0,050173
900,5941;0,0498169
901,5583;0,0494114
902,5225;0,0489688
903,4868;0,0485125
904,4510;0,0480731
905,4152;0,0476788
906,3795;0,0473451
907,3437;0,047071
908,3079;0,0468434
909,2722;0,0466474
910,2364;0,0464764
911,2007;0,046336
912,1649;0,0462411
913,1292;0,0462066
914,0934;0,0462391
915,0576;0,0463328
916,0219;0,0464708
916,9861;0,0466312
917,9503;0,0467942
918,9146;0,0469483
919,8788;0,0470925
920,8430;0,0472365
921,8073;0,047396
922,7715;0,0475868
923,7357;0,0478179
924,7000;0,0480859
925,6642;0,0483761
926,6284;0,0486674
927,5927;0,0489428
928,5569;0,0491967
929,5211;0,0494381
930,4854;0,0496852
931,4496;0,0499569
932,4138;0,050264
933,3781;0,0506054
934,3423;0,0509705
935,3065;0,0513448
936,2708;0,0517165
937,2350;0,0520816
938,1992;0,0524469
939,1635;0,0528295
940,1277;0,0532523
941,0919;0,0537356
942,0562;0,0542888
943,0204;0,0549057
943,9846;0,0555674
944,9489;0,056253
945,9131;0,0569502
946,8773;0,0576611
947,8416;0,0583989
948,8058;0,0591782
949,7700;0,0600062
950,7343;0,0608799
951,6985;0,0617901
952,6627;0,0627279
953,6270;0,0636874
954,5912;0,0646658
955,5554;0,0656598
956,5197;0,0666642
957,4839;0,0676727
958,4481;0,0686797
959,4124;0,0696809
960,3766;0,0706724
961,3408;0,0716496
962,3051;0,0726082
963,2693;0,0735463
964,2335;0,0744672
965,1978;0,0753791
966,1620;0,0762914
967,1262;0,0772119
968,0905;0,0781447
969,0547;0,0790913
970,0189;0,0800536
970,9832;0,0810344
971,9474;0,0820348
972,9116;0,0830497
973,8759;0,0840644
974,8401;0,0850549
975,8043;0,0859947
976,7686;0,0868648
977,7328;0,087662
978,6970;0,088401
979,6613;0,0891088
980,6255;0,089812
981,5897;0,0905251
982,5540;0,0912453
983,5182;0,0919558
984,4824;0,092636
985,4467;0,0932703
986,4109;0,0938511
987,3751;0,0943751
988,3394;0,0948369
989,3036;0,0952273
990,2678;0,0955386
991,2321;0,095772
992,1963;0,0959422
993,1605;0,0960733
994,1248;0,0961897
995,0890;0,0963058
996,0532;0,0964243
997,0175;0,0965417
997,9817;0,0966585
998,9459;0,0967855
999,9102;0,0969432
1000,8744;0,0971545
1001,8386;0,0974366
1002,8029;0,0977965
1003,7671;0,0982317
1004,7313;0,0987336
1005,6956;0,0992926
1006,6598;0,0999017
1007,6240;0,100558
1008,5883;0,101265
1009,5525;0,102027
1010,5167;0,102845
1011,4810;0,103709
1012,4452;0,104595
1013,4094;0,105468
1014,3737;0,106289
1015,3379;0,10703
1016,3021;0,107677
1017,2664;0,108233
1018,2306;0,108706
1019,1948;0,109109
1020,1591;0,109452
1021,1233;0,109742
1022,0875;0,109988
1023,0518;0,110198
1024,0160;0,110383
1024,9802;0,110548
1025,9445;0,110697
1026,9087;0,110829
1027,8729;0,110939
1028,8372;0,111017
1029,8014;0,111046
1030,7656;0,111004
1031,7299;0,110869
1032,6941;0,110626
1033,6583;0,110274
1034,6226;0,109825
1035,5868;0,109304
1036,5510;0,108739
1037,5153;0,108159
1038,4795;0,107588
1039,4437;0,107048
1040,4080;0,106555
1041,3722;0,106117
1042,3364;0,105735
1043,3007;0,105397
1044,2649;0,10508
1045,2291;0,104759
1046,1934;0,104413
1047,1576;0,104023
1048,1218;0,103577
1049,0861;0,103068
1050,0503;0,102491
1051,0145;0,101843
1051,9788;0,101129
1052,9430;0,10036
1053,9072;0,0995539
1054,8715;0,0987285
1055,8357;0,0978954
1056,7999;0,0970535
1057,7642;0,0961903
1058,7284;0,0952875
1059,6926;0,0943321
1060,6569;0,093325
1061,6211;0,0922845
1062,5853;0,0912427
1063,5496;0,0902366
1064,5138;0,0892976
1065,4780;0,0884451
1066,4423;0,0876843
1067,4065;0,0870093
1068,3707;0,0864079
1069,3350;0,0858659
1070,2992;0,0853692
1071,2634;0,0849035
1072,2277;0,0844529
1073,1919;0,0839999
1074,1561;0,0835263
1075,1204;0,0830178
1076,0846;0,0824687
1077,0488;0,0818855
1078,0131;0,0812868
1078,9773;0,0806969
1079,9415;0,0801373
1080,9058;0,0796191
1081,8700;0,0791403
1082,8342;0,0786899
1083,7985;0,0782549
1084,7627;0,0778259
1085,7269;0,0773983
1086,6912;0,0769698
1087,6554;0,0765379
1088,6196;0,0761005
1089,5839;0,0756597
1090,5481;0,0752259
1091,5123;0,0748172
1092,4766;0,0744548
1093,4408;0,0741549
1094,4050;0,0739244
1095,3693;0,0737603
1096,3335;0,0736536
1097,2977;0,0735935
1098,2620;0,0735706
1099,2262;0,0735765
1100,1904;0,0736032
1101,1547;0,0736415
1102,1189;0,07368
1103,0831;0,0737056
1104,0474;0,0737038
1105,0116;0,0736624
1105,9758;0,0735742
1106,9401;0,0734397
1107,9043;0,0732648
1108,8685;0,0730558
1109,8328;0,0728128
1110,7970;0,0725277
1111,7612;0,0721888
1112,7255;0,0717898
1113,6897;0,0713372
1114,6539;0,0708515
1115,6182;0,0703598
1116,5824;0,069884
1117,5466;0,0694318
1118,5109;0,0689941
1119,4751;0,0685495
1120,4393;0,0680722
1121,4036;0,0675394
1122,3678;0,0669355
1123,3320;0,0662526
1124,2963;0,0654892
1125,2605;0,0646485
1126,2247;0,0637373
1127,1890;0,0627659
1128,1532;0,0617484
1129,1174;0,0607013
1130,0817;0,0596433
1131,0459;0,0585929
1132,0101;0,0575688
1132,9744;0,0565903
1133,9386;0,0556792
1134,9028;0,0548594
1135,8671;0,0541551
1136,8313;0,0535856
1137,7955;0,053162
1138,7598;0,0528855
1139,7240;0,0527492
1140,6882;0,052742
1141,6525;0,0528508
1142,6167;0,0530612
1143,5809;0,0533578
1144,5452;0,0537247
1145,5094;0,0541481
1146,4736;0,0546188
1147,4379;0,0551329
1148,4021;0,0556895
1149,3663;0,0562861
1150,3306;0,0569154
1151,2948;0,0575637
1152,2590;0,058213
1153,2233;0,0588434
1154,1875;0,0594353
1155,1517;0,0599699
1156,1160;0,0604285
1157,0802;0,0607912
1158,0444;0,0610367
1159,0087;0,0611417
1159,9729;0,0610824
1160,9371;0,0608381
1161,9014;0,0603969
1162,8656;0,0597608
1163,8298;0,0589491
1164,7941;0,0579954
1165,7583;0,056941
1166,7225;0,0558259
1167,6868;0,0546822
1168,6510;0,0535323
1169,6152;0,0523914
1170,5795;0,0512723
1171,5437;0,0501894
1172,5079;0,0491594
1173,4722;0,0482003
1174,4364;0,0473275
1175,4006;0,0465514
1176,3649;0,0458748
1177,3291;0,045293
1178,2933;0,0447947
1179,2576;0,0443647
1180,2218;0,0439858
1181,1860;0,0436424
1182,1503;0,0433226
1183,1145;0,0430196
1184,0787;0,042731
1185,0430;0,0424572
1186,0072;0,0421999
1186,9714;0,0419612
1187,9357;0,0417435
1188,8999;0,0415506
1189,8641;0,0413874
1190,8284;0,0412601
1191,7926;0,0411754
1192,7568;0,04114
1193,7211;0,0411599
1194,6853;0,0412393
1195,6495;0,0413789
1196,6138;0,0415748
1197,5780;0,0418182
1198,5422;0,0420976
1199,5065;0,0424124
1200,4707;0,0427332
1201,4349;0,0430678
1202,3992;0,0434146
1203,3634;0,0437707
1204,3276;0,0441304
1205,2919;0,0444868
1206,2561;0,0448348
1207,2203;0,0451749
1208,1846;0,0455141
1209,1488;0,045864
1210,1130;0,0462365
1211,0773;0,0466394
1212,0415;0,0470734
1213,0057;0,0475315
1213,9700;0,0480018
1214,9342;0,0484711
1215,8984;0,0489292
1216,8627;0,0493706
1217,8269;0,0497956
1218,7911;0,0502075
1219,7554;0,0506095
1220,7196;0,0510025
1221,6838;0,0513838
1222,6481;0,0517487
1223,6123;0,0520932
1224,5765;0,0524166
1225,5408;0,0527229
1226,5050;0,0530189
1227,4692;0,0533107
1228,4335;0,0536001
1229,3977;0,0538831
1230,3619;0,0541504
1231,3262;0,0543917
1232,2904;0,0545994
1233,2546;0,0547718
1234,2189;0,0549121
1235,1831;0,0550263
1236,1473;0,0551195
1237,1116;0,0551939
1238,0758;0,0552498
1239,0400;0,0552862
1240,0043;0,0553032
1240,9685;0,0553014
1241,9327;0,0552809
1242,8970;0,0552398
1243,8612;0,0551744
1244,8254;0,0550803
1245,7897;0,0549562
1246,7539;0,0548053
1247,7181;0,0546363
1248,6824;0,0544608
1249,6466;0,0542894
1250,6108;0,0541285
1251,5751;0,0539781
1252,5393;0,0538332
1253,5035;0,0536865
1254,4678;0,053531
1255,4320;0,0533628
1256,3962;0,0531805
1257,3605;0,0529848
1258,3247;0,0527769
1259,2889;0,0525574
1260,2532;0,0523257
1261,2174;0,052081
1262,1816;0,0518224
1263,1459;0,0515508
1264,1101;0,0512685
1265,0743;0,0509779
1266,0386;0,05068
1267,0028;0,0503725
1267,9670;0,0500514
1268,9313;0,0497132
1269,8955;0,0493588
1270,8597;0,0489948
1271,8240;0,0486313
1272,7882;0,0482777
1273,7524;0,0479392
1274,7167;0,0476172
1275,6809;0,0473118
1276,6451;0,0470248
1277,6094;0,0467602
1278,5736;0,0465223
1279,5378;0,0463127
1280,5021;0,0461289
1281,4663;0,0459659
1282,4305;0,045819
1283,3948;0,0456859
1284,3590;0,0455669
1285,3232;0,0454634
1286,2875;0,0453765
1287,2517;0,0453063
1288,2159;0,0452519
1289,1802;0,0452116
1290,1444;0,0451827
1291,1086;0,045162
1292,0729;0,0451462
1293,0371;0,0451335
1294,0013;0,0451237
1294,9656;0,0451194
1295,9298;0,0451238
1296,8940;0,0451402
1297,8583;0,0451695
1298,8225;0,0452101
1299,7867;0,0452575
1300,7510;0,0453055
1301,7152;0,0453479
1302,6794;0,04538
1303,6437;0,0454003
1304,6079;0,0454106
1305,5721;0,0454153
1306,5364;0,0454191
1307,5006;0,0454255
1308,4648;0,0454352
1309,4291;0,0454459
1310,3933;0,0454533
1311,3575;0,0454516
1312,3218;0,0454335
1313,2860;0,0453898
1314,2502;0,0453085
1315,2145;0,0451757
1316,1787;0,0449775
1317,1429;0,044704
1318,1072;0,044355
1319,0714;0,043944
1320,0356;0,0434956
1320,9999;0,0430381
1321,9641;0,0425949
1322,9283;0,0421804
1323,8926;0,0418018
1324,8568;0,0414609
1325,8210;0,0411558
1326,7853;0,0408811
1327,7495;0,0406284
1328,7137;0,0403882
1329,6780;0,0401522
1330,6422;0,0399153
1331,6064;0,0396748
1332,5707;0,039429
1333,5349;0,0391753
1334,4991;0,0389097
1335,4634;0,0386288
1336,4276;0,0383344
1337,3918;0,0380381
1338,3561;0,0377632
1339,3203;0,0375349
1340,2845;0,0373657
1341,2488;0,0372477
1342,2130;0,0371617
1343,1772;0,0370914
1344,1415;0,0370299
1345,1057;0,0369786
1346,0699;0,0369432
1347,0342;0,0369307
1347,9984;0,0369468
1348,9626;0,0369948
1349,9269;0,0370755
1350,8911;0,0371865
1351,8553;0,037324
1352,8196;0,0374851
1353,7838;0,0376692
1354,7480;0,0378764
1355,7123;0,0381037
1356,6765;0,0383428
1357,6407;0,0385832
1358,6050;0,0388182
1359,5692;0,0390484
1360,5334;0,0392811
1361,4977;0,0395222
1362,4619;0,0397649
1363,4261;0,0399878
1364,3904;0,0401678
1365,3546;0,0402963
1366,3188;0,0403802
1367,2831;0,0404347
1368,2473;0,0404744
1369,2115;0,0405073
1370,1758;0,0405336
1371,1400;0,0405469
1372,1042;0,040537
1373,0685;0,0404931
1374,0327;0,0404062
1374,9969;0,0402707
1375,9612;0,040084
1376,9254;0,0398441
1377,8896;0,039549
1378,8539;0,0391996
1379,8181;0,0388053
1380,7823;0,0383861
1381,7466;0,0379658
1382,7108;0,0375597
1383,6750;0,0371665
1384,6393;0,0367746
1385,6035;0,036377
1386,5677;0,0359887
1387,5320;0,0356431
1388,4962;0,0353669
1389,4604;0,0351587
1390,4247;0,0349966
1391,3889;0,0348568
1392,3531;0,0347262
1393,3174;0,0346068
1394,2816;0,0345161
1395,2458;0,0344771
1396,2101;0,0345029
1397,1743;0,0345865
1398,1385;0,0347059
1399,1028;0,034837
1400,0670;0,0349625
1401,0313;0,0350768
1401,9955;0,0351853
1402,9597;0,0353027
1403,9240;0,0354478
1404,8882;0,0356352
1405,8524;0,0358658
1406,8167;0,0361265
1407,7809;0,0364032
1408,7451;0,0366931
1409,7094;0,0370044
1410,6736;0,0373443
1411,6378;0,037706
1412,6021;0,0380684
1413,5663;0,03841
1414,5305;0,0387247
1415,4948;0,0390252
1416,4590;0,0393348
1417,4232;0,0396694
1418,3875;0,0400135
1419,3517;0,040314
1420,3159;0,040518
1421,2802;0,0406129
1422,2444;0,0406206
1423,2086;0,0405692
1424,1729;0,0404766
1425,1371;0,0403481
1426,1013;0,0401797
1427,0656;0,0399635
1428,0298;0,0396966
1428,9940;0,0393914
1429,9583;0,0390777
1430,9225;0,0387894
1431,8867;0,0385431
1432,8510;0,038332
1433,8152;0,0381374
1434,7794;0,0379485
1435,7437;0,0377812
1436,7079;0,0376746
1437,6721;0,0376543
1438,6364;0,0377085
1439,6006;0,0378124
1440,5648;0,0379538
1441,5291;0,0381314
1442,4933;0,0383446
1443,4575;0,0385885
1444,4218;0,0388565
1445,3860;0,0391458
1446,3502;0,0394573
1447,3145;0,0397866
1448,2787;0,0401138
1449,2429;0,0404059
1450,2072;0,0406337
1451,1714;0,0407885
1452,1356;0,0408799
1453,0999;0,0409224
1454,0641;0,0409257
1455,0283;0,0408977
1455,9926;0,0408634
1456,9568;0,0408648
1457,9210;0,0408959
1458,8853;0,0408888
1459,8495;0,0408057
1460,8137;0,0406543
1461,7780;0,0404379
1462,7422;0,0401319
1463,7064;0,039699
1464,6707;0,039133
1465,6349;0,0384882
1466,5991;0,0378407
1467,5634;0,0372248
1468,5276;0,0366176
1469,4918;0,035957
1470,4561;0,0351635
1471,4203;0,0341838
1472,3845;0,0330677
1473,3488;0,0319918
1474,3130;0,0311183
1475,2772;0,0304598
1476,2415;0,0299369
1477,2057;0,02948
1478,1699;0,0290553
1479,1342;0,0286523
1480,0984;0,0282718
1481,0626;0,0279231
1482,0269;0,0276212
1482,9911;0,0273794
1483,9553;0,0271991
1484,9196;0,0270653
1485,8838;0,0269501
1486,8480;0,0268283
1487,8123;0,0267047
1488,7765;0,0266341
1489,7407;0,0266822
1490,7050;0,026855
1491,6692;0,0271038
1492,6334;0,0273841
1493,5977;0,0276786
1494,5619;0,0279867
1495,5261;0,0283171
1496,4904;0,0286873
1497,4546;0,0291113
1498,4188;0,0295753
1499,3831;0,0300391
1500,3473;0,0304705
1501,3115;0,0308604
1502,2758;0,0312085
1503,2400;0,0315032
1504,2042;0,0317088
1505,1685;0,0317679
1506,1327;0,0316539
1507,0969;0,0314585
1508,0612;0,0313139
1509,0254;0,0312209
1509,9896;0,0311216
1510,9539;0,0309892
1511,9181;0,0308124
1512,8823;0,0305726
1513,8466;0,0302476
1514,8108;0,0298317
1515,7750;0,029353
1516,7393;0,0288618
1517,7035;0,0283895
1518,6677;0,0279176
1519,6320;0,027394
1520,5962;0,0267898
1521,5604;0,0261449
1522,5247;0,0255397
1523,4889;0,0250216
1524,4531;0,0245802
1525,4174;0,0241858
1526,3816;0,0238325
1527,3458;0,0235418
1528,3101;0,0233331
1529,2743;0,0231955
1530,2385;0,0230863
1531,2028;0,0229522
1532,1670;0,0227695
1533,1312;0,02258
1534,0955;0,022469
1535,0597;0,0224918
1536,0239;0,022633
1536,9882;0,0228244
1537,9524;0,0229634
1538,9166;0,0229295
1539,8809;0,0226741
1540,8451;0,0223691
1541,8093;0,0222786
1542,7736;0,0224294
1543,7378;0,022692
1544,7020;0,0229803
1545,6663;0,0232676
1546,6305;0,0235504
1547,5947;0,0238295
1548,5590;0,0241062
1549,5232;0,0243848
1550,4874;0,0246737
1551,4517;0,0249828
1552,4159;0,0253149
1553,3801;0,0256621
1554,3444;0,026008
1555,3086;0,0263311
1556,2728;0,02661
1557,2371;0,0268529
1558,2013;0,0271435
1559,1655;0,0275556
1560,1298;0,0280036
1561,0940;0,0283971
1562,0582;0,0287553
1563,0225;0,0291266
1563,9867;0,0295311
1564,9509;0,0299593
1565,9152;0,0303923
1566,8794;0,030828
1567,8436;0,0312942
1568,8079;0,0318224
1569,7721;0,0323973
1570,7363;0,0329551
1571,7006;0,0334473
1572,6648;0,0338837
1573,6290;0,0343275
1574,5933;0,0348707
1575,5575;0,0355851
1576,5217;0,0364379
1577,4860;0,0372826
1578,4502;0,0380052
1579,4144;0,0386188
1580,3787;0,0392012
1581,3429;0,0398148
1582,3071;0,0404766
1583,2714;0,0411653
1584,2356;0,0418474
1585,1998;0,0425028
1586,1641;0,0431301
1587,1283;0,0437313
1588,0925;0,0442975
1589,0568;0,0448098
1590,0210;0,0452515
1590,9852;0,045617
1591,9495;0,0459098
1592,9137;0,0461348
1593,8779;0,0462941
1594,8422;0,0463894
1595,8064;0,0464254
1596,7706;0,0464109
1597,7349;0,046357
1598,6991;0,0462761
1599,6633;0,0461818
1600,6276;0,0460873
1601,5918;0,0460009
1602,5560;0,0459213
1603,5203;0,0458397
1604,4845;0,0457472
1605,4487;0,0456428
1606,4130;0,0455332
1607,3772;0,0454275
1608,3414;0,0453289
1609,3057;0,0452318
1610,2699;0,045127
1611,2341;0,0450124
1612,1984;0,0448978
1613,1626;0,0448016
1614,1268;0,0447451
1615,0911;0,0447451
1616,0553;0,044795
1617,0195;0,0448449
1617,9838;0,0448295
1618,9480;0,0447242
1619,9122;0,044549
1620,8765;0,0443328
1621,8407;0,0440933
1622,8049;0,0438391
1623,7692;0,0435757
1624,7334;0,0433042
1625,6976;0,0430184
1626,6619;0,0427093
1627,6261;0,0423726
1628,5903;0,0420163
1629,5546;0,0416591
1630,5188;0,0413188
1631,4830;0,0409986
1632,4473;0,0406782
1633,4115;0,0403168
1634,3757;0,0398819
1635,3400;0,0393979
1636,3042;0,0389353
1637,2684;0,0385083
1638,2327;0,0380626
1639,1969;0,037561
1640,1611;0,0370151
1641,1254;0,036463
1642,0896;0,0359364
1643,0538;0,0354283
1644,0181;0,0348745
1644,9823;0,0341783
1645,9465;0,0333165
1646,9108;0,032435
1647,8750;0,0317345
1648,8392;0,0312718
1649,8035;0,0309475
1650,7677;0,0305748
1651,7319;0,0299229
1652,6962;0,0288803
1653,6604;0,0277306
1654,6246;0,0268829
1655,5889;0,0263607
1656,5531;0,0259948
1657,5173;0,0256727
1658,4816;0,0253394
1659,4458;0,0249543
1660,4100;0,0244867
1661,3743;0,0239459
1662,3385;0,0234035
1663,3027;0,0229511
1664,2670;0,0226275
1665,2312;0,0224003
1666,1954;0,0221929
1667,1597;0,0219143
1668,1239;0,0214997
1669,0881;0,0209702
1670,0524;0,0204463
1671,0166;0,0200446
1671,9808;0,0197737
1672,9451;0,0195572
1673,9093;0,0193145
1674,8735;0,0190183
1675,8378;0,01871
1676,8020;0,0184623
1677,7662;0,0183191
1678,7305;0,018274
1679,6947;0,0182839
1680,6589;0,0182762
1681,6232;0,0181501
1682,5874;0,0178156
1683,5516;0,0173048
1684,5159;0,0168077
1685,4801;0,0164729
1686,4443;0,0162846
1687,4086;0,0161717
1688,3728;0,0160961
1689,3370;0,0160555
1690,3013;0,0160611
1691,2655;0,0161175
1692,2297;0,0162103
1693,1940;0,0163067
1694,1582;0,0163654
1695,1224;0,0163536
1696,0867;0,0162632
1697,0509;0,0161147
1698,0151;0,0159446
1698,9794;0,0157888
1699,9436;0,0156748
1700,9078;0,015617
1701,8721;0,0156166
1702,8363;0,0156657
1703,8005;0,0157524
1704,7648;0,0158648
1705,7290;0,0159954
1706,6932;0,0161441
1707,6575;0,0163146
1708,6217;0,01651
1709,5859;0,0167304
1710,5502;0,0169718
1711,5144;0,0172247
1712,4786;0,0174712
1713,4429;0,0176853
1714,4071;0,0178382
1715,3713;0,0179174
1716,3356;0,0179572
1717,2998;0,0180289
1718,2640;0,0181695
1719,2283;0,0183577
1720,1925;0,0185666
1721,1567;0,0187904
1722,1210;0,0190309
1723,0852;0,0192836
1724,0494;0,019536
1725,0137;0,0197734
1725,9779;0,0199884
1726,9421;0,0201845
1727,9064;0,0203717
1728,8706;0,0205556
1729,8348;0,0207252
1730,7991;0,0208455
1731,7633;0,0208657
1732,7275;0,0207559
1733,6918;0,0205521
1734,6560;0,0203317
1735,6202;0,0201339
1736,5845;0,0199388
1737,5487;0,0197013
1738,5129;0,0193804
1739,4772;0,0189605
1740,4414;0,0184663
1741,4056;0,017954
1742,3699;0,0174728
1743,3341;0,0170354
1744,2983;0,0166246
1745,2626;0,0162138
1746,2268;0,0157741
1747,1910;0,015274
1748,1553;0,0146919
1749,1195;0,0140488
1750,0837;0,0134229
1751,0480;0,0129007
1752,0122;0,0125101
1752,9764;0,012215
1753,9407;0,0119565
1754,9049;0,0116899
1755,8691;0,011403
1756,8334;0,0111121
1757,7976;0,0108388
1758,7618;0,0105835
1759,7261;0,0103229
1760,6903;0,0100365
1761,6545;0,0097379
1762,6188;0,00947256
1763,5830;0,00928287
1764,5472;0,00917728
1765,5115;0,00913107
1766,4757;0,00910627
1767,4399;0,00906751
1768,4042;0,00898593
1769,3684;0,00883595
1770,3326;0,00859946
1771,2969;0,00828837
1772,2611;0,00796548
1773,2253;0,00771737
1774,1896;0,00759188
1775,1538;0,00757441
1776,1180;0,00761525
1777,0823;0,00766224
1778,0465;0,00767953
1779,0107;0,00765699
1779,9750;0,00760889
1780,9392;0,0075573
1781,9034;0,00751212
1782,8677;0,00746904
1783,8319;0,00742648
1784,7961;0,00739967
1785,7604;0,00741429
1786,7246;0,0074844
1787,6888;0,00759451
1788,6531;0,00769754
1789,6173;0,00772824
1790,5815;0,00763551
1791,5458;0,00743057
1792,5100;0,00720431
1793,4742;0,00706069
1794,4385;0,00703313
1795,4027;0,0070846
1796,3669;0,00715655
1797,3312;0,0072003
1798,2954;0,0071886
1799,2596;0,00712215
1800,2239;0,0070295
1801,1881;0,00695096
1802,1523;0,00691498
1803,1166;0,00692741
1804,0808;0,00697757
1805,0450;0,00704733
1806,0093;0,00711496
1806,9735;0,00715649
1807,9377;0,00715016
1808,9020;0,00708628
1809,8662;0,00697764
1810,8304;0,00685856
1811,7947;0,00676705
1812,7589;0,00672298
1813,7231;0,00672108
1814,6874;0,00674101
1815,6516;0,00676352
1816,6158;0,00678277
1817,5801;0,00680837
1818,5443;0,00685435
1819,5085;0,00692303
1820,4728;0,00699826
1821,4370;0,00705352
1822,4012;0,00706836
1823,3655;0,00704241
1824,3297;0,0069961
1825,2939;0,00695308
1826,2582;0,00691792
1827,2224;0,00687151
1828,1866;0,00679126
1829,1509;0,00668048
1830,1151;0,00657849
1831,0793;0,00653302
1832,0436;0,0065604
1833,0078;0,006637
1833,9720;0,00672131
1834,9363;0,00677977
1835,9005;0,00680433
1836,8647;0,00681672
1837,8290;0,00685227
1838,7932;0,00693086
1839,7574;0,00703884
1840,7217;0,00713278
1841,6859;0,00715753
1842,6501;0,00707583
1843,6144;0,00690386
1844,5786;0,00671729
1845,5428;0,00659777
1846,5071;0,0065722
1847,4713;0,00661215
1848,4355;0,00667138
1849,3998;0,00671405
1850,3640;0,0067249
1851,3282;0,00670864
1852,2925;0,00668238
1853,2567;0,00666451
1854,2209;0,00666546
1855,1852;0,00668425
1856,1494;0,00671072
1857,1136;0,00673108
1858,0779;0,00673551
1859,0421;0,00672477
1860,0063;0,00671223
1860,9706;0,00671805
1861,9348;0,00675708
1862,8990;0,00682759
1863,8633;0,00690813
1864,8275;0,00696354
1865,7917;0,00695811
1866,7560;0,00687543
1867,7202;0,00673838
1868,6844;0,00660594
1869,6487;0,00653315
1870,6129;0,00653315
1871,5771;0,00658325
1872,5414;0,00665348
1873,5056;0,00672242
1874,4698;0,00677792
1875,4341;0,00681403
1876,3983;0,00682935
1877,3625;0,0068269
1878,3268;0,00681339
1879,2910;0,00679731
1880,2552;0,00678596
1881,2195;0,006783
1882,1837;0,00678775
1883,1479;0,0067965
1884,1122;0,00680441
1885,0764;0,00680693
1886,0406;0,00680053
1887,0049;0,00678424
1887,9691;0,00676217
1888,9333;0,00674414
1889,8976;0,00674061
1890,8618;0,00675444
1891,8260;0,00677773
1892,7903;0,00679713
1893,7545;0,00680329
1894,7188;0,00679772
1895,6830;0,00679229
1896,6472;0,00679972
1897,6115;0,00682129
1898,5757;0,00684302
1899,5399;0,00684408
1900,5042;0,00681082
1901,4684;0,00674665
1902,4326;0,00667097
1903,3969;0,00660751
1904,3611;0,00657037
1905,3253;0,00655844
1906,2896;0,00656076
1907,2538;0,00656668
1908,2180;0,00657225
1909,1823;0,0065791
1910,1465;0,00658855
1911,1107;0,00659808
1912,0750;0,0066041
1913,0392;0,00660694
1914,0034;0,00661227
1914,9677;0,00662771
1915,9319;0,0066572
1916,8961;0,00669605
1917,8604;0,00672992
1918,8246;0,00674064
1919,7888;0,00671615
1920,7531;0,00665747
1921,7173;0,00657913
1922,6815;0,00650508
1923,6458;0,00646119
1924,6100;0,00646531
1925,5742;0,00651965
1926,5385;0,00661056
1927,5027;0,00671404
1928,4669;0,00680253
1929,4312;0,0068515
1930,3954;0,00684641
1931,3596;0,00678807
1932,3239;0,00669341
1933,2881;0,00658965
1934,2523;0,00650419
1935,2166;0,0064543
1936,1808;0,00644107
1937,1450;0,00645168
1938,1093;0,00646882
1939,0735;0,0064816
1940,0377;0,00649068
1941,0020;0,00650409
1941,9662;0,00652466
1942,9304;0,00653766
1943,8947;0,00651301
1944,8589;0,00642557
1945,8231;0,00627778
1946,7874;0,00610652
1947,7516;0,00597004
1948,7158;0,00592156
1949,6801;0,00598085
1950,6443;0,00611934
1951,6085;0,00627027
1952,5728;0,00636022
1953,5370;0,00634402
1954,5012;0,00622409
1955,4655;0,00604512
1956,4297;0,00586996
1957,3939;0,00575204
1958,3582;0,00571838
1959,3224;0,0057677
1960,2866;0,00587893
1961,2509;0,00602277
1962,2151;0,00617065
1963,1793;0,00629895
1964,1436;0,0063903
1965,1078;0,00643494
1966,0720;0,00643316
1967,0363;0,00639575
1968,0005;0,00633849
1968,9647;0,00627264
1969,9290;0,00619933
1970,8932;0,00611428
1971,8574;0,00602171
1972,8217;0,00594885
1973,7859;0,00594947
1974,7501;0,00608638
1975,7144;0,00639261
1976,6786;0,00683324
1977,6428;0,00730192
1978,6071;0,00766804
1979,5713;0,00784612
1980,5355;0,00783638
1981,4998;0,00771236
1982,4640;0,00757304
1983,4282;0,00749122
1984,3925;0,00748278
1985,3567;0,00750853
1986,3209;0,00750549
1987,2852;0,00742787
1988,2494;0,00727275
1989,2136;0,00707878
1990,1779;0,00690371
1991,1421;0,00679605
1992,1063;0,00677558
1993,0706;0,0068316
1994,0348;0,0069364
1994,9990;0,0070612
1995,9633;0,00718409
1996,9275;0,00728933
1997,8917;0,0073632
1998,8560;0,00739036
1999,8202;0,00735289
2000,7844;0,00723423
2001,7487;0,00702912
2002,7129;0,0067572
2003,6771;0,00647163
2004,6414;0,00625156
2005,6056;0,00617269
2006,5698;0,00626606
2007,5341;0,00649372
2008,4983;0,00676524
2009,4625;0,00698832
2010,4268;0,00711655
2011,3910;0,00716237
2012,3552;0,00717396
2013,3195;0,00719897
2014,2837;0,00725827
2015,2479;0,00733874
2016,2122;0,0074014
2017,1764;0,00739793
2018,1406;0,00729049
2019,1049;0,007071
2020,0691;0,00677331
2021,0333;0,00647054
2021,9976;0,00625338
2022,9618;0,0061944
2023,9260;0,00631456
2024,8903;0,00657182
2025,8545;0,00688045
2026,8187;0,00714845
2027,7830;0,00730895
2028,7472;0,00733153
2029,7114;0,00722047
2030,6757;0,0070145
2031,6399;0,00679039
2032,6041;0,00665505
2033,5684;0,00670997
2034,5326;0,00699696
2035,4968;0,00746152
2036,4611;0,00796726
2037,4253;0,00835672
2038,3895;0,00852118
2039,3538;0,00844065
2040,3180;0,00818015
2041,2822;0,00785263
2042,2465;0,00757257
2043,2107;0,00742308
2044,1749;0,00744365
2045,1392;0,00762859
2046,1034;0,00792545
2047,0676;0,00823857
2048,0320;0,00845504
2048,9961;0,0084936
2049,9604;0,0083474
2050,9246;0,00808835
2051,8889;0,00783201
2052,8530;0,00768648
2053,8174;0,00770912
2054,7815;0,00788623
2055,7458;0,00814298
2056,7100;0,00837961
2057,6743;0,00851414
2058,6384;0,00850915
2059,6028;0,00837399
2060,5669;0,00815118
2061,5313;0,00790012
2062,4954;0,00768412
2063,4597;0,00755811
2064,4238;0,00755389
2065,3882;0,00766725
2066,3523;0,00785691
2067,3167;0,00806082
2068,2808;0,00822239
2069,2451;0,00831137
2070,2092;0,00832836
2071,1736;0,00829368
2072,1377;0,00823151
2073,1021;0,00816004
2074,0662;0,00809193
2075,0305;0,00803883
2075,9946;0,00801125
2076,9590;0,00801145
2077,9231;0,00802672
2078,8875;0,00803229
2079,8516;0,00800582
2080,8159;0,00794447
2081,7800;0,00787149
2082,7444;0,0078255
2083,7085;0,00783784
2084,6729;0,00791254
2085,6370;0,00802146
2086,6013;0,00811821
2087,5654;0,00816218
2088,5298;0,00813878
2089,4939;0,00806429
2090,4583;0,00797369
2091,4224;0,00790008
2092,3867;0,00785923
2093,3508;0,00784842
2094,3152;0,00785811
2095,2793;0,00788587
2096,2437;0,00793931
2097,2078;0,00802396
2098,1721;0,00812576
2099,1362;0,00820614
2100,1006;0,00821829
2101,0647;0,00813881
2102,0291;0,00798817
2102,9932;0,00782881
2103,9575;0,00773279
2104,9216;0,00774061
2105,8860;0,00783819
2106,8501;0,00796815
2107,8145;0,00806719
2108,7786;0,00810371
2109,7429;0,0080904
2110,7070;0,00806596
2111,6714;0,00806227
2112,6355;0,00808197
2113,5999;0,00810084
2114,5640;0,00808973
2115,5283;0,00803727
2116,4924;0,00795656
2117,4568;0,00787322
2118,4209;0,00780608
2119,3853;0,00775571
2120,3494;0,00770883
2121,3137;0,0076534
2122,2778;0,00759168
2123,2422;0,00754012
2124,2063;0,00751613
2125,1707;0,0075222
2126,1348;0,00754049
2127,0991;0,00754315
2128,0632;0,00751193
2129,0276;0,00745342
2129,9917;0,0073991
2130,9561;0,00738922
2131,9202;0,0074498
2132,8845;0,00757585
2133,8486;0,0077305
2134,8130;0,00786197
2135,7771;0,00792925
2136,7415;0,00792121
2137,7056;0,0078579
2138,6699;0,00777476
2139,6340;0,00770127
2140,5984;0,00764708
2141,5625;0,00760306
2142,5269;0,00755576
2143,4910;0,0075055
2144,4553;0,00747474
2145,4194;0,00749823
2146,3838;0,00759924
2147,3479;0,00776742
2148,3123;0,00795535
2149,2764;0,00809744
2150,2407;0,00813867
2151,2048;0,0080538
2152,1692;0,00784793
2153,1333;0,00754578
2154,0977;0,00718684
2155,0618;0,00683622
2156,0261;0,00660053
2156,9902;0,00661675
2157,9546;0,00698618
2158,9187;0,00767986
2159,8831;0,00850994
2160,8472;0,00922337
2161,8115;0,00964206
2162,7756;0,00973457
2163,7400;0,00959328
2164,7041;0,00936196
2165,6685;0,00916264
2166,6326;0,00905327
2167,5969;0,0090275
2168,5610;0,00904479
2169,5254;0,00906418
2170,4895;0,00906164
2171,4539;0,00903025
2172,4180;0,00897446
2173,3823;0,00890842
2174,3464;0,00885663
2175,3108;0,00884828
2176,2749;0,00890103
2177,2393;0,00900326
2178,2034;0,00911106
2179,1677;0,0091678
2180,1318;0,00913718
2181,0962;0,00902807
2182,0603;0,00889089
2183,0247;0,00878432
2183,9888;0,00873544
2184,9531;0,00872497
2185,9172;0,00870878
2186,8816;0,00865752
2187,8457;0,00858321
2188,8101;0,00853368
2189,7742;0,00855955
2190,7385;0,00867708
2191,7026;0,00885162
2192,6670;0,00901188
2193,6311;0,00908643
2194,5955;0,00904137
2195,5596;0,0088991
2196,5239;0,00872791
2197,4880;0,00860744
2198,4524;0,00858719
2199,4165;0,00866013
2200,3809;0,00876703
2201,3450;0,00883077
2202,3093;0,00880164
2203,2734;0,00868581
2204,2378;0,00853806
2205,2019;0,00842357
2206,1663;0,00837524
2207,1304;0,00837623
2208,0947;0,00837859
2209,0588;0,00834238
2210,0232;0,00826514
2210,9873;0,00818053
2211,9517;0,0081295
2212,9158;0,00812801
2213,8801;0,00815651
2214,8442;0,00817788
2215,8086;0,00816831
2216,7727;0,00813708
2217,7371;0,00812086
2218,7012;0,00815849
2219,6655;0,00826537
2220,6296;0,0084247
2221,5940;0,00859924
2222,5581;0,00875224
2223,5225;0,00886236
2224,4866;0,00892413
2225,4509;0,0089379
2226,4150;0,0089007
2227,3794;0,00880759
2228,3435;0,00866182
2229,3079;0,0084857
2230,2720;0,00831925
2231,2363;0,00820392
2232,2004;0,0081602
2233,1648;0,00817507
2234,1289;0,00820973
2235,0933;0,00822437
2236,0574;0,00820396
2237,0217;0,00816741
2237,9858;0,00815375
2238,9502;0,00819458
2239,9143;0,00829142
2240,8787;0,00841288
2241,8428;0,00851279
2242,8071;0,00855678
2243,7712;0,00854
2244,7356;0,00848587
2245,6997;0,00842865
2246,6641;0,00839262
2247,6282;0,00838112
2248,5925;0,00838074
2249,5566;0,0083753
2250,5210;0,00835881
2251,4851;0,00833846
2252,4495;0,00832707
2253,4136;0,00833158
2254,3779;0,00834683
2255,3420;0,00835883
2256,3064;0,0083547
2257,2705;0,00833119
2258,2349;0,00829582
2259,1990;0,00826068
2260,1633;0,00823469
2261,1274;0,00821983
2262,0918;0,00821326
2263,0559;0,00821249
2264,0203;0,0082193
2264,9844;0,00823967
2265,9487;0,00828028
2266,9128;0,00834369
2267,8772;0,0084248
2268,8413;0,0085099
2269,8057;0,00857948
2270,7698;0,0086149
2271,7341;0,00860705
2272,6982;0,00856294
2273,6626;0,00850506
2274,6267;0,00846192
2275,5911;0,00845418
2276,5552;0,00848491
2277,5195;0,00854062
2278,4836;0,00860212
2279,4480;0,00865707
2280,4121;0,00870502
2281,3765;0,00875196
2282,3406;0,00880023
2283,3049;0,00884281
2284,2690;0,00886672
2285,2334;0,00886233
2286,1975;0,0088309
2287,1619;0,00878395
2288,1260;0,008735
2289,0903;0,00869005
2290,0544;0,00864425
2291,0188;0,00858709
2291,9829;0,00851173
2292,9473;0,00842161
2293,9114;0,00832975
2294,8757;0,00825231
2295,8398;0,00820145
2296,8042;0,00818269
2297,7683;0,00819711
2298,7327;0,00824502
2299,6968;0,00832684
2300,6611;0,00843989
2301,6252;0,00857402
2302,5896;0,00871063
2303,5537;0,00882695
2304,5181;0,00890448
2305,4822;0,00893719
2306,4465;0,00893506
2307,4106;0,00892076
2308,3750;0,00892074
2309,3391;0,00895564
2310,3035;0,0090348
2311,2676;0,00915711
2312,2319;0,00931555
2313,1960;0,00950174
2314,1604;0,00970774
2315,1245;0,0099253
2316,0889;0,0101441
2317,0530;0,0103511
2318,0173;0,0105311
2318,9814;0,010668
2319,9458;0,0107449
2320,9099;0,0107435
2321,8743;0,0106484
2322,8384;0,0104582
2323,8027;0,0101983
2324,7668;0,00992149
2325,7312;0,0096915
2326,6953;0,00955558
2327,6597;0,0095223
2328,6238;0,00955509
2329,5881;0,00958789
2330,5522;0,00955881
2331,5166;0,00944377
2332,4807;0,00926644
2333,4451;0,00907709
2334,4092;0,00891804
2335,3735;0,00880104
2336,3376;0,00870811
2337,3020;0,00860945
2338,2661;0,00848175
2339,2305;0,008315
2340,1946;0,00811273
2341,1589;0,00790097
2342,1230;0,00774394
2343,0874;0,00772189
2344,0515;0,00784171
2345,0159;0,00799286
2345,9800;0,00806208
2346,9443;0,0080569
2347,9084;0,00807956
2348,8728;0,00822303
2349,8369;0,00849933
2350,8013;0,00882977
2351,7654;0,00909218
2352,7297;0,00920814
2353,6938;0,00920839
2354,6582;0,00918981
2355,6223;0,00919597
2356,5867;0,00917886
2357,5508;0,00907992
2358,5151;0,00890512
2359,4792;0,00870987
2360,4436;0,00853475
2361,4077;0,00838138
2362,3721;0,00824943
2363,3362;0,00817262
2364,3005;0,00820412
2365,2646;0,00836936
2366,2290;0,00863854
2367,1931;0,00894417
2368,1575;0,00922177
2369,1216;0,00943873
2370,0859;0,00959618
2371,0500;0,00971077
2372,0144;0,00979292
2372,9785;0,00983531
2373,9429;0,00981683
2374,9070;0,00971753
2375,8713;0,00953451
2376,8354;0,00928902
2377,7998;0,00902111
2378,7639;0,00877558
2379,7283;0,00858712
2380,6924;0,00847179
2381,6567;0,00842729
2382,6208;0,00843979
2383,5852;0,008492
2384,5493;0,00856892
2385,5137;0,00865943
2386,4778;0,00875503
2387,4421;0,00884778
2388,4063;0,00892958
2389,3706;0,0089933
2390,3347;0,00903533
2391,2991;0,00905743
2392,2632;0,0090666
2393,2275;0,0090725
2394,1917;0,00908348
2395,1560;0,00910319
2396,1201;0,00912929
2397,0845;0,00915526
2398,0486;0,00917373
2399,0129;0,0091819
2399,9771;0,00918312
2400,9414;0,00918478
2401,9055;0,00919432
2402,8699;0,00921446
2403,8340;0,00924235
2404,7983;0,00927257
2405,7625;0,00930173
2406,7268;0,00933088
2407,6909;0,00936278
2408,6553;0,00939692
2409,6194;0,00942721
2410,5837;0,00944467
2411,5479;0,00944463
2412,5122;0,00943239
2413,4763;0,00942202
2414,4407;0,00942808
2415,4048;0,00945605
2416,3691;0,00949846
2417,3333;0,00954009
2418,2976;0,00956838
2419,2617;0,00958119
2420,2261;0,00958651
2421,1902;0,00959505
2422,1545;0,00961132
2423,1187;0,00963111
2424,0830;0,00964614
2425,0471;0,00965228
2426,0115;0,00965448
2426,9756;0,0096648
2427,9399;0,00969505
2428,9041;0,0097493
2429,8684;0,00982096
2430,8325;0,00989581
2431,7969;0,00995852
2432,7610;0,00999884
2433,7253;0,0100146
2434,6895;0,0100113
2435,6538;0,00999843
2436,6179;0,0099861
2437,5823;0,00998191
2438,5464;0,00998996
2439,5107;0,0100115
2440,4749;0,0100463
2441,4392;0,010093
2442,4033;0,0101484
2443,3677;0,0102061
2444,3318;0,0102554
2445,2961;0,0102847
2446,2603;0,0102862
2447,2246;0,0102609
2448,1887;0,0102208
2449,1531;0,0101851
2450,1172;0,0101722
2451,0815;0,0101919
2452,0457;0,0102409
2453,0100;0,0103046
2453,9741;0,0103646
2454,9385;0,0104068
2455,9026;0,010427
2456,8669;0,0104314
2457,8311;0,0104317
2458,7954;0,0104383
2459,7595;0,0104541
2460,7239;0,0104735
2461,6880;0,0104864
2462,6523;0,0104845
2463,6165;0,010468
2464,5808;0,0104461
2465,5449;0,0104327
2466,5093;0,0104386
2467,4734;0,0104651
2468,4377;0,0105037
2469,4019;0,0105417
2470,3662;0,0105691
2471,3303;0,0105837
2472,2947;0,0105905
2473,2588;0,0105963
2474,2231;0,0106049
2475,1873;0,010615
2476,1516;0,0106228
2477,1157;0,0106269
2478,0801;0,0106305
2479,0442;0,010641
2480,0085;0,0106655
2480,9727;0,0107062
2481,9370;0,0107586
2482,9011;0,0108129
2483,8655;0,0108578
2484,8296;0,0108848
2485,7939;0,0108909
2486,7581;0,0108782
2487,7224;0,0108529
2488,6865;0,0108235
2489,6509;0,0107994
2490,6150;0,010789
2491,5793;0,0107982
2492,5435;0,0108276
2493,5078;0,0108713
2494,4719;0,0109185
2495,4363;0,0109571
2496,4004;0,0109796
2497,3647;0,0109861
2498,3289;0,0109847
2499,2932;0,0109872
2500,2573;0,0110026
2501,2217;0,0110333
2502,1858;0,0110741
2503,1501;0,0111155
2504,1143;0,0111476
2505,0786;0,0111644
2506,0427;0,0111653
2507,0071;0,0111551
2507,9712;0,0111424
2508,9355;0,0111374
2509,8997;0,0111487
2510,8640;0,0111794
2511,8281;0,011225
2512,7925;0,0112736
2513,7566;0,01131
2514,7209;0,0113224
2515,6851;0,0113084
2516,6494;0,0112765
2517,6135;0,0112425
2518,5779;0,0112217
2519,5420;0,0112219
2520,5063;0,0112406
2521,4705;0,0112685
2522,4348;0,0112957
2523,3989;0,0113178
2524,3633;0,0113368
2525,3274;0,0113582
2526,2917;0,0113854
2527,2559;0,0114176
2528,2202;0,01145
2529,1843;0,0114773
2530,1487;0,0114968
2531,1128;0,0115094
2532,0771;0,0115182
2533,0413;0,0115266
2534,0056;0,0115378
2534,9697;0,011554
2535,9341;0,011577
2536,8982;0,0116069
2537,8625;0,0116416
2538,8267;0,0116751
2539,7910;0,0116997
2540,7551;0,011709
2541,7195;0,0117011
2542,6836;0,0116809
2543,6479;0,0116582
2544,6121;0,0116434
2545,5764;0,0116431
2546,5405;0,0116578
2547,5049;0,0116841
2548,4690;0,0117172
2549,4333;0,0117544
2550,3975;0,0117942
2551,3618;0,011834
2552,3259;0,0118683
2553,2903;0,0118908
2554,2544;0,011898
2555,2188;0,0118937
2556,1829;0,0118879
2557,1472;0,0118922
2558,1113;0,0119126
2559,0757;0,0119462
2560,0398;0,0119832
2561,0042;0,0120133
2561,9683;0,0120306
2562,9326;0,0120356
2563,8967;0,0120328
2564,8611;0,0120274
2565,8252;0,012024
2566,7896;0,012026
2567,7537;0,0120363
2568,7180;0,0120555
2569,6821;0,0120818
2570,6465;0,0121104
2571,6106;0,0121367
2572,5750;0,0121579
2573,5391;0,0121749
2574,5034;0,0121894
2575,4675;0,0122025
2576,4319;0,0122125
2577,3960;0,0122174
2578,3604;0,0122173
2579,3245;0,0122161
2580,2888;0,0122202
2581,2529;0,0122355
2582,2173;0,0122646
2583,1814;0,0123054
2584,1458;0,0123522
2585,1099;0,0123981
2586,0742;0,0124374
2587,0383;0,0124673
2588,0027;0,0124894
2588,9668;0,0125081
2589,9312;0,0125287
2590,8953;0,0125538
2591,8596;0,0125811
2592,8237;0,0126051
2593,7881;0,0126201
2594,7522;0,0126249
2595,7166;0,0126236
2596,6807;0,0126231
2597,6450;0,0126286
2598,6091;0,0126412
2599,5735;0,0126579
2600,5376;0,0126753
2601,5020;0,0126924
2602,4661;0,0127104
2603,4304;0,012731
2604,3945;0,0127536
2605,3589;0,0127753
2606,3230;0,0127934
2607,2874;0,0128082
2608,2515;0,0128227
2609,2158;0,0128407
2610,1799;0,0128633
2611,1443;0,0128876
2612,1084;0,0129088
2613,0728;0,0129243
2614,0369;0,0129365
2615,0012;0,0129527
2615,9653;0,01298
2616,9297;0,0130211
2617,8938;0,0130709
2618,8582;0,0131193
2619,8223;0,013156
2620,7866;0,0131754
2621,7507;0,0131791
2622,7151;0,0131739
2623,6792;0,0131681
2624,6436;0,0131678
2625,6077;0,0131756
2626,5720;0,0131906
2627,5361;0,0132108
2628,5005;0,0132339
2629,4646;0,0132589
2630,4290;0,0132848
2631,3931;0,0133106
2632,3574;0,0133339
2633,3215;0,0133509
2634,2859;0,0133584
2635,2500;0,0133553
2636,2144;0,0133455
2637,1785;0,0133369
2638,1428;0,0133383
2639,1069;0,0133546
2640,0713;0,0133838
2641,0354;0,0134176
2641,9998;0,0134455
2642,9639;0,0134608
2643,9282;0,0134634
2644,8923;0,0134592
2645,8567;0,0134561
2646,8208;0,01346
2647,7852;0,0134727
2648,7493;0,013492
2649,7136;0,0135134
2650,6777;0,0135326
2651,6421;0,0135463
2652,6062;0,0135533
2653,5706;0,0135546
2654,5347;0,0135533
2655,4990;0,0135529
2656,4631;0,0135553
2657,4275;0,0135596
2658,3916;0,0135629
2659,3560;0,0135615
2660,3201;0,0135536
2661,2844;0,01354
2662,2485;0,0135237
2663,2129;0,0135082
2664,1770;0,0134967
2665,1414;0,013491
2666,1055;0,0134917
2667,0698;0,0134979
2668,0339;0,0135071
2668,9983;0,0135162
2669,9624;0,0135222
2670,9268;0,013524
2671,8909;0,0135234
2672,8552;0,0135239
2673,8193;0,013529
2674,7837;0,0135409
2675,7478;0,013559
2676,7122;0,0135814
2677,6763;0,0136058
2678,6406;0,0136304
2679,6047;0,0136539
2680,5691;0,0136753
2681,5332;0,0136937
2682,4976;0,0137083
2683,4617;0,0137193
2684,4260;0,0137274
2685,3901;0,0137341
2686,3545;0,013742
2687,3186;0,0137537
2688,2830;0,0137723
2689,2471;0,0137995
2690,2114;0,0138345
2691,1755;0,0138734
2692,1399;0,0139103
2693,1040;0,0139399
2694,0684;0,0139603
2695,0325;0,0139741
2695,9968;0,0139869
2696,9609;0,0140044
2697,9253;0,0140288
2698,8894;0,0140582
2699,8538;0,0140881
2700,8179;0,014114
2701,7822;0,0141336
2702,7463;0,0141474
2703,7107;0,0141574
2704,6748;0,0141655
2705,6392;0,0141735
2706,6033;0,0141826
2707,5676;0,0141938
2708,5317;0,0142081
2709,4961;0,0142255
2710,4602;0,0142453
2711,4246;0,0142663
2712,3887;0,0142876
2713,3530;0,0143095
2714,3171;0,0143321
2715,2815;0,0143553
2716,2456;0,0143778
2717,2100;0,0143982
2718,1741;0,0144161
2719,1384;0,0144331
2720,1025;0,0144517
2721,0669;0,0144737
2722,0310;0,0144979
2722,9954;0,0145204
2723,9595;0,0145373
2724,9238;0,0145472
2725,8879;0,0145535
2726,8523;0,0145625
2727,8164;0,0145803
2728,7808;0,0146088
2729,7449;0,0146442
2730,7092;0,0146789
2731,6733;0,0147053
2732,6377;0,0147194
2733,6018;0,0147222
2734,5662;0,0147185
2735,5303;0,0147141
2736,4946;0,0147132
2737,4587;0,0147174
2738,4231;0,0147263
2739,3872;0,0147385
2740,3516;0,0147525
2741,3157;0,0147677
2742,2800;0,0147839
2743,2441;0,0148015
2744,2085;0,0148205
2745,1726;0,0148405
2746,1370;0,0148599
2747,1011;0,0148765
2748,0654;0,0148887
2749,0295;0,0148966
2749,9939;0,0149022
2750,9580;0,0149086
2751,9224;0,0149179
2752,8865;0,0149301
2753,8508;0,0149435
2754,8149;0,0149569
2755,7793;0,0149712
2756,7434;0,0149889
2757,7078;0,0150123
2758,6719;0,0150405
2759,6362;0,0150695
2760,6003;0,015094
2761,5647;0,0151114
2762,5288;0,0151231
2763,4932;0,0151342
2764,4573;0,01515
2765,4216;0,0151729
2766,3857;0,0152007
2767,3501;0,015229
2768,3142;0,0152533
2769,2786;0,015272
2770,2427;0,0152865
2771,2070;0,0153001
2772,1711;0,0153157
2773,1355;0,0153348
2774,0996;0,0153565
2775,0640;0,0153793
2776,0281;0,0154015
2776,9924;0,0154231
2777,9565;0,0154463
2778,9209;0,0154743
2779,8850;0,0155098
2780,8494;0,0155523
2781,8135;0,0155974
2782,7778;0,0156371
2783,7419;0,0156642
2784,7063;0,0156758
2785,6704;0,0156767
2786,6348;0,0156777
2787,5989;0,0156908
2788,5632;0,0157232
2789,5273;0,0157737
2790,4917;0,0158341
2791,4558;0,0158944
2792,4202;0,0159479
2793,3843;0,0159938
2794,3486;0,016035
2795,3127;0,016074
2796,2771;0,0161106
2797,2412;0,0161427
2798,2056;0,0161694
2799,1697;0,0161939
2800,1340;0,0162224
2801,0981;0,0162611
2802,0625;0,0163126
2803,0266;0,0163739
2803,9910;0,0164387
2804,9551;0,0165
2805,9194;0,0165534
2806,8835;0,0165983
2807,8479;0,0166368
2808,8120;0,0166736
2809,7764;0,0167139
2810,7405;0,0167627
2811,7048;0,0168229
2812,6689;0,0168939
2813,6333;0,0169718
2814,5974;0,0170507
2815,5618;0,0171264
2816,5259;0,0171975
2817,4902;0,0172666
2818,4543;0,0173377
2819,4187;0,0174136
2820,3828;0,0174945
2821,3472;0,0175785
2822,3113;0,0176632
2823,2756;0,0177478
2824,2397;0,0178333
2825,2041;0,0179222
2826,1682;0,0180173
2827,1326;0,0181212
2828,0967;0,0182357
2829,0610;0,018362
2830,0251;0,0184992
2830,9895;0,0186443
2831,9536;0,0187924
2832,9180;0,0189384
2833,8821;0,0190804
2834,8464;0,0192213
2835,8105;0,0193682
2836,7749;0,0195293
2837,7390;0,0197101
2838,7034;0,0199112
2839,6675;0,0201297
2840,6318;0,0203625
2841,5959;0,0206096
2842,5603;0,0208745
2843,5244;0,0211616
2844,4888;0,0214718
2845,4529;0,0217985
2846,4172;0,0221279
2847,3813;0,0224412
2848,3457;0,0227199
2849,3098;0,0229496
2850,2742;0,0231222
2851,2383;0,0232364
2852,2026;0,0232959
2853,1667;0,0233079
2854,1311;0,0232813
2855,0952;0,0232258
2856,0596;0,0231515
2857,0237;0,0230686
2857,9880;0,0229875
2858,9521;0,0229176
2859,9165;0,0228663
2860,8806;0,0228372
2861,8450;0,0228298
2862,8091;0,0228411
2863,7734;0,0228676
2864,7375;0,0229077
2865,7019;0,0229621
2866,6660;0,0230312
2867,6304;0,0231122
2868,5945;0,0231971
2869,5588;0,0232743
2870,5229;0,0233326
2871,4873;0,0233665
2872,4514;0,0233784
2873,4158;0,0233775
2874,3799;0,0233756
2875,3442;0,0233818
2876,3083;0,0233997
2877,2727;0,0234268
2878,2368;0,0234577
2879,2012;0,023487
2880,1653;0,0235122
2881,1296;0,0235348
2882,0938;0,0235594
2883,0581;0,0235918
2884,0222;0,023636
2884,9866;0,023693
2885,9507;0,0237594
2886,9150;0,023829
2887,8792;0,0238953
2888,8435;0,0239546
2889,8076;0,024007
2890,7720;0,0240566
2891,7361;0,0241093
2892,7004;0,02417
2893,6646;0,0242404
2894,6289;0,0243185
2895,5930;0,0243998
2896,5574;0,0244794
2897,5215;0,0245548
2898,4858;0,0246271
2899,4500;0,0247005
2900,4143;0,0247798
2901,3784;0,0248673
2902,3428;0,0249619
2903,3069;0,0250594
2904,2712;0,0251564
2905,2354;0,025253
2906,1997;0,025355
2907,1638;0,0254709
2908,1282;0,0256085
2909,0923;0,025771
2910,0566;0,025956
2911,0208;0,0261576
2911,9851;0,0263692
2912,9492;0,0265856
2913,9136;0,0268027
2914,8777;0,0270154
2915,8420;0,027217
2916,8062;0,0273992
2917,7705;0,0275545
2918,7346;0,0276776
2919,6990;0,0277663
2920,6631;0,02782
2921,6274;0,0278384
2922,5916;0,0278213
2923,5559;0,0277689
2924,5200;0,0276841
2925,4844;0,027572
2926,4485;0,0274396
2927,4128;0,0272935
2928,3770;0,0271382
2929,3413;0,0269754
2930,3054;0,0268054
2931,2698;0,0266283
2932,2339;0,0264451
2933,1982;0,0262574
2934,1624;0,0260662
2935,1267;0,025872
2936,0908;0,0256742
2937,0552;0,0254725
2938,0193;0,0252678
2938,9836;0,0250626
2939,9478;0,0248603
2940,9121;0,0246644
2941,8762;0,0244778
2942,8406;0,0243027
2943,8047;0,0241409
2944,7690;0,0239943
2945,7332;0,0238644
2946,6975;0,0237519
2947,6616;0,0236562
2948,6260;0,0235749
2949,5901;0,023505
2950,5544;0,023443
2951,5186;0,0233869
2952,4829;0,0233356
2953,4470;0,023289
2954,4114;0,0232461
2955,3755;0,0232036
2956,3398;0,0231556
2957,3040;0,0230953
2958,2683;0,0230172
2959,2324;0,02292
2960,1968;0,0228073
2961,1609;0,0226862
2962,1252;0,0225641
2963,0894;0,0224458
2964,0537;0,0223326
2965,0178;0,0222224
2965,9822;0,0221115
2966,9463;0,0219964
2967,9106;0,0218745
2968,8748;0,0217448
2969,8391;0,0216088
2970,8032;0,0214701
2971,7676;0,0213348
2972,7317;0,0212099
2973,6960;0,0211008
2974,6602;0,0210093
2975,6245;0,0209323
2976,5886;0,0208632
2977,5530;0,0207941
2978,5171;0,0207199
2979,4814;0,0206401
2980,4456;0,0205586
2981,4099;0,0204822
2982,3740;0,0204161
2983,3384;0,0203622
2984,3025;0,0203184
2985,2668;0,0202801
2986,2310;0,0202433
2987,1953;0,0202061
2988,1594;0,0201693
2989,1238;0,0201345
2990,0879;0,0201029
2991,0522;0,0200736
2992,0164;0,0200451
2992,9807;0,0200167
2993,9448;0,0199905
2994,9092;0,0199716
2995,8733;0,0199667
2996,8376;0,0199805
2997,8018;0,0200127
2998,7661;0,0200565
2999,7302;0,0201003
3000,6946;0,0201327
3001,6587;0,0201476
3002,6230;0,0201476
3003,5872;0,0201427
3004,5515;0,0201444
3005,5156;0,0201594
3006,4800;0,0201861
3007,4441;0,0202156
3008,4084;0,0202375
3009,3726;0,0202456
3010,3369;0,0202412
3011,3010;0,0202319
3012,2654;0,0202277
3013,2295;0,0202357
3014,1938;0,0202581
3015,1580;0,0202928
3016,1223;0,0203355
3017,0864;0,0203821
3018,0508;0,0204304
3019,0149;0,0204799
3019,9792;0,0205319
3020,9434;0,0205883
3021,9077;0,0206513
3022,8718;0,0207215
3023,8362;0,0207976
3024,8003;0,0208756
3025,7646;0,0209502
3026,7288;0,0210165
3027,6931;0,0210711
3028,6572;0,0211139
3029,6216;0,0211475
3030,5857;0,0211769
3031,5500;0,0212083
3032,5142;0,0212477
3033,4785;0,0212989
3034,4426;0,021363
3035,4070;0,0214365
3036,3711;0,0215127
3037,3354;0,0215836
3038,2996;0,0216426
3039,2639;0,0216884
3040,2280;0,021725
3041,1924;0,0217604
3042,1565;0,0218025
3043,1208;0,0218551
3044,0850;0,0219167
3045,0493;0,0219828
3046,0134;0,0220489
3046,9778;0,0221132
3047,9419;0,0221764
3048,9063;0,0222397
3049,8704;0,0223024
3050,8347;0,022362
3051,7988;0,0224162
3052,7632;0,0224654
3053,7273;0,0225127
3054,6917;0,0225631
3055,6558;0,022621
3056,6201;0,022688
3057,5842;0,0227632
3058,5486;0,0228435
3059,5127;0,0229243
3060,4771;0,0230003
3061,4412;0,023066
3062,4055;0,0231179
3063,3696;0,0231573
3064,3340;0,0231915
3065,2981;0,0232312
3066,2625;0,0232849
3067,2266;0,0233543
3068,1909;0,0234327
3069,1550;0,0235092
3070,1194;0,023575
3071,0835;0,0236283
3072,0479;0,0236733
3073,0120;0,0237167
3073,9763;0,023763
3074,9404;0,0238121
3075,9048;0,0238613
3076,8689;0,0239088
3077,8333;0,0239564
3078,7974;0,0240082
3079,7617;0,0240679
3080,7258;0,0241355
3081,6902;0,0242072
3082,6543;0,0242773
3083,6187;0,0243418
3084,5828;0,0244002
3085,5471;0,024455
3086,5112;0,0245094
3087,4756;0,0245646
3088,4397;0,0246194
3089,4041;0,0246707
3090,3682;0,0247166
3091,3325;0,0247582
3092,2966;0,0247996
3093,2610;0,024846
3094,2251;0,0249008
3095,1895;0,0249633
3096,1536;0,0250294
3097,1179;0,0250941
3098,0820;0,0251548
3099,0464;0,0252126
3100,0105;0,0252712
3100,9749;0,0253345
3101,9390;0,0254037
3102,9033;0,0254763
3103,8674;0,0255472
3104,8318;0,0256117
3105,7959;0,0256675
3106,7603;0,0257159
3107,7244;0,0257613
3108,6887;0,0258092
3109,6528;0,0258639
3110,6172;0,0259264
3111,5813;0,0259946
3112,5457;0,0260651
3113,5098;0,0261347
3114,4741;0,0262019
3115,4382;0,0262669
3116,4026;0,0263307
3117,3667;0,0263934
3118,3311;0,026455
3119,2952;0,0265156
3120,2595;0,026576
3121,2236;0,0266373
3122,1880;0,0267001
3123,1521;0,026764
3124,1165;0,0268278
3125,0806;0,0268915
3126,0449;0,026957
3127,0090;0,0270265
3127,9734;0,027101
3128,9375;0,027178
3129,9019;0,0272523
3130,8660;0,0273188
3131,8303;0,0273748
3132,7944;0,027422
3133,7588;0,0274648
3134,7229;0,0275084
3135,6873;0,027556
3136,6514;0,0276086
3137,6157;0,027666
3138,5798;0,0277278
3139,5442;0,0277937
3140,5083;0,0278636
3141,4727;0,0279379
3142,4368;0,0280165
3143,4011;0,0280982
3144,3652;0,02818
3145,3296;0,028257
3146,2937;0,0283238
3147,2581;0,028378
3148,2222;0,028422
3149,1865;0,0284628
3150,1506;0,0285094
3151,1150;0,0285681
3152,0791;0,0286397
3153,0435;0,0287206
3154,0076;0,0288051
3154,9719;0,0288893
3155,9360;0,0289714
3156,9004;0,029051
3157,8645;0,029127
3158,8289;0,0291971
3159,7930;0,0292598
3160,7573;0,0293156
3161,7214;0,0293676
3162,6858;0,0294196
3163,6499;0,0294744
3164,6143;0,0295323
3165,5784;0,0295913
3166,5427;0,0296493
3167,5068;0,0297056
3168,4712;0,0297615
3169,4353;0,0298276
3170,3997;0,0298898
3171,3638;0,0299563
3172,3281;0,0300246
3173,2922;0,0300911
3174,2566;0,030152
3175,2207;0,0302059
3176,1851;0,0302548
3177,1492;0,0303035
3178,1135;0,0303573
3179,0776;0,0304185
3180,0420;0,0304851
3181,0061;0,0305512
3181,9705;0,0306113
3182,9346;0,0306627
3183,8989;0,0307078
3184,8630;0,0307524
3185,8274;0,0308022
3186,7915;0,0308604
3187,7559;0,0309266
3188,7200;0,0309986
3189,6843;0,031073
3190,6484;0,0311459
3191,6128;0,0312128
3192,5769;0,0312688
3193,5413;0,0313117
3194,5054;0,0313437
3195,4697;0,031372
3196,4338;0,0314061
3197,3982;0,0314529
3198,3623;0,0315125
3199,3267;0,0315794
3200,2908;0,0316452
3201,2551;0,0317042
3202,2192;0,0317546
3203,1836;0,0317977
3204,1477;0,0318362
3205,1121;0,0318723
3206,0762;0,0319083
3207,0405;0,0319475
3208,0046;0,0319923
3208,9690;0,0320429
3209,9331;0,0320949
3210,8975;0,0321409
3211,8616;0,0321745
3212,8259;0,0321941
3213,7900;0,0322047
3214,7544;0,0322161
3215,7185;0,0322378
3216,6829;0,0322759
3217,6470;0,0323309
3218,6113;0,0323985
3219,5754;0,0324718
3220,5398;0,0325434
3221,5039;0,0326075
3222,4683;0,0326608
3223,4324;0,0327026
3224,3967;0,0327342
3225,3608;0,0327574
3226,3252;0,0327747
3227,2893;0,0327888
3228,2537;0,0328039
3229,2178;0,0328249
3230,1821;0,0328554
3231,1462;0,032896
3232,1106;0,0329428
3233,0747;0,0329896
3234,0391;0,0330312
3235,0032;0,0330669
3235,9675;0,0331004
3236,9316;0,033137
3237,8960;0,0331794
3238,8601;0,0332254
3239,8245;0,0332693
3240,7886;0,0333058
3241,7529;0,0333337
3242,7170;0,0333575
3243,6814;0,0333857
3244,6455;0,0334267
3245,6099;0,0334844
3246,5740;0,033556
3247,5383;0,0336331
3248,5024;0,0337056
3249,4668;0,0337652
3250,4309;0,0338087
3251,3953;0,033838
3252,3594;0,0338588
3253,3237;0,033878
3254,2878;0,0339007
3255,2522;0,0339296
3256,2163;0,0339646
3257,1807;0,0340039
3258,1448;0,0340455
3259,1091;0,0340874
3260,0732;0,0341283
3261,0376;0,0341674
3262,0017;0,0342038
3262,9661;0,034237
3263,9302;0,034267
3264,8945;0,0342946
3265,8586;0,0343213
3266,8230;0,0343483
3267,7871;0,0343743
3268,7515;0,0343958
3269,7156;0,0344074
3270,6799;0,0344058
3271,6440;0,0343925
3272,6084;0,0343743
3273,5725;0,0343609
3274,5369;0,0343595
3275,5010;0,0343722
3276,4653;0,0343962
3277,4294;0,0344277
3278,3938;0,0344642
3279,3579;0,034505
3280,3223;0,0345481
3281,2864;0,0345879
3282,2507;0,0346158
3283,2148;0,0346247
3284,1792;0,0346133
3285,1433;0,0345881
3286,1077;0,0345593
3287,0718;0,0345366
3288,0361;0,0345243
3289,0002;0,0345213
3289,9646;0,0345236
3290,9287;0,0345269
3291,8931;0,0345288
3292,8572;0,0345288
3293,8215;0,0345278
3294,7856;0,0345269
3295,7500;0,0345273
3296,7141;0,0345286
3297,6785;0,0345288
3298,6426;0,0345249
3299,6069;0,0345156
3300,5710;0,0345019
3301,5354;0,0344873
3302,4995;0,0344751
3303,4639;0,0344657
3304,4280;0,034457
3305,3923;0,0344476
3306,3564;0,0344396
3307,3208;0,0344401
3308,2849;0,0344565
3309,2493;0,0344914
3310,2134;0,034539
3311,1777;0,0345864
3312,1418;0,0346199
3313,1062;0,0346309
3314,0703;0,0346193
3315,0347;0,0345931
3315,9988;0,0345645
3316,9631;0,0345459
3317,9272;0,0345461
3318,8916;0,0345677
3319,8557;0,034606
3320,8201;0,0346504
3321,7842;0,0346887
3322,7485;0,0347118
3323,7126;0,0347177
3324,6770;0,0347118
3325,6411;0,0347028
3326,6055;0,0346988
3327,5696;0,0347037
3328,5339;0,0347167
3329,4980;0,0347347
3330,4624;0,0347532
3331,4265;0,0347667
3332,3909;0,0347692
3333,3550;0,0347558
3334,3193;0,0347253
3335,2834;0,0346823
3336,2478;0,0346366
3337,2119;0,0345985
3338,1763;0,0345728
3339,1404;0,034556
3340,1047;0,0345381
3341,0688;0,0345088
3342,0332;0,0344634
3342,9973;0,0344055
3343,9617;0,0343448
3344,9258;0,0342918
3345,8901;0,0342519
3346,8542;0,034223
3347,8186;0,0341974
3348,7827;0,0341657
3349,7471;0,0341209
3350,7112;0,0340617
3351,6755;0,0339926
3352,6396;0,0339221
3353,6040;0,033859
3354,5681;0,0338097
3355,5325;0,0337752
3356,4966;0,0337513
3357,4609;0,0337301
3358,4250;0,033703
3359,3894;0,033664
3360,3535;0,0336117
3361,3179;0,0335498
3362,2820;0,0334847
3363,2463;0,0334225
3364,2104;0,0333656
3365,1748;0,0333109
3366,1389;0,0332521
3367,1033;0,0331833
3368,0674;0,0331048
3369,0317;0,033024
3369,9958;0,0329533
3370,9602;0,0329019
3371,9243;0,0328703
3372,8887;0,0328479
3373,8528;0,0328183
3374,8171;0,0327687
3375,7813;0,0326975
3376,7456;0,0326152
3377,7097;0,0325376
3378,6741;0,0324764
3379,6382;0,0324334
3380,6025;0,032401
3381,5667;0,0323688
3382,5310;0,0323306
3383,4951;0,032286
3384,4595;0,0322377
3385,4236;0,032187
3386,3879;0,0321319
3387,3521;0,032069
3388,3164;0,0319976
3389,2805;0,0319212
3390,2449;0,0318463
3391,2090;0,0317782
3392,1733;0,0317191
3393,1375;0,0316676
3394,1018;0,0316213
3395,0659;0,0315783
3396,0303;0,031537
3396,9944;0,031494
3397,9587;0,031444
3398,9229;0,0313824
3399,8872;0,0313084
3400,8513;0,0312272
3401,8157;0,0311474
3402,7798;0,0310758
3403,7441;0,0310134
3404,7083;0,0309558
3405,6726;0,0308968
3406,6367;0,0308332
3407,6011;0,0307666
3408,5652;0,0307003
3409,5295;0,0306358
3410,4937;0,030571
3411,4580;0,030502
3412,4221;0,0304268
3413,3865;0,0303467
3414,3506;0,0302648
3415,3149;0,0301825
3416,2791;0,0300979
3417,2434;0,0300082
3418,2075;0,0299136
3419,1719;0,0298195
3420,1360;0,0297345
3421,1003;0,029664
3422,0645;0,0296062
3423,0288;0,0295517
3423,9929;0,0294895
3424,9573;0,0294124
3425,9214;0,0293199
3426,8857;0,0292177
3427,8499;0,0291142
3428,8142;0,0290165
3429,7783;0,0289287
3430,7427;0,0288506
3431,7068;0,0287787
3432,6711;0,0287078
3433,6353;0,0286329
3434,5996;0,0285516
3435,5637;0,0284645
3436,5281;0,0283743
3437,4922;0,0282839
3438,4565;0,0281945
3439,4207;0,0281048
3440,3850;0,0280128
3441,3491;0,0279165
3442,3135;0,0278155
3443,2776;0,0277102
3444,2419;0,0276019
3445,2061;0,0274925
3446,1704;0,0273852
3447,1345;0,0272827
3448,0989;0,0271861
3449,0630;0,0270939
3450,0273;0,0270039
3450,9915;0,0269156
3451,9558;0,0268314
3452,9199;0,0267553
3453,8843;0,0266884
3454,8484;0,0266255
3455,8127;0,0265558
3456,7769;0,0264683
3457,7412;0,0263591
3458,7053;0,0262362
3459,6697;0,026116
3460,6338;0,0260144
3461,5981;0,0259367
3462,5623;0,0258737
3463,5266;0,025808
3464,4907;0,0257242
3465,4551;0,0256184
3466,4192;0,0254989
3467,3835;0,0253795
3468,3477;0,0252705
3469,3120;0,0251723
3470,2761;0,025078
3471,2405;0,0249794
3472,2046;0,0248741
3473,1689;0,0247663
3474,1331;0,0246629
3475,0974;0,0245666
3476,0615;0,0244733
3477,0259;0,0243743
3477,9900;0,0242627
3478,9543;0,0241391
3479,9185;0,0240123
3480,8828;0,0238949
3481,8469;0,0237953
3482,8113;0,0237111
3483,7754;0,0236308
3484,7397;0,023541
3485,7039;0,0234338
3486,6682;0,023312
3487,6323;0,0231877
3488,5967;0,0230755
3489,5608;0,0229842
3490,5251;0,0229113
3491,4893;0,0228445
3492,4536;0,0227686
3493,4177;0,0226738
3494,3821;0,0225607
3495,3462;0,0224398
3496,3105;0,0223234
3497,2747;0,0222166
3498,2390;0,0221139
3499,2031;0,0220038
3500,1675;0,0218782
3501,1316;0,021741
3502,0959;0,0216093
3503,0601;0,0215034
3504,0244;0,0214309
3504,9885;0,0213806
3505,9529;0,0213294
3506,9170;0,0212544
3507,8813;0,0211435
3508,8455;0,0209991
3509,8098;0,0208365
3510,7739;0,0206753
3511,7383;0,02053
3512,7024;0,0204066
3513,6667;0,0203049
3514,6309;0,0202224
3515,5952;0,0201557
3516,5593;0,0200998
3517,5237;0,0200466
3518,4878;0,0199858
3519,4521;0,0199081
3520,4163;0,019808
3521,3806;0,0196863
3522,3447;0,0195491
3523,3091;0,0194043
3524,2732;0,0192576
3525,2375;0,0191112
3526,2017;0,0189671
3527,1660;0,0188308
3528,1301;0,0187116
3529,0945;0,0186175
3530,0586;0,0185486
3531,0229;0,0184946
3531,9871;0,0184388
3532,9514;0,0183644
3533,9155;0,0182615
3534,8799;0,0181321
3535,8440;0,0179914
3536,8083;0,0178618
3537,7725;0,0177625
3538,7368;0,0177007
3539,7009;0,0176684
3540,6653;0,0176448
3541,6294;0,0176027
3542,5938;0,0175174
3543,5579;0,0173801
3544,5222;0,017207
3545,4863;0,0170338
3546,4507;0,0168931
3547,4148;0,0167923
3548,3792;0,0167129
3549,3433;0,016626
3550,3076;0,0165099
3551,2717;0,0163627
3552,2361;0,0162041
3553,2002;0,0160637
3554,1646;0,0159608
3555,1287;0,0158935
3556,0930;0,0158441
3557,0571;0,0157935
3558,0215;0,0157353
3558,9856;0,0156805
3559,9500;0,0156498
3560,9141;0,0156548
3561,8784;0,0156806
3562,8425;0,0156806
3563,8069;0,015587
3564,7710;0,0153436
3565,7354;0,0149599
3566,6995;0,0145421
3567,6638;0,0142271
3568,6279;0,0140721
3569,5923;0,0140388
3570,5564;0,0140565
3571,5208;0,0140684
3572,4849;0,0140425
3573,4492;0,0139716
3574,4133;0,0138692
3575,3777;0,0137571
3576,3418;0,0136515
3577,3062;0,0135574
3578,2703;0,0134762
3579,2346;0,0134158
3580,1987;0,0133911
3581,1631;0,0134109
3582,1272;0,0134626
3583,0916;0,0135045
3584,0557;0,0134722
3585,0200;0,0133057
3585,9841;0,0129999
3586,9485;0,0126399
3587,9126;0,0123506
3588,8770;0,0121906
3589,8411;0,0121251
3590,8054;0,0120829
3591,7695;0,0120067
3592,7339;0,0118738
3593,6980;0,0117011
3594,6624;0,0115305
3595,6265;0,0113923
3596,5908;0,0112784
3597,5549;0,0111565
3598,5193;0,0110083
3599,4834;0,0108557
3600,4478;0,0107502
3601,4119;0,010734
3602,3762;0,0108047
3603,3403;0,0109177
3604,3047;0,0110131
3605,2688;0,0110457
3606,2332;0,0110061
3607,1973;0,0109252
3608,1616;0,0108493
3609,1257;0,0107996
3610,0901;0,0107593
3611,0542;0,0107018
3612,0186;0,0106225
3612,9827;0,0105438
3613,9470;0,0104896
3614,9111;0,0104537
3615,8755;0,0103875
3616,8396;0,0102197
3617,8040;0,00990783
3618,7681;0,00949431
3619,7324;0,00910855
3620,6965;0,00888413
3621,6609;0,00887533
3622,6250;0,00905323
3623,5894;0,00934191
3624,5535;0,00963441
3625,5178;0,00979065
3626,4819;0,00966331
3627,4463;0,00920291
3628,4104;0,00858077
3629,3748;0,00809224
3630,3389;0,00787514
3631,3032;0,00785614
3632,2673;0,00791021
3633,2317;0,00795862
3634,1958;0,00797648
3635,1602;0,00797319
3636,1243;0,00796865
3637,0886;0,00797359
3638,0527;0,00798608
3639,0171;0,00800568
3639,9812;0,00805075
3640,9456;0,00816064
3641,9097;0,00837674
3642,8740;0,00871361
3643,8381;0,00913495
3644,8025;0,00953688
3645,7666;0,00973779
3646,7310;0,00951223
3647,6951;0,00876221
3648,6594;0,0077727
3649,6235;0,00706983
3650,5879;0,0068707
3651,5520;0,00700599
3652,5164;0,00723584
3653,4805;0,00739501
3654,4448;0,00739461
3655,4089;0,00722719
3656,3733;0,00697437
3657,3374;0,00675664
3658,3018;0,00664489
3659,2659;0,00662921
3660,2302;0,00666263
3661,1943;0,00671564
3662,1587;0,00679873
3663,1228;0,00694562
3664,0872;0,00717333
3665,0513;0,00744918
3666,0156;0,00768904
3666,9797;0,00778993
3667,9441;0,00770165
3668,9082;0,00750377
3669,8726;0,00737164
3670,8367;0,00740461
3671,8010;0,00752291
3672,7651;0,00753378
3673,7295;0,00725759
3674,6936;0,00666757
3675,6580;0,00597579
3676,6221;0,00547906
3677,5864;0,00528874
3678,5505;0,005317
3679,5149;0,00544149
3680,4790;0,00559787
3681,4434;0,00578249
3682,4075;0,00602179
3683,3718;0,0063328
3684,3359;0,00668864
3685,3003;0,00699986
3686,2644;0,00712043
3687,2288;0,00690262
3688,1929;0,00632488
3689,1572;0,0055974
3690,1213;0,00503313
3691,0857;0,00477958
3692,0498;0,00477469
3693,0142;0,0048926
3693,9783;0,00504309
3694,9426;0,00518648
3695,9067;0,0053145
3696,8711;0,00542396
3697,8352;0,00549605
3698,7996;0,00549385
3699,7637;0,00538645
3700,7280;0,00519034
3701,6921;0,00498949
3702,6565;0,00489644
3703,6206;0,00498099
3704,5850;0,00523629
3705,5491;0,0055948
3706,5134;0,00595327
3707,4775;0,00618743
3708,4419;0,00617835
3709,4060;0,0058829
3710,3704;0,00542073
3711,3345;0,0050345
3712,2988;0,00488672
3713,2629;0,00495497
3714,2273;0,00513022
3715,1914;0,00532068
3716,1558;0,00547265
3717,1199;0,00555869
3718,0842;0,00557089
3719,0483;0,00551944
3720,0127;0,00542389
3720,9768;0,00529572
3721,9412;0,00512982
3722,9053;0,00492055
3723,8696;0,00469251
3724,8337;0,00451278
3725,7981;0,0044624
3726,7622;0,00458913
3727,7266;0,00488582
3728,6907;0,00530213
3729,6550;0,00576093
3730,6191;0,00616145
3731,5835;0,00637831
3732,5476;0,00628677
3733,5120;0,00584793
3734,4761;0,00521744
3735,4404;0,00470882
3736,4045;0,00455971
3737,3689;0,00478965
3738,3330;0,00528601
3739,2974;0,00591572
3740,2615;0,00654794
3741,2258;0,00703709
3742,1899;0,00724129
3743,1543;0,00712293
3744,1184;0,00685332
3745,0828;0,00670592
3746,0469;0,00679494
3747,0112;0,00700838
3747,9753;0,00712792
3748,9397;0,00695467
3749,9038;0,00645534
3750,8682;0,00586749
3751,8323;0,00551367
3752,7966;0,00548947
3753,7607;0,00567111
3754,7251;0,00589403
3755,6892;0,00603206
3756,6536;0,00601427
3757,6177;0,00585064
3758,5820;0,00564059
3759,5461;0,00551053
3760,5105;0,0055226
3761,4746;0,00565227
3762,4390;0,00583301
3763,4031;0,00600129
3764,3674;0,00611528
3765,3315;0,00615519
3766,2959;0,00611461
3767,2600;0,00599309
3768,2244;0,00580167
3769,1885;0,00557955
3770,1528;0,00539696
3771,1169;0,00532587
3772,0813;0,00539836
3773,0454;0,00559092
3774,0098;0,0058387
3774,9739;0,00605843
3775,9382;0,00617162
3776,9023;0,0061357
3777,8667;0,00597591
3778,8308;0,00578038
3779,7952;0,00563938
3780,7593;0,00558395
3781,7236;0,00558567
3782,6877;0,00559824
3783,6521;0,00559196
3784,6162;0,00556382
3785,5806;0,00552844
3786,5447;0,00550347
3787,5090;0,00550132
3788,4731;0,0055303
3789,4375;0,00559664
3790,4016;0,00570118
3791,3660;0,00583432
3792,3301;0,00597768
3793,2944;0,00611556
3794,2585;0,00624872
3795,2229;0,00639401
3796,1870;0,00656096
3797,1514;0,00672175
3798,1155;0,00680583
3799,0798;0,00673848
3800,0439;0,00651222
3801,0083;0,00622826
3801,9724;0,00602668
3802,9368;0,0059579
3803,9009;0,00595034
3804,8652;0,00588774
3805,8293;0,0057051
3806,7937;0,00545166
3807,7578;0,00527154
3808,7222;0,00529207
3809,6863;0,00553359
3810,6506;0,00592252
3811,6147;0,00634483
3812,5791;0,00668336
3813,5432;0,00685604
3814,5076;0,00686608
3815,4717;0,00680771
3816,4360;0,00677594
3817,4001;0,00676667
3818,3645;0,0066857
3819,3286;0,00644843
3820,2930;0,00607938
3821,2571;0,00571583
3822,2214;0,00548956
3823,1855;0,0054282
3824,1499;0,00548146
3825,1140;0,00559037
3826,0784;0,00572
3827,0425;0,00585897
3828,0068;0,00600665
3828,9709;0,00616125
3829,9353;0,00631742
3830,8994;0,00647321
3831,8638;0,00663437
3832,8279;0,00680491
3833,7922;0,00696701
3834,7563;0,00706779
3835,7207;0,00703311
3836,6848;0,0068151
3837,6492;0,00644652
3838,6133;0,00603929
3839,5776;0,00570638
3840,5417;0,00548974
3841,5061;0,00536846
3842,4702;0,00531242
3843,4346;0,00531984
3844,3987;0,00541985
3845,3630;0,00565121
3846,3271;0,00603767
3847,2915;0,00657273
3848,2556;0,00720751
3849,2200;0,00782874
3850,1841;0,00823027
3851,1484;0,00813448
3852,1125;0,00739296
3853,0769;0,0063096
3854,0410;0,00547789
3855,0054;0,00515198
3855,9695;0,00520106
3856,9338;0,00544795
3857,8979;0,0057817
3858,8623;0,00612227
3859,8264;0,00639158
3860,7908;0,0065242
3861,7549;0,00650716
3862,7192;0,00640858
3863,6833;0,0063416
3864,6477;0,00637853
3865,6118;0,00650457
3866,5762;0,0066427
3867,5403;0,00670103
3868,5046;0,00661276
3869,4688;0,00636945
3870,4331;0,00603589
3871,3972;0,00572307
3872,3616;0,00552991
3873,3257;0,00550065
3874,2900;0,0056206
3875,2542;0,00583427
3876,2185;0,00606601
3877,1826;0,00624111
3878,1470;0,00631141
3879,1111;0,00628054
3880,0754;0,00620341
3881,0396;0,00614176
3882,0039;0,00611176
3882,9680;0,00608311
3883,9324;0,00602912
3884,8965;0,00596872
3885,8608;0,00595197
3886,8250;0,00600332
3887,7893;0,00608498
3888,7534;0,00611364
3889,7178;0,00601639
3890,6819;0,00579931
3891,6462;0,00557613
3892,6104;0,00549565
3893,5747;0,00562486
3894,5388;0,00592065
3895,5032;0,00628572
3896,4673;0,0066206
3897,4316;0,00684953
3898,3958;0,00693709
3899,3601;0,00688936
3900,3242;0,0067284
3901,2886;0,00646598
3902,2527;0,00611777
3903,2170;0,00573855
3904,1812;0,00541668
3905,1455;0,00522066
3906,1096;0,00516062
3907,0740;0,00520051
3908,0381;0,00529232
3909,0024;0,00540092
3909,9666;0,00551325
3910,9309;0,00563411
3911,8950;0,00577081
3912,8594;0,00591519
3913,8235;0,00603617
3914,7878;0,00609179
3915,7520;0,00605798
3916,7163;0,00595536
3917,6804;0,0058443
3918,6448;0,00578237
3919,6089;0,00578291
3920,5732;0,00581282
3921,5374;0,0058211
3922,5017;0,0057742
3923,4658;0,00568111
3924,4302;0,00559127
3925,3943;0,00555918
3926,3586;0,00560332
3927,3228;0,00569421
3928,2871;0,00577372
3929,2512;0,0057869
3930,2156;0,00571301
3931,1797;0,00558128
3932,1440;0,00545416
3933,1082;0,00538599
3934,0725;0,00539509
3935,0366;0,00546799
3936,0010;0,00557772
3936,9651;0,00569547
3937,9294;0,00579401
3938,8936;0,00585005
3939,8579;0,0058514
3940,8220;0,00580678
3941,7864;0,00574772
3942,7505;0,00571311
3943,7148;0,00572347
3944,6790;0,00576712
3945,6433;0,00580863
3946,6074;0,00581115
3947,5718;0,005759
3948,5359;0,00566825
3949,5002;0,00557667
3950,4644;0,0055177
3951,4287;0,00550059
3952,3928;0,00551182
3953,3572;0,00553094
3954,3213;0,00554493
3955,2856;0,00555256
3956,2498;0,00555911
3957,2141;0,00556738
3958,1782;0,00557318
3959,1426;0,00556877
3960,1067;0,00555045
3961,0710;0,00552335
3962,0352;0,0054991
3962,9995;0,00548827
3963,9636;0,00549432
3964,9280;0,00551303
3965,8921;0,0055369
3966,8564;0,00555953
3967,8206;0,00557721
3968,7849;0,00558764
3969,7490;0,00558802
3970,7134;0,00557536
3971,6775;0,00554933
3972,6418;0,00551513
3973,6060;0,00548324
3974,5703;0,00546483
3975,5344;0,00546558
3976,4988;0,00548236
3977,4629;0,00550563
3978,4272;0,00552572
3979,3914;0,00553851
3980,3557;0,00554676
3981,3198;0,00555666
3982,2842;0,00557216
3983,2483;0,00559138
3984,2126;0,00560775
3985,1768;0,00561479
3986,1411;0,00561068
3987,1052;0,00559938
3988,0696;0,00558779
3989,0337;0,0055809
3989,9980;0,00557879
3990,9622;0,00557716
3991,9265;0,00557119
3992,8906;0,00555965
3993,8550;0,00554634
3994,8191;0,00553758
3995,7834;0,00553767
3996,7476;0,00554553
3997,7119;0,00555498
3998,6760;0,0055584
3999,6404;0,00555128
4000,6045;0,00538915

##### Extended Information
[Comments]
Sample name
Comment
Username
Division
Organization;UNIVERSIDAD INDUSTRIAL DE SANTANDER

[Detailed Information]
Creation date;25/02/2025 6:36 p.m.

Data array type;Linear data array
Horizontal axis;Wavenumber [cm-1]
Vertical axis;Abs
Start;399,193 cm-1
End;4000,6 cm-1
Data interval;0,964233 cm-1
Data points;3736    

[Measurement Information]
Model name;FT/IR-4X1typeA
Serial No.;A035162111

Accessory;ATR PRO 4X
Accessory S/N;A021162126
Incident angle;45 deg

Measurement date;25/02/2025 6:24 p.m.

Light source;Standard
Detector;TGS
Accumulation;40
Resolution;4 cm-1
Zero filling;On
Apodization;Cosine
Gain;Auto (8)
Aperture;Auto (7 mm)
Scan speed;Auto (2 mm/sec)
Filter;Auto (12800 Hz)

