TITLE;
DATA TYPE;INFRARED SPECTRUM
ORIGIN;JASCO
OWNER;
DATE;25/02/25
TIME;18:23:14
SPECTROMETER/DATA SYSTEM;
LOCALE;9226
RESOLUTION;
DELTAX;0,964233
XUNITS;1/CM
YUNITS;ABSORBANCE
FIRSTX;  399,1927
LASTX; 4000,6047
NPOINTS;    3736
FIRSTY;     0,11425
MAXY;     0,11425
MINY;     0,00577
XYDATA
399,1927;0,114247
400,1569;0,113914
401,1211;0,113897
402,0854;0,113971
403,0496;0,113947
404,0138;0,113742
404,9781;0,113386
405,9423;0,113012
406,9065;0,112774
407,8708;0,112746
408,8350;0,112864
409,7992;0,112952
410,7635;0,112823
411,7277;0,11241
412,6919;0,111833
413,6562;0,111326
414,6204;0,111109
415,5846;0,111286
416,5489;0,111785
417,5131;0,112303
418,4773;0,112372
419,4416;0,111756
420,4058;0,110779
421,3700;0,10997
422,3343;0,109589
423,2985;0,109589
424,2627;0,109775
425,2270;0,109938
426,1912;0,109953
427,1554;0,109819
428,1197;0,109621
429,0839;0,109457
430,0481;0,109378
431,0124;0,109382
431,9766;0,109434
432,9408;0,109501
433,9051;0,10956
434,8693;0,109602
435,8335;0,109626
436,7978;0,109646
437,7620;0,109679
438,7262;0,109738
439,6905;0,109812
440,6547;0,109867
441,6189;0,109854
442,5832;0,10974
443,5474;0,109536
444,5116;0,109302
445,4759;0,109115
446,4401;0,109043
447,4043;0,109121
448,3686;0,109346
449,3328;0,109664
450,2970;0,109968
451,2613;0,110115
452,2255;0,109984
453,1897;0,109532
454,1540;0,10883
455,1182;0,10805
456,0824;0,107428
457,0467;0,107184
458,0109;0,1074
458,9751;0,10795
459,9394;0,108566
460,9036;0,109009
461,8678;0,109179
462,8321;0,109107
463,7963;0,108906
464,7605;0,108706
465,7248;0,108596
466,6890;0,108581
467,6532;0,108599
468,6175;0,10857
469,5817;0,108456
470,5459;0,108273
471,5102;0,108057
472,4744;0,107819
473,4386;0,107523
474,4029;0,107131
475,3671;0,10666
476,3313;0,106201
477,2956;0,10587
478,2598;0,105737
479,2240;0,10578
480,1883;0,105885
481,1525;0,105911
482,1167;0,105768
483,0810;0,105469
484,0452;0,105117
485,0094;0,104836
485,9737;0,104703
486,9379;0,104713
487,9021;0,10481
488,8664;0,104934
489,8306;0,105045
490,7948;0,105127
491,7591;0,105181
492,7233;0,105214
493,6875;0,10524
494,6518;0,105266
495,6160;0,105287
496,5802;0,105279
497,5445;0,105201
498,5087;0,105017
499,4729;0,104714
500,4372;0,104331
501,4014;0,103957
502,3656;0,103703
503,3299;0,103647
504,2941;0,103786
505,2583;0,104044
506,2226;0,104301
507,1868;0,104458
508,1510;0,104469
509,1153;0,104367
510,0795;0,104238
511,0437;0,104171
512,0080;0,10421
512,9722;0,104336
513,9365;0,104481
514,9007;0,104572
515,8649;0,104563
516,8292;0,104459
517,7934;0,104304
518,7576;0,104143
519,7219;0,103992
520,6861;0,103838
521,6503;0,103673
522,6146;0,103518
523,5788;0,103427
524,5430;0,103463
525,5073;0,103647
526,4715;0,103923
527,4357;0,104166
528,4000;0,104244
529,3642;0,104081
530,3284;0,103685
531,2927;0,103139
532,2569;0,102571
533,2211;0,1021
534,1854;0,101797
535,1496;0,101653
536,1138;0,101598
537,0781;0,10155
538,0423;0,101459
539,0065;0,101326
539,9708;0,101184
540,9350;0,101067
541,8992;0,100976
542,8635;0,100893
543,8277;0,100794
544,7919;0,100677
545,7562;0,10056
546,7204;0,100461
547,6846;0,100376
548,6489;0,100276
549,6131;0,100132
550,5773;0,0999453
551,5416;0,0997539
552,5058;0,0996216
553,4700;0,0996033
554,4343;0,0997145
555,3985;0,0999188
556,3627;0,100136
557,3270;0,100268
558,2912;0,100231
559,2554;0,0999851
560,2197;0,0995495
561,1839;0,0989922
562,1481;0,0984019
563,1124;0,0978506
564,0766;0,097368
565,0408;0,096943
566,0051;0,0965486
566,9693;0,0961692
567,9335;0,0958108
568,8978;0,0954882
569,8620;0,0952032
570,8262;0,0949387
571,7905;0,0946729
572,7547;0,0944017
573,7189;0,0941478
574,6832;0,0939478
575,6474;0,0938263
576,6116;0,0937751
577,5759;0,0937551
578,5401;0,0937179
579,5043;0,0936293
580,4686;0,093479
581,4328;0,0932746
582,3970;0,0930302
583,3613;0,0927586
584,3255;0,092472
585,2897;0,0921858
586,2540;0,0919218
587,2182;0,0917058
588,1824;0,0915614
589,1467;0,0915009
590,1109;0,0915152
591,0751;0,0915681
592,0394;0,0916028
593,0036;0,0915633
593,9678;0,0914219
594,9321;0,0911918
595,8963;0,090917
596,8605;0,0906456
597,8248;0,0904054
598,7890;0,0901942
599,7532;0,0899882
600,7175;0,089762
601,6817;0,0895043
602,6459;0,0892187
603,6102;0,0889124
604,5744;0,0885881
605,5386;0,0882458
606,5029;0,0878939
607,4671;0,0875547
608,4313;0,0872569
609,3956;0,087016
610,3598;0,0868169
611,3240;0,0866147
612,2883;0,0863571
613,2525;0,0860153
614,2167;0,0856045
615,1810;0,0851792
616,1452;0,0848059
617,1094;0,0845236
618,0737;0,0843168
619,0379;0,0841246
620,0021;0,0838793
620,9664;0,0835461
621,9306;0,0831363
622,8948;0,082694
623,8591;0,0822691
624,8233;0,0818966
625,7875;0,0815694
626,7518;0,0812657
627,7160;0,0809621
628,6802;0,0806503
629,6445;0,0803393
630,6087;0,0800466
631,5729;0,0797846
632,5372;0,079553
633,5014;0,0793387
634,4656;0,0791235
635,4299;0,0788949
636,3941;0,0786557
637,3583;0,0784241
638,3226;0,078225
639,2868;0,0780734
640,2510;0,0779602
641,2153;0,0778496
642,1795;0,0776919
643,1437;0,0774484
644,1080;0,0771121
645,0722;0,0767117
646,0364;0,0762973
647,0007;0,0759159
647,9649;0,0755937
648,9291;0,0753299
649,8934;0,0751065
650,8576;0,0749028
651,8218;0,0747064
652,7861;0,074517
653,7503;0,0743433
654,7145;0,0741983
655,6788;0,0740917
656,6430;0,0740224
657,6072;0,0739761
658,5715;0,0739311
659,5357;0,0738711
660,4999;0,0737958
661,4642;0,0737195
662,4284;0,0736554
663,3926;0,073597
664,3569;0,0735028
665,3211;0,0732806
666,2853;0,0727904
667,2496;0,0719391
668,2138;0,0709054
669,1780;0,0701199
670,1423;0,0697415
671,1065;0,0695489
672,0707;0,0693161
673,0350;0,0689451
673,9992;0,0684208
674,9634;0,0677812
675,9277;0,0671023
676,8919;0,0664645
677,8561;0,0659113
678,8204;0,0654412
679,7846;0,0650345
680,7488;0,0646796
681,7131;0,0643771
682,6773;0,0641307
683,6415;0,0639372
684,6058;0,0637859
685,5700;0,0636611
686,5342;0,0635462
687,4985;0,0634281
688,4627;0,0633027
689,4269;0,0631815
690,3912;0,0630863
691,3554;0,0630354
692,3196;0,0630284
693,2839;0,0630414
694,2481;0,0630381
695,2123;0,0629883
696,1766;0,0628831
697,1408;0,0627385
698,1050;0,0625844
699,0693;0,0624508
700,0335;0,0623562
700,9977;0,0623048
701,9620;0,0622886
702,9262;0,0622906
703,8904;0,0622906
704,8547;0,0622668
705,8189;0,0622033
706,7831;0,0620933
707,7474;0,0619391
708,7116;0,0617488
709,6758;0,0615325
710,6401;0,0613018
711,6043;0,0610698
712,5685;0,0608482
713,5328;0,060641
714,4970;0,0604383
715,4612;0,0603014
716,4255;0,0600232
717,3897;0,0596941
718,3539;0,0593437
719,3182;0,0590271
720,2824;0,0587967
721,2466;0,058668
722,2109;0,0586079
723,1751;0,0585553
724,1393;0,0584556
725,1036;0,0582835
726,0678;0,0580442
727,0320;0,057761
727,9963;0,0574591
728,9605;0,0571576
729,9247;0,0568704
730,8890;0,0566101
731,8532;0,0563893
732,8174;0,0562158
733,7817;0,0560873
734,7459;0,0559902
735,7101;0,0559034
736,6744;0,0558042
737,6386;0,0556717
738,6028;0,0554906
739,5671;0,0552558
740,5313;0,0549781
741,4955;0,0546858
742,4598;0,054417
743,4240;0,0542036
744,3882;0,0540548
745,3525;0,053952
746,3167;0,0538573
747,2809;0,0537322
748,2452;0,0535547
749,2094;0,0533271
750,1736;0,0530728
751,1379;0,0528263
752,1021;0,0526219
753,0663;0,0524834
754,0306;0,052417
754,9948;0,0524075
755,9590;0,0524227
756,9233;0,0524247
757,8875;0,0523866
758,8517;0,0523031
759,8160;0,0521902
760,7802;0,0520733
761,7444;0,0519723
762,7087;0,0518928
763,6729;0,0518293
764,6371;0,0517748
765,6014;0,051729
766,5656;0,0516974
767,5298;0,0516848
768,4941;0,0516884
769,4583;0,051699
770,4225;0,0517069
771,3868;0,0517082
772,3510;0,0517055
773,3152;0,0517024
774,2795;0,0516987
775,2437;0,0516902
776,2079;0,0516729
777,1722;0,0516475
778,1364;0,0516173
779,1006;0,0515814
780,0649;0,0515299
781,0291;0,0514456
781,9933;0,0513139
782,9576;0,0511341
783,9218;0,0509228
784,8860;0,0507077
785,8503;0,050516
786,8145;0,0503638
787,7787;0,0502543
788,7430;0,050181
789,7072;0,0501329
790,6714;0,0500981
791,6357;0,0500636
792,5999;0,0500176
793,5641;0,0499529
794,5284;0,0498723
795,4926;0,0497899
796,4568;0,0497269
797,4211;0,0497023
798,3853;0,049724
799,3495;0,0497857
800,3138;0,0498721
801,2780;0,0499678
802,2422;0,0500646
803,2065;0,0501616
804,1707;0,05026
805,1349;0,0503555
806,0992;0,0504362
807,0634;0,050487
808,0276;0,0504982
808,9919;0,0504725
809,9561;0,0504254
810,9203;0,050379
811,8846;0,0503527
812,8488;0,0503567
813,8130;0,0503902
814,7773;0,0504442
815,7415;0,0505068
816,7057;0,0505679
817,6700;0,0506227
818,6342;0,0506734
819,5984;0,0507283
820,5627;0,0507982
821,5269;0,050892
822,4911;0,0510126
823,4554;0,0511561
824,4196;0,051313
825,3839;0,0514717
826,3481;0,0516198
827,3123;0,0517444
828,2766;0,0518321
829,2408;0,0518718
830,2050;0,0518586
831,1693;0,0517973
832,1335;0,0517001
833,0977;0,0515795
834,0620;0,0514385
835,0262;0,0512653
835,9904;0,0510363
836,9547;0,0507277
837,9189;0,0503284
838,8831;0,0498482
839,8474;0,0493161
840,8116;0,0487706
841,7758;0,0482463
842,7401;0,0477651
843,7043;0,0473339
844,6685;0,0469477
845,6328;0,0465952
846,5970;0,0462631
847,5612;0,0459387
848,5255;0,0456116
849,4897;0,0452762
850,4539;0,0449343
851,4182;0,0445956
852,3824;0,0442743
853,3466;0,0439832
854,3109;0,0437279
855,2751;0,0435064
856,2393;0,043312
857,2036;0,0431393
858,1678;0,0429874
859,1320;0,0428588
860,0963;0,0427552
861,0605;0,0426736
862,0247;0,0426066
862,9890;0,0425454
863,9532;0,0424847
864,9174;0,0424252
865,8817;0,0423729
866,8459;0,0423375
867,8101;0,04233
868,7744;0,0423616
869,7386;0,0424409
870,7028;0,0425706
871,6671;0,042743
872,6313;0,0429381
873,5955;0,043127
874,5598;0,04328
875,5240;0,043377
876,4882;0,0434153
877,4525;0,0434106
878,4167;0,0433908
879,3809;0,0433854
880,3452;0,0434162
881,3094;0,0434925
882,2736;0,0436125
883,2379;0,0437686
884,2021;0,0439538
885,1663;0,0441644
886,1306;0,0444001
887,0948;0,0446612
888,0590;0,0449463
889,0233;0,0452502
889,9875;0,0455649
890,9517;0,0458786
891,9160;0,0461766
892,8802;0,046441
893,8444;0,0466525
894,8087;0,0467946
895,7729;0,0468576
896,7371;0,0468401
897,7014;0,0467475
898,6656;0,0465867
899,6298;0,0463616
900,5941;0,0460727
901,5583;0,045722
902,5225;0,0453194
903,4868;0,0448873
904,4510;0,044458
905,4152;0,0440656
906,3795;0,0437357
907,3437;0,0434782
908,3079;0,0432881
909,2722;0,0431511
910,2364;0,043052
911,2007;0,0429802
912,1649;0,0429313
913,1292;0,0429054
914,0934;0,0429048
915,0576;0,0429324
916,0219;0,0429912
916,9861;0,0430825
917,9503;0,0432045
918,9146;0,0433507
919,8788;0,0435104
920,8430;0,0436731
921,8073;0,0438329
922,7715;0,0439918
923,7357;0,0441584
924,7000;0,0443426
925,6642;0,04455
926,6284;0,0447797
927,5927;0,0450254
928,5569;0,0452797
929,5211;0,0455376
930,4854;0,0457982
931,4496;0,0460632
932,4138;0,0463357
933,3781;0,0466188
934,3423;0,0469158
935,3065;0,0472291
936,2708;0,0475595
937,2350;0,0479062
938,1992;0,0482683
939,1635;0,0486466
940,1277;0,0490456
941,0919;0,0494716
942,0562;0,0499297
943,0204;0,0504196
943,9846;0,0509364
944,9489;0,0514742
945,9131;0,0520315
946,8773;0,0526142
947,8416;0,0532334
948,8058;0,0538992
949,7700;0,0546149
950,7343;0,0553747
951,6985;0,0561666
952,6627;0,0569774
953,6270;0,0577973
954,5912;0,0586221
955,5554;0,0594525
956,5197;0,0602917
957,4839;0,0611425
958,4481;0,062004
959,4124;0,0628705
960,3766;0,0637318
961,3408;0,0645772
962,3051;0,0654002
963,2693;0,0662024
964,2335;0,0669936
965,1978;0,0677877
966,1620;0,0685959
967,1262;0,0694223
968,0905;0,0702637
969,0547;0,0711135
970,0189;0,0719672
970,9832;0,0728253
971,9474;0,0736909
972,9116;0,0745643
973,8759;0,0754381
974,8401;0,0762968
975,8043;0,0771222
976,7686;0,0779014
977,7328;0,0786324
978,6970;0,0793235
979,6613;0,079987
980,6255;0,0806327
981,5897;0,0812642
982,5540;0,0818794
983,5182;0,0824748
984,4824;0,0830469
985,4467;0,0835914
986,4109;0,0841015
987,3751;0,0845678
988,3394;0,0849817
989,3036;0,08534
990,2678;0,0856465
991,2321;0,0859093
992,1963;0,0861355
993,1605;0,0863278
994,1248;0,0864855
995,0890;0,08661
996,0532;0,0867095
997,0175;0,0867995
997,9817;0,0868986
998,9459;0,0870229
999,9102;0,0871828
1000,8744;0,0873846
1001,8386;0,0876333
1002,8029;0,0879345
1003,7671;0,088293
1004,7313;0,0887095
1005,6956;0,0891798
1006,6598;0,0896978
1007,6240;0,0902612
1008,5883;0,0908736
1009,5525;0,0915405
1010,5167;0,092261
1011,4810;0,0930194
1012,4452;0,0937848
1013,4094;0,0945205
1014,3737;0,0951963
1015,3379;0,0957985
1016,3021;0,096329
1017,2664;0,0967967
1018,2306;0,0972073
1019,1948;0,0975598
1020,1591;0,09785
1021,1233;0,0980785
1022,0875;0,0982549
1023,0518;0,098395
1024,0160;0,0985149
1024,9802;0,0986248
1025,9445;0,0987278
1026,9087;0,0988214
1027,8729;0,098899
1028,8372;0,0989498
1029,8014;0,0989566
1030,7656;0,0988979
1031,7299;0,098753
1032,6941;0,0985102
1033,6583;0,0981712
1034,6226;0,097751
1035,5868;0,0972727
1036,5510;0,0967611
1037,5153;0,0962401
1038,4795;0,095732
1039,4437;0,0952591
1040,4080;0,094841
1041,3722;0,0944906
1042,3364;0,0942091
1043,3007;0,0939834
1044,2649;0,0937896
1045,2291;0,0935977
1046,1934;0,0933795
1047,1576;0,093113
1048,1218;0,0927856
1049,0861;0,0923943
1050,0503;0,0919444
1051,0145;0,0914463
1051,9788;0,090912
1052,9430;0,0903516
1053,9072;0,0897697
1054,8715;0,0891653
1055,8357;0,0885316
1056,7999;0,0878583
1057,7642;0,0871349
1058,7284;0,086354
1059,6926;0,0855157
1060,6569;0,0846298
1061,6211;0,0837165
1062,5853;0,0828026
1063,5496;0,0819161
1064,5138;0,0810797
1065,4780;0,0803074
1066,4423;0,0796041
1067,4065;0,0789673
1068,3707;0,0783893
1069,3350;0,07786
1070,2992;0,0773672
1071,2634;0,0768984
1072,2277;0,0764418
1073,1919;0,0759873
1074,1561;0,0755266
1075,1204;0,0750529
1076,0846;0,0745619
1077,0488;0,074054
1078,0131;0,0735366
1078,9773;0,0730239
1079,9415;0,0725327
1080,9058;0,0720761
1081,8700;0,0716583
1082,8342;0,0712743
1083,7985;0,0709141
1084,7627;0,0705684
1085,7269;0,0702321
1086,6912;0,0699041
1087,6554;0,0695851
1088,6196;0,0692763
1089,5839;0,0689802
1090,5481;0,0687016
1091,5123;0,0684467
1092,4766;0,0682205
1093,4408;0,0680236
1094,4050;0,0678525
1095,3693;0,0677029
1096,3335;0,0675747
1097,2977;0,0674744
1098,2620;0,0674128
1099,2262;0,067399
1100,1904;0,0674333
1101,1547;0,0675038
1102,1189;0,0675877
1103,0831;0,067657
1104,0474;0,0676869
1105,0116;0,0676619
1105,9758;0,0675786
1106,9401;0,0674423
1107,9043;0,0672608
1108,8685;0,0670376
1109,8328;0,0667696
1110,7970;0,0664504
1111,7612;0,0660769
1112,7255;0,0656551
1113,6897;0,0652005
1114,6539;0,0647337
1115,6182;0,0642729
1116,5824;0,0638287
1117,5466;0,0634021
1118,5109;0,0629852
1119,4751;0,062564
1120,4393;0,0621206
1121,4036;0,0616362
1122,3678;0,0610939
1123,3320;0,0604825
1124,2963;0,0597984
1125,2605;0,0590452
1126,2247;0,0582315
1127,1890;0,0573684
1128,1532;0,0564683
1129,1174;0,0555447
1130,0817;0,0546135
1131,0459;0,0536924
1132,0101;0,0528013
1132,9744;0,0519605
1133,9386;0,0511908
1134,9028;0,0505117
1135,8671;0,0499401
1136,8313;0,0494879
1137,7955;0,0491609
1138,7598;0,0489585
1139,7240;0,0488749
1140,6882;0,0489014
1141,6525;0,0490272
1142,6167;0,0492403
1143,5809;0,0495279
1144,5452;0,0498773
1145,5094;0,0502779
1146,4736;0,0507223
1147,4379;0,0512075
1148,4021;0,0517329
1149,3663;0,0522975
1150,3306;0,0528966
1151,2948;0,0535192
1152,2590;0,054148
1153,2233;0,0547609
1154,1875;0,0553344
1155,1517;0,055846
1156,1160;0,0562755
1157,0802;0,0566054
1158,0444;0,0568198
1159,0087;0,0569041
1159,9729;0,0568447
1160,9371;0,0566297
1161,9014;0,0562511
1162,8656;0,0557068
1163,8298;0,0550035
1164,7941;0,054159
1165,7583;0,0532014
1166,7225;0,0521665
1167,6868;0,0510923
1168,6510;0,0500132
1169,6152;0,048956
1170,5795;0,0479385
1171,5437;0,0469715
1172,5079;0,0460618
1173,4722;0,0452148
1174,4364;0,0444361
1175,4006;0,0437325
1176,3649;0,0431103
1177,3291;0,0425736
1178,2933;0,0421206
1179,2576;0,0417408
1180,2218;0,0414158
1181,1860;0,0411226
1182,1503;0,0408411
1183,1145;0,0405595
1184,0787;0,0402765
1185,0430;0,0399981
1186,0072;0,0397329
1186,9714;0,0394887
1187,9357;0,0392712
1188,8999;0,0390856
1189,8641;0,0389375
1190,8284;0,0388329
1191,7926;0,0387769
1192,7568;0,0387718
1193,7211;0,0388166
1194,6853;0,0389075
1195,6495;0,0390389
1196,6138;0,0392045
1197,5780;0,0393981
1198,5422;0,0396153
1199,5065;0,0398681
1200,4707;0,0401248
1201,4349;0,0403993
1202,3992;0,0406874
1203,3634;0,0409815
1204,3276;0,0412732
1205,2919;0,0415568
1206,2561;0,0418315
1207,2203;0,0421021
1208,1846;0,0423761
1209,1488;0,0426616
1210,1130;0,0429643
1211,0773;0,0432872
1212,0415;0,0436307
1213,0057;0,0439929
1213,9700;0,0443697
1214,9342;0,0447549
1215,8984;0,0451417
1216,8627;0,0455234
1217,8269;0,0458958
1218,7911;0,0462567
1219,7554;0,0466052
1220,7196;0,0469403
1221,6838;0,0472603
1222,6481;0,0475634
1223,6123;0,0478492
1224,5765;0,0481202
1225,5408;0,048381
1226,5050;0,0486359
1227,4692;0,0488865
1228,4335;0,0491297
1229,3977;0,0493596
1230,3619;0,04957
1231,3262;0,0497568
1232,2904;0,0499197
1233,2546;0,0500604
1234,2189;0,0501807
1235,1831;0,0502814
1236,1473;0,0503623
1237,1116;0,0504235
1238,0758;0,0504663
1239,0400;0,0504932
1240,0043;0,050507
1240,9685;0,0505095
1241,9327;0,0505007
1242,8970;0,0504782
1243,8612;0,0504371
1244,8254;0,0503718
1245,7897;0,0502777
1246,7539;0,0501551
1247,7181;0,0500107
1248,6824;0,0498573
1249,6466;0,0497098
1250,6108;0,0495797
1251,5751;0,0494708
1252,5393;0,049378
1253,5035;0,0492903
1254,4678;0,0491955
1255,4320;0,0490849
1256,3962;0,0489558
1257,3605;0,0488105
1258,3247;0,0486544
1259,2889;0,0484919
1260,2532;0,048324
1261,2174;0,0481469
1262,1816;0,0479545
1263,1459;0,0477413
1264,1101;0,0475058
1265,0743;0,0472509
1266,0386;0,046982
1267,0028;0,0467037
1267,9670;0,0464183
1268,9313;0,0461274
1269,8955;0,0458332
1270,8597;0,0455406
1271,8240;0,0452551
1272,7882;0,0449802
1273,7524;0,0447155
1274,7167;0,0444584
1275,6809;0,044207
1276,6451;0,0439628
1277,6094;0,0437299
1278,5736;0,0435131
1279,5378;0,0433144
1280,5021;0,0431335
1281,4663;0,0429696
1282,4305;0,042824
1283,3948;0,0427004
1284,3590;0,0426022
1285,3232;0,0425296
1286,2875;0,0424786
1287,2517;0,0424417
1288,2159;0,0424113
1289,1802;0,042382
1290,1444;0,0423514
1291,1086;0,0423193
1292,0729;0,0422862
1293,0371;0,0422537
1294,0013;0,0422245
1294,9656;0,0422026
1295,9298;0,0421924
1296,8940;0,0421964
1297,8583;0,0422135
1298,8225;0,0422391
1299,7867;0,0422671
1300,7510;0,0422922
1301,7152;0,0423121
1302,6794;0,0423275
1303,6437;0,0423408
1304,6079;0,0423527
1305,5721;0,0423612
1306,5364;0,0423628
1307,5006;0,0423549
1308,4648;0,0423388
1309,4291;0,0423199
1310,3933;0,0423048
1311,3575;0,0422964
1312,3218;0,0422891
1313,2860;0,0422672
1314,2502;0,0422089
1315,2145;0,0420926
1316,1787;0,0419033
1317,1429;0,041638
1318,1072;0,0413065
1319,0714;0,0409297
1320,0356;0,0405334
1320,9999;0,0401404
1321,9641;0,0397656
1322,9283;0,0394156
1323,8926;0,0390922
1324,8568;0,0387943
1325,8210;0,0385198
1326,7853;0,038266
1327,7495;0,0380297
1328,7137;0,0378083
1329,6780;0,0375995
1330,6422;0,0374003
1331,6064;0,0372058
1332,5707;0,0370089
1333,5349;0,0368016
1334,4991;0,0365771
1335,4634;0,0363324
1336,4276;0,0360714
1337,3918;0,0358079
1338,3561;0,0355653
1339,3203;0,0353676
1340,2845;0,035224
1341,2488;0,0351243
1342,2130;0,0350482
1343,1772;0,0349793
1344,1415;0,0349117
1345,1057;0,0348492
1346,0699;0,034801
1347,0342;0,0347768
1347,9984;0,0347829
1348,9626;0,0348204
1349,9269;0,0348865
1350,8911;0,0349774
1351,8553;0,0350914
1352,8196;0,0352294
1353,7838;0,0353934
1354,7480;0,0355826
1355,7123;0,0357902
1356,6765;0,0360046
1357,6407;0,0362145
1358,6050;0,036415
1359,5692;0,0366085
1360,5334;0,0368025
1361,4977;0,037002
1362,4619;0,0372016
1363,4261;0,0373853
1364,3904;0,0375375
1365,3546;0,0376539
1366,3188;0,0377406
1367,2831;0,0378061
1368,2473;0,0378555
1369,2115;0,0378889
1370,1758;0,0379032
1371,1400;0,0378942
1372,1042;0,0378576
1373,0685;0,0377893
1374,0327;0,0376861
1374,9969;0,0375458
1375,9612;0,0373672
1376,9254;0,0371485
1377,8896;0,0368866
1378,8539;0,0365801
1379,8181;0,0362339
1380,7823;0,0358623
1381,7466;0,0354851
1382,7108;0,0351174
1383,6750;0,0347624
1384,6393;0,0344144
1385,6035;0,0340706
1386,5677;0,0337431
1387,5320;0,0334566
1388,4962;0,0332281
1389,4604;0,0330541
1390,4247;0,0329175
1391,3889;0,0328018
1392,3531;0,0326973
1393,3174;0,032603
1394,2816;0,0325263
1395,2458;0,0324792
1396,2101;0,0324705
1397,1743;0,0325019
1398,1385;0,0325681
1399,1028;0,0326589
1400,0670;0,0327618
1401,0313;0,0328661
1401,9955;0,0329675
1402,9597;0,0330709
1403,9240;0,0331893
1404,8882;0,0333368
1405,8524;0,0335192
1406,8167;0,0337295
1407,7809;0,0339569
1408,7451;0,0341972
1409,7094;0,0344543
1410,6736;0,0347323
1411,6378;0,0350253
1412,6021;0,0353172
1413,5663;0,0355942
1414,5305;0,0358562
1415,4948;0,036119
1416,4590;0,036405
1417,4232;0,0367253
1418,3875;0,0370561
1419,3517;0,037337
1420,3159;0,0375147
1421,2802;0,0375841
1422,2444;0,0375758
1423,2086;0,0375243
1424,1729;0,0374496
1425,1371;0,0373563
1426,1013;0,0372382
1427,0656;0,0370857
1428,0298;0,0368937
1428,9940;0,0366689
1429,9583;0,0364324
1430,9225;0,0362096
1431,8867;0,036016
1432,8510;0,0358505
1433,8152;0,0357024
1434,7794;0,0355643
1435,7437;0,0354462
1436,7079;0,0353736
1437,6721;0,0353617
1438,6364;0,0354015
1439,6006;0,0354784
1440,5648;0,035589
1441,5291;0,0357365
1442,4933;0,0359225
1443,4575;0,0361443
1444,4218;0,0363978
1445,3860;0,0366802
1446,3502;0,0369868
1447,3145;0,0373033
1448,2787;0,0376004
1449,2429;0,0378436
1450,2072;0,0380133
1451,1714;0,0381142
1452,1356;0,0381659
1453,0999;0,0381875
1454,0641;0,0381875
1455,0283;0,038169
1455,9926;0,0381494
1456,9568;0,0381612
1457,9210;0,0381927
1458,8853;0,0381789
1459,8495;0,0380894
1460,8137;0,0379398
1461,7780;0,0377414
1462,7422;0,0374782
1463,7064;0,0371181
1464,6707;0,0366485
1465,6349;0,0361019
1466,5991;0,035532
1467,5634;0,0349668
1468,5276;0,0343931
1469,4918;0,0337647
1470,4561;0,033021
1471,4203;0,032126
1472,3845;0,0311342
1473,3488;0,0302009
1474,3130;0,0294523
1475,2772;0,0288827
1476,2415;0,0284179
1477,2057;0,0280019
1478,1699;0,0276115
1479,1342;0,0272418
1480,0984;0,0268959
1481,0626;0,0265836
1482,0269;0,026319
1482,9911;0,0261138
1483,9553;0,0259681
1484,9196;0,0258663
1485,8838;0,0257814
1486,8480;0,0256893
1487,8123;0,0255953
1488,7765;0,0255501
1489,7407;0,025613
1490,7050;0,0257852
1491,6692;0,0260199
1492,6334;0,0262782
1493,5977;0,0265479
1494,5619;0,0268318
1495,5261;0,0271402
1496,4904;0,0274886
1497,4546;0,0278857
1498,4188;0,0283133
1499,3831;0,0287329
1500,3473;0,0291198
1501,3115;0,0294733
1502,2758;0,0297996
1503,2400;0,0300922
1504,2042;0,0303198
1505,1685;0,0304271
1506,1327;0,0303798
1507,0969;0,0302416
1508,0612;0,0301182
1509,0254;0,0300185
1509,9896;0,0299065
1510,9539;0,0297686
1511,9181;0,0295975
1512,8823;0,0293759
1513,8466;0,0290813
1514,8108;0,0287057
1515,7750;0,0282723
1516,7393;0,0278265
1517,7035;0,0273994
1518,6677;0,0269786
1519,6320;0,0265199
1520,5962;0,0259953
1521,5604;0,0254326
1522,5247;0,0248941
1523,4889;0,0244183
1524,4531;0,0239985
1525,4174;0,0236145
1526,3816;0,0232675
1527,3458;0,0229809
1528,3101;0,0227734
1529,2743;0,022635
1530,2385;0,0225265
1531,2028;0,0223999
1532,1670;0,022234
1533,1312;0,0220658
1534,0955;0,0219705
1535,0597;0,0219955
1536,0239;0,0221262
1536,9882;0,0223012
1537,9524;0,0224259
1538,9166;0,0223857
1539,8809;0,0221291
1540,8451;0,0218101
1541,8093;0,0216766
1542,7736;0,0217614
1543,7378;0,0219512
1544,7020;0,0221685
1545,6663;0,0223889
1546,6305;0,0226082
1547,5947;0,0228264
1548,5590;0,0230448
1549,5232;0,0232684
1550,4874;0,0235063
1551,4517;0,0237681
1552,4159;0,0240564
1553,3801;0,0243634
1554,3444;0,0246723
1555,3086;0,0249586
1556,2728;0,0251913
1557,2371;0,0253589
1558,2013;0,0255313
1559,1655;0,0258105
1560,1298;0,0261566
1561,0940;0,0264845
1562,0582;0,0267945
1563,0225;0,0271195
1563,9867;0,0274723
1564,9509;0,0278411
1565,9152;0,0282074
1566,8794;0,0285693
1567,8436;0,0289545
1568,8079;0,0293967
1569,7721;0,029888
1570,7363;0,0303744
1571,7006;0,0308116
1572,6648;0,0312054
1573,6290;0,0316059
1574,5933;0,0320851
1575,5575;0,0326965
1576,5217;0,0334104
1577,4860;0,0341104
1578,4502;0,0347131
1579,4144;0,0352395
1580,3787;0,0357602
1581,3429;0,036328
1582,3071;0,0369516
1583,2714;0,0376032
1584,2356;0,0382433
1585,1998;0,038848
1586,1641;0,0394161
1587,1283;0,0399551
1588,0925;0,0404651
1589,0568;0,0409369
1590,0210;0,0413599
1590,9852;0,0417298
1591,9495;0,0420461
1592,9137;0,0423075
1593,8779;0,0425091
1594,8422;0,0426476
1595,8064;0,0427254
1596,7706;0,0427511
1597,7349;0,0427365
1598,6991;0,0426937
1599,6633;0,0426344
1600,6276;0,0425696
1601,5918;0,0425066
1602,5560;0,0424469
1603,5203;0,0423863
1604,4845;0,0423204
1605,4487;0,0422497
1606,4130;0,0421804
1607,3772;0,0421192
1608,3414;0,0420657
1609,3057;0,0420102
1610,2699;0,0419401
1611,2341;0,041852
1612,1984;0,0417578
1613,1626;0,0416796
1614,1268;0,041643
1615,0911;0,0416667
1616,0553;0,0417406
1617,0195;0,0418072
1617,9838;0,041798
1618,9480;0,041694
1619,9122;0,0415253
1620,8765;0,041331
1621,8407;0,0411347
1622,8049;0,0409434
1623,7692;0,0407521
1624,7334;0,0405485
1625,6976;0,0403198
1626,6619;0,0400574
1627,6261;0,0397596
1628,5903;0,0394343
1629,5546;0,0390987
1630,5188;0,038772
1631,4830;0,0384636
1632,4473;0,0381634
1633,4115;0,0378433
1634,3757;0,0374792
1635,3400;0,0370869
1636,3042;0,0367092
1637,2684;0,0363437
1638,2327;0,0359462
1639,1969;0,0354971
1640,1611;0,035015
1641,1254;0,0345349
1642,0896;0,0340804
1643,0538;0,0336387
1644,0181;0,0331467
1644,9823;0,0325167
1645,9465;0,0317342
1646,9108;0,0309406
1647,8750;0,0303201
1648,8392;0,0299202
1649,8035;0,0296482
1650,7677;0,0293349
1651,7319;0,0287697
1652,6962;0,0278442
1653,6604;0,0268018
1654,6246;0,026009
1655,5889;0,0254991
1656,5531;0,0251323
1657,5173;0,0248149
1658,4816;0,0244996
1659,4458;0,0241491
1660,4100;0,0237317
1661,3743;0,0232484
1662,3385;0,0227574
1663,3027;0,0223404
1664,2670;0,0220375
1665,2312;0,0218259
1666,1954;0,0216402
1667,1597;0,0213989
1668,1239;0,0210407
1669,0881;0,0205806
1670,0524;0,0201235
1671,0166;0,0197739
1671,9808;0,0195408
1672,9451;0,019357
1673,9093;0,0191498
1674,8735;0,0188942
1675,8378;0,0186273
1676,8020;0,0184155
1677,7662;0,0182997
1678,7305;0,0182744
1679,6947;0,0182994
1680,6589;0,018306
1681,6232;0,0181982
1682,5874;0,017892
1683,5516;0,0174223
1684,5159;0,0169732
1685,4801;0,0166834
1686,4443;0,0165325
1687,4086;0,0164499
1688,3728;0,0163977
1689,3370;0,0163726
1690,3013;0,0163848
1691,2655;0,0164386
1692,2297;0,016522
1693,1940;0,0166062
1694,1582;0,0166546
1695,1224;0,0166374
1696,0867;0,0165455
1697,0509;0,0163941
1698,0151;0,0162135
1698,9794;0,0160397
1699,9436;0,0159073
1700,9078;0,0158392
1701,8721;0,0158392
1702,8363;0,0158964
1703,8005;0,0159937
1704,7648;0,0161144
1705,7290;0,0162467
1706,6932;0,0163869
1707,6575;0,0165373
1708,6217;0,0167017
1709,5859;0,0168824
1710,5502;0,017079
1711,5144;0,0172851
1712,4786;0,0174866
1713,4429;0,0176597
1714,4071;0,0177759
1715,3713;0,0178223
1716,3356;0,0178332
1717,2998;0,0178829
1718,2640;0,0180112
1719,2283;0,0181946
1720,1925;0,0184002
1721,1567;0,0186163
1722,1210;0,0188418
1723,0852;0,0190744
1724,0494;0,0193076
1725,0137;0,0195363
1725,9779;0,0197605
1726,9421;0,0199859
1727,9064;0,0202181
1728,8706;0,020454
1729,8348;0,0206735
1730,7991;0,0208342
1731,7633;0,020881
1732,7275;0,0207848
1733,6918;0,0205876
1734,6560;0,0203749
1735,6202;0,0201903
1736,5845;0,0200119
1737,5487;0,0197897
1738,5129;0,019478
1739,4772;0,019057
1740,4414;0,0185511
1741,4056;0,0180215
1742,3699;0,0175272
1743,3341;0,0170905
1744,2983;0,0166989
1745,2626;0,0163251
1746,2268;0,0159359
1747,1910;0,0154927
1748,1553;0,0149654
1749,1195;0,0143667
1750,0837;0,0137714
1751,0480;0,0132699
1752,0122;0,0128979
1752,9764;0,0126262
1753,9407;0,0123986
1754,9049;0,0121703
1755,8691;0,0119262
1756,8334;0,0116792
1757,7976;0,0114492
1758,7618;0,0112381
1759,7261;0,0110252
1760,6903;0,0107905
1761,6545;0,0105424
1762,6188;0,0103185
1763,5830;0,0101563
1764,5472;0,0100653
1765,5115;0,0100259
1766,4757;0,010006
1767,4399;0,0099743
1768,4042;0,00990449
1769,3684;0,00977263
1770,3326;0,00956185
1771,2969;0,0092831
1772,2611;0,00899385
1773,2253;0,00877332
1774,1896;0,00866598
1775,1538;0,00866031
1776,1180;0,00871298
1777,0823;0,00877729
1778,0465;0,00881873
1779,0107;0,00882283
1779,9750;0,00879549
1780,9392;0,00875191
1781,9034;0,00870199
1782,8677;0,00864809
1783,8319;0,00859645
1784,7961;0,00856554
1785,7604;0,00857821
1786,7246;0,0086429
1787,6888;0,00874071
1788,6531;0,00882618
1789,6173;0,00884102
1790,5815;0,00874374
1791,5458;0,00855188
1792,5100;0,0083527
1793,4742;0,0082382
1794,4385;0,00823194
1795,4027;0,00829549
1796,3669;0,00837483
1797,3312;0,00842714
1798,2954;0,0084285
1799,2596;0,00837812
1800,2239;0,00829816
1801,1881;0,00822167
1802,1523;0,00817432
1803,1166;0,00816519
1804,0808;0,00818995
1805,0450;0,00823633
1806,0093;0,0082863
1806,9735;0,00831753
1807,9377;0,00830881
1808,9020;0,00825033
1809,8662;0,00815365
1810,8304;0,00805003
1811,7947;0,00797293
1812,7589;0,00793826
1813,7231;0,00793952
1814,6874;0,00795835
1815,6516;0,00797941
1816,6158;0,0080002
1817,5801;0,00803092
1818,5443;0,00808339
1819,5085;0,0081575
1820,4728;0,00823736
1821,4370;0,00829987
1822,4012;0,00832834
1823,3655;0,00832264
1824,3297;0,00829806
1825,2939;0,00827072
1826,2582;0,00824095
1827,2224;0,00819198
1828,1866;0,00810796
1829,1509;0,00799762
1830,1151;0,00789983
1831,0793;0,00785688
1832,0436;0,00788026
1833,0078;0,00794606
1833,9720;0,00801622
1834,9363;0,00806104
1835,9005;0,00807396
1836,8647;0,0080748
1837,8290;0,00809515
1838,7932;0,00815253
1839,7574;0,00823479
1840,7217;0,00830407
1841,6859;0,00831373
1842,6501;0,00823509
1843,6144;0,00808711
1844,5786;0,00793736
1845,5428;0,00785238
1846,5071;0,0078481
1847,4713;0,00789568
1848,4355;0,00795614
1849,3998;0,00800269
1850,3640;0,00802583
1851,3282;0,00802968
1852,2925;0,00802465
1853,2567;0,00801976
1854,2209;0,0080183
1855,1852;0,0080176
1856,1494;0,00801148
1857,1136;0,00799382
1858,0779;0,00796325
1859,0421;0,00792745
1860,0063;0,00790385
1860,9706;0,0079134
1861,9348;0,00796894
1862,8990;0,00806514
1863,8633;0,00817674
1864,8275;0,00826504
1865,7917;0,00828993
1866,7560;0,00822817
1867,7202;0,00809428
1868,6844;0,00794308
1869,6487;0,00783546
1870,6129;0,00779777
1871,5771;0,00781898
1872,5414;0,00787435
1873,5056;0,00794254
1874,4698;0,0080092
1875,4341;0,00806536
1876,3983;0,00810532
1877,3625;0,00812546
1878,3268;0,00812443
1879,2910;0,00810485
1880,2552;0,00807507
1881,2195;0,00804854
1882,1837;0,00803893
1883,1479;0,00805207
1884,1122;0,00808015
1885,0764;0,0081035
1886,0406;0,00810064
1887,0049;0,00806188
1887,9691;0,00799957
1888,9333;0,00794632
1889,8976;0,00793702
1890,8618;0,00798626
1891,8260;0,00808088
1892,7903;0,00819155
1893,7545;0,00828912
1894,7188;0,00835438
1895,6830;0,00837975
1896,6472;0,00836638
1897,6115;0,0083209
1898,5757;0,00825429
1899,5399;0,00818247
1900,5042;0,00812476
1901,4684;0,00809786
1902,4326;0,00810734
1903,3969;0,00814272
1904,3611;0,00818189
1905,3253;0,00820285
1906,2896;0,00819479
1907,2538;0,00816205
1908,2180;0,00812011
1909,1823;0,00808625
1910,1465;0,00807025
1911,1107;0,00807085
1912,0750;0,00808026
1913,0392;0,00809165
1914,0034;0,00810386
1914,9677;0,00812168
1915,9319;0,00815238
1916,8961;0,00819887
1917,8604;0,00825214
1918,8246;0,00829112
1919,7888;0,00829412
1920,7531;0,00825405
1921,7173;0,0081853
1922,6815;0,00811816
1923,6458;0,00808255
1924,6100;0,0080895
1925,5742;0,00812441
1926,5385;0,00815807
1927,5027;0,00816571
1928,4669;0,00814021
1929,4312;0,00809442
1930,3954;0,00805409
1931,3596;0,0080459
1932,3239;0,00808736
1933,2881;0,00818182
1934,2523;0,00831786
1935,2166;0,00847121
1936,1808;0,00861022
1937,1450;0,00870529
1938,1093;0,00873859
1939,0735;0,00870864
1940,0377;0,0086284
1941,0020;0,00851937
1941,9662;0,00840386
1942,9304;0,00829834
1943,8947;0,00821152
1944,8589;0,00814867
1945,8231;0,00811657
1946,7874;0,00812284
1947,7516;0,00816927
1948,7158;0,00824449
1949,6801;0,00832204
1950,6443;0,00836771
1951,6085;0,0083547
1952,5728;0,00827915
1953,5370;0,00816739
1954,5012;0,00806877
1955,4655;0,0080349
1956,4297;0,00809419
1957,3939;0,00823521
1958,3582;0,00840965
1959,3224;0,00855562
1960,2866;0,00863096
1961,2509;0,0086374
1962,2151;0,00861868
1963,1793;0,00863314
1964,1436;0,00871862
1965,1078;0,00886933
1966,0720;0,00903546
1967,0363;0,00914695
1968,0005;0,00915115
1968,9647;0,00904147
1969,9290;0,00885854
1970,8932;0,00866884
1971,8574;0,00854022
1972,8217;0,00852632
1973,7859;0,00865781
1974,7501;0,00893326
1975,7144;0,00930821
1976,6786;0,00969491
1977,6428;0,00998812
1978,6071;0,0101136
1979,5713;0,0100687
1980,5355;0,00992217
1981,4998;0,00977437
1982,4640;0,00970345
1983,4282;0,00972774
1984,3925;0,00980109
1985,3567;0,00984312
1986,3209;0,0097874
1987,2852;0,00961751
1988,2494;0,00937022
1989,2136;0,0091103
1990,1779;0,00889926
1991,1421;0,00877649
1992,1063;0,00875764
1993,0706;0,00884118
1994,0348;0,00901158
1994,9990;0,00923553
1995,9633;0,00945886
1996,9275;0,00961478
1997,8917;0,00964709
1998,8560;0,00953969
1999,8202;0,00933332
2000,7844;0,00911376
2001,7487;0,00897464
2002,7129;0,00897551
2003,6771;0,00911543
2004,6414;0,00933087
2005,6056;0,00951947
2006,5698;0,00958549
2007,5341;0,00949048
2008,4983;0,0092801
2009,4625;0,00906563
2010,4268;0,00896777
2011,3910;0,00905568
2012,3552;0,00931405
2013,3195;0,00965274
2014,2837;0,00995226
2015,2479;0,0101235
2016,2122;0,0101518
2017,1764;0,0100983
2018,1406;0,010054
2019,1049;0,0100782
2020,0691;0,0101648
2021,0333;0,0102539
2021,9976;0,0102754
2022,9618;0,0101934
2023,9260;0,0100264
2024,8903;0,00983406
2025,8545;0,00967801
2026,8187;0,00958423
2027,7830;0,0095303
2028,7472;0,00946637
2029,7114;0,00935573
2030,6757;0,00920856
2031,6399;0,00908576
2032,6041;0,00906842
2033,5684;0,00921054
2034,5326;0,00950598
2035,4968;0,00989128
2036,4611;0,0102797
2037,4253;0,010599
2038,3895;0,0108091
2039,3538;0,0108962
2040,3180;0,0108596
2041,2822;0,0107076
2042,2465;0,0104656
2043,2107;0,0101873
2044,1749;0,00995055
2045,1392;0,00983306
2046,1034;0,009873
2047,0676;0,0100387
2048,0320;0,0102332
2048,9961;0,0103426
2049,9604;0,0102981
2050,9246;0,0101081
2051,8889;0,0098455
2052,8530;0,00960574
2053,8174;0,00946446
2054,7815;0,00944931
2055,7458;0,00953567
2056,7100;0,00966552
2057,6743;0,00977732
2058,6384;0,00982985
2059,6028;0,00981067
2060,5669;0,00973214
2061,5313;0,00962297
2062,4954;0,00951949
2063,4597;0,00945541
2064,4238;0,00944931
2065,3882;0,00949477
2066,3523;0,00956183
2067,3167;0,00961297
2068,2808;0,00962516
2069,2451;0,0096028
2070,2092;0,00957199
2071,1736;0,00955978
2072,1377;0,00957342
2073,1021;0,00959516
2074,0662;0,00959698
2075,0305;0,00956304
2075,9946;0,00950137
2076,9590;0,00943549
2077,9231;0,00938413
2078,8875;0,00934695
2079,8516;0,00930875
2080,8159;0,00925764
2081,7800;0,00920074
2082,7444;0,0091625
2083,7085;0,00916608
2084,6729;0,00921302
2085,6370;0,00927828
2086,6013;0,00932564
2087,5654;0,00933176
2088,5298;0,00930028
2089,4939;0,00925543
2090,4583;0,0092211
2091,4224;0,00920322
2092,3867;0,00918976
2093,3508;0,00916743
2094,3152;0,00913986
2095,2793;0,00913012
2096,2437;0,00916335
2097,2078;0,00924349
2098,1721;0,00934526
2099,1362;0,00942982
2100,1006;0,00947136
2101,0647;0,00947467
2102,0291;0,00946656
2102,9932;0,0094733
2103,9575;0,00949797
2104,9216;0,00951733
2105,8860;0,0095006
2106,8501;0,00943568
2107,8145;0,00934297
2108,7786;0,00926609
2109,7429;0,00924557
2110,7070;0,00929348
2111,6714;0,00938547
2112,6355;0,00947479
2113,5999;0,00951863
2114,5640;0,00949993
2115,5283;0,00943218
2116,4924;0,00934617
2117,4568;0,00926855
2118,4209;0,0092064
2119,3853;0,00914741
2120,3494;0,00907458
2121,3137;0,00898483
2122,2778;0,00889752
2123,2422;0,00884566
2124,2063;0,00885455
2125,1707;0,00892215
2126,1348;0,00901489
2127,0991;0,00908282
2128,0632;0,00908533
2129,0276;0,00901256
2129,9917;0,00889113
2130,9561;0,0087726
2131,9202;0,00871154
2132,8845;0,00874283
2133,8486;0,00886676
2134,8130;0,00904843
2135,7771;0,00923383
2136,7415;0,00937643
2137,7056;0,00945981
2138,6699;0,00950158
2139,6340;0,00953512
2140,5984;0,00958045
2141,5625;0,00962431
2142,5269;0,00962512
2143,4910;0,00954236
2144,4553;0,00937133
2145,4194;0,00915774
2146,3838;0,00897936
2147,3479;0,00890513
2148,3123;0,00895869
2149,2764;0,00910841
2150,2407;0,00928586
2151,2048;0,00941778
2152,1692;0,00945411
2153,1333;0,00938475
2154,0977;0,00924635
2155,0618;0,00912048
2156,0261;0,00911735
2156,9902;0,00933445
2157,9546;0,00979552
2158,9187;0,0104134
2159,8831;0,0110298
2160,8472;0,0115108
2161,8115;0,0118094
2162,7756;0,011949
2163,7400;0,0119674
2164,7041;0,0118797
2165,6685;0,0116826
2166,6326;0,011385
2167,5969;0,0110342
2168,5610;0,0107095
2169,5254;0,0104887
2170,4895;0,0104099
2171,4539;0,0104564
2172,4180;0,0105716
2173,3823;0,010694
2174,3464;0,0107873
2175,3108;0,010847
2176,2749;0,0108832
2177,2393;0,0108976
2178,2034;0,0108769
2179,1677;0,0108086
2180,1318;0,0107037
2181,0962;0,0106041
2182,0603;0,0105638
2183,0247;0,0106128
2183,9888;0,0107328
2184,9531;0,0108662
2185,9172;0,0109515
2186,8816;0,0109601
2187,8457;0,0109071
2188,8101;0,0108327
2189,7742;0,0107716
2190,7385;0,0107323
2191,7026;0,0107001
2192,6670;0,010656
2193,6311;0,010593
2194,5955;0,0105193
2195,5596;0,0104476
2196,5239;0,010385
2197,4880;0,0103303
2198,4524;0,0102787
2199,4165;0,0102279
2200,3809;0,010178
2201,3450;0,01013
2202,3093;0,0100863
2203,2734;0,0100541
2204,2378;0,0100466
2205,2019;0,0100748
2206,1663;0,0101333
2207,1304;0,0101922
2208,0947;0,0102057
2209,0588;0,0101369
2210,0232;0,00998401
2210,9873;0,00978856
2211,9517;0,00961747
2212,9158;0,00952919
2213,8801;0,00954478
2214,8442;0,00964123
2215,8086;0,00976883
2216,7727;0,00987932
2217,7371;0,00994685
2218,7012;0,00997198
2219,6655;0,00997133
2220,6296;0,00996345
2221,5940;0,00996039
2222,5581;0,00996717
2223,5225;0,00998446
2224,4866;0,0100092
2225,4509;0,0100322
2226,4150;0,010037
2227,3794;0,0100051
2228,3435;0,00992671
2229,3079;0,00981289
2230,2720;0,00969685
2231,2363;0,0096213
2232,2004;0,00961549
2233,1648;0,00967585
2234,1289;0,00976352
2235,0933;0,00982294
2236,0574;0,00981198
2237,0217;0,00972572
2237,9858;0,00959966
2238,9502;0,00949015
2239,9143;0,00944406
2240,8787;0,00947545
2241,8428;0,00956154
2242,8071;0,00965809
2243,7712;0,00972317
2244,7356;0,00973507
2245,6997;0,00969641
2246,6641;0,00962604
2247,6282;0,0095467
2248,5925;0,00947651
2249,5566;0,00942661
2250,5210;0,00940229
2251,4851;0,00940358
2252,4495;0,00942429
2253,4136;0,00945203
2254,3779;0,00947159
2255,3420;0,00947137
2256,3064;0,00944854
2257,2705;0,00940894
2258,2349;0,00936182
2259,1990;0,00931365
2260,1633;0,00926597
2261,1274;0,00921858
2262,0918;0,00917496
2263,0559;0,00914515
2264,0203;0,00914336
2264,9844;0,00918155
2265,9487;0,0092628
2266,9128;0,00937793
2267,8772;0,00950651
2268,8413;0,00962161
2269,8057;0,00969713
2270,7698;0,00971615
2271,7341;0,00967793
2272,6982;0,00959975
2273,6626;0,00951113
2274,6267;0,00944156
2275,5911;0,00940824
2276,5552;0,00941104
2277,5195;0,00943796
2278,4836;0,00947647
2279,4480;0,00952224
2280,4121;0,00957859
2281,3765;0,00964802
2282,3406;0,00972344
2283,3049;0,00978708
2284,2690;0,00981856
2285,2334;0,00980667
2286,1975;0,00975646
2287,1619;0,00968658
2288,1260;0,00961865
2289,0903;0,00956562
2290,0544;0,00952673
2291,0188;0,00949145
2291,9829;0,00944857
2292,9473;0,00939372
2293,9114;0,00933122
2294,8757;0,0092704
2295,8398;0,00922057
2296,8042;0,00918876
2297,7683;0,00918059
2298,7327;0,00920162
2299,6968;0,00925601
2300,6611;0,00934207
2301,6252;0,00944811
2302,5896;0,00955314
2303,5537;0,00963344
2304,5181;0,00967278
2305,4822;0,00967088
2306,4465;0,00964547
2307,4106;0,00962594
2308,3750;0,00964139
2309,3391;0,00970847
2310,3035;0,00982548
2311,2676;0,00997505
2312,2319;0,0101336
2313,1960;0,0102819
2314,1604;0,0104121
2315,1245;0,0105277
2316,0889;0,010638
2317,0530;0,0107502
2318,0173;0,0108624
2318,9814;0,0109595
2319,9458;0,0110141
2320,9099;0,0109942
2321,8743;0,010878
2322,8384;0,0106682
2323,8027;0,0103989
2324,7668;0,0101257
2325,7312;0,00990606
2326,6953;0,00977572
2327,6597;0,00973306
2328,6238;0,0097364
2329,5881;0,0097206
2330,5522;0,00963103
2331,5166;0,00945785
2332,4807;0,00924492
2333,4451;0,00906354
2334,4092;0,00896876
2335,3735;0,00896692
2336,3376;0,0090115
2337,3020;0,00902797
2338,2661;0,00895324
2339,2305;0,00876743
2340,1946;0,00850265
2341,1589;0,00823421
2342,1230;0,00806292
2343,0874;0,00806906
2344,0515;0,00823363
2345,0159;0,00842776
2345,9800;0,00853661
2346,9443;0,00856488
2347,9084;0,00860352
2348,8728;0,00873617
2349,8369;0,00897854
2350,8013;0,00927019
2351,7654;0,00951214
2352,7297;0,00963798
2353,6938;0,00967127
2354,6582;0,00969754
2355,6223;0,00976576
2356,5867;0,00984164
2357,5508;0,00985686
2358,5151;0,00976997
2359,4792;0,00957647
2360,4436;0,00928765
2361,4077;0,00892556
2362,3721;0,00854187
2363,3362;0,00822411
2364,3005;0,00806369
2365,2646;0,0081055
2366,2290;0,00832243
2367,1931;0,00863527
2368,1575;0,00895693
2369,1216;0,00922817
2370,0859;0,00942835
2371,0500;0,00956454
2372,0144;0,00965159
2372,9785;0,00969677
2373,9429;0,00969679
2374,9070;0,00964587
2375,8713;0,00954715
2376,8354;0,00941849
2377,7998;0,00928873
2378,7639;0,00918718
2379,7283;0,00913295
2380,6924;0,0091298
2381,6567;0,00916814
2382,6208;0,00923171
2383,5852;0,0093047
2384,5493;0,00937633
2385,5137;0,00944212
2386,4778;0,00950233
2387,4421;0,00955942
2388,4063;0,0096155
2389,3706;0,00967094
2390,3347;0,00972406
2391,2991;0,00977183
2392,2632;0,00981093
2393,2275;0,00983902
2394,1917;0,00985591
2395,1560;0,00986441
2396,1201;0,00987032
2397,0845;0,00988085
2398,0486;0,00990124
2399,0129;0,00993265
2399,9771;0,00997071
2400,9414;0,0100071
2401,9055;0,0100345
2402,8699;0,0100501
2403,8340;0,0100581
2404,7983;0,0100668
2405,7625;0,0100836
2406,7268;0,0101107
2407,6909;0,0101433
2408,6553;0,0101728
2409,6194;0,0101923
2410,5837;0,0102002
2411,5479;0,0102014
2412,5122;0,0102036
2413,4763;0,0102132
2414,4407;0,0102313
2415,4048;0,0102543
2416,3691;0,0102768
2417,3333;0,0102954
2418,2976;0,0103107
2419,2617;0,0103266
2420,2261;0,0103458
2421,1902;0,0103674
2422,1545;0,0103864
2423,1187;0,0103967
2424,0830;0,0103962
2425,0471;0,0103899
2426,0115;0,010389
2426,9756;0,0104059
2427,9399;0,0104474
2428,9041;0,0105107
2429,8684;0,0105836
2430,8325;0,0106492
2431,7969;0,0106933
2432,7610;0,010711
2433,7253;0,0107078
2434,6895;0,0106971
2435,6538;0,0106926
2436,6179;0,0107013
2437,5823;0,0107203
2438,5464;0,0107398
2439,5107;0,0107502
2440,4749;0,0107497
2441,4392;0,0107478
2442,4033;0,01076
2443,3677;0,0107987
2444,3318;0,0108637
2445,2961;0,0109401
2446,2603;0,0110045
2447,2246;0,0110376
2448,1887;0,0110347
2449,1531;0,0110081
2450,1172;0,0109804
2451,0815;0,0109709
2452,0457;0,0109857
2453,0100;0,0110148
2453,9741;0,0110396
2454,9385;0,0110442
2455,9026;0,0110251
2456,8669;0,0109926
2457,8311;0,0109643
2458,7954;0,0109553
2459,7595;0,0109704
2460,7239;0,0110027
2461,6880;0,0110391
2462,6523;0,0110678
2463,6165;0,0110845
2464,5808;0,0110929
2465,5449;0,0111004
2466,5093;0,0111127
2467,4734;0,0111301
2468,4377;0,0111478
2469,4019;0,0111605
2470,3662;0,0111669
2471,3303;0,0111716
2472,2947;0,0111814
2473,2588;0,011201
2474,2231;0,0112281
2475,1873;0,0112542
2476,1516;0,0112696
2477,1157;0,0112696
2478,0801;0,0112585
2479,0442;0,0112478
2480,0085;0,0112506
2480,9727;0,0112746
2481,9370;0,0113185
2482,9011;0,0113721
2483,8655;0,0114209
2484,8296;0,0114516
2485,7939;0,0114566
2486,7581;0,0114378
2487,7224;0,0114057
2488,6865;0,0113759
2489,6509;0,0113635
2490,6150;0,0113764
2491,5793;0,0114117
2492,5435;0,0114572
2493,5078;0,0114967
2494,4719;0,0115178
2495,4363;0,0115172
2496,4004;0,0115017
2497,3647;0,0114843
2498,3289;0,0114786
2499,2932;0,0114929
2500,2573;0,0115269
2501,2217;0,011573
2502,1858;0,0116196
2503,1501;0,0116563
2504,1143;0,0116779
2505,0786;0,011686
2506,0427;0,0116863
2507,0071;0,0116856
2507,9712;0,0116893
2508,9355;0,0117007
2509,8997;0,0117227
2510,8640;0,0117572
2511,8281;0,0118033
2512,7925;0,0118539
2513,7566;0,0118959
2514,7209;0,0119156
2515,6851;0,0119058
2516,6494;0,0118724
2517,6135;0,0118323
2518,5779;0,0118056
2519,5420;0,0118057
2520,5063;0,0118336
2521,4705;0,0118802
2522,4348;0,0119329
2523,3989;0,0119807
2524,3633;0,0120169
2525,3274;0,0120374
2526,2917;0,0120406
2527,2559;0,0120284
2528,2202;0,0120079
2529,1843;0,0119906
2530,1487;0,0119874
2531,1128;0,0120032
2532,0771;0,0120349
2533,0413;0,0120746
2534,0056;0,0121152
2534,9697;0,0121542
2535,9341;0,0121918
2536,8982;0,012227
2537,8625;0,0122539
2538,8267;0,012265
2539,7910;0,0122564
2540,7551;0,0122329
2541,7195;0,0122076
2542,6836;0,0121955
2543,6479;0,0122053
2544,6121;0,0122347
2545,5764;0,0122725
2546,5405;0,0123055
2547,5049;0,0123256
2548,4690;0,0123341
2549,4333;0,0123383
2550,3975;0,0123464
2551,3618;0,0123607
2552,3259;0,0123762
2553,2903;0,0123839
2554,2544;0,012378
2555,2188;0,0123615
2556,1829;0,0123467
2557,1472;0,0123497
2558,1113;0,0123806
2559,0757;0,0124366
2560,0398;0,0125015
2561,0042;0,012553
2561,9683;0,0125736
2562,9326;0,0125596
2563,8967;0,0125228
2564,8611;0,0124831
2565,8252;0,0124594
2566,7896;0,0124606
2567,7537;0,0124845
2568,7180;0,0125215
2569,6821;0,0125612
2570,6465;0,012597
2571,6106;0,0126268
2572,5750;0,0126511
2573,5391;0,0126708
2574,5034;0,0126865
2575,4675;0,0126997
2576,4319;0,0127123
2577,3960;0,0127261
2578,3604;0,0127407
2579,3245;0,0127537
2580,2888;0,0127624
2581,2529;0,0127668
2582,2173;0,0127707
2583,1814;0,0127796
2584,1458;0,0127975
2585,1099;0,0128238
2586,0742;0,0128549
2587,0383;0,0128872
2588,0027;0,0129206
2588,9668;0,012957
2589,9312;0,0129968
2590,8953;0,0130354
2591,8596;0,0130635
2592,8237;0,0130734
2593,7881;0,0130654
2594,7522;0,0130503
2595,7166;0,0130434
2596,6807;0,0130556
2597,6450;0,0130862
2598,6091;0,0131234
2599,5735;0,0131523
2600,5376;0,0131647
2601,5020;0,0131639
2602,4661;0,0131616
2603,4304;0,0131691
2604,3945;0,0131904
2605,3589;0,0132207
2606,3230;0,0132509
2607,2874;0,0132742
2608,2515;0,01329
2609,2158;0,0133019
2610,1799;0,0133143
2611,1443;0,0133292
2612,1084;0,0133455
2613,0728;0,0133621
2614,0369;0,0133801
2615,0012;0,0134027
2615,9653;0,0134329
2616,9297;0,0134704
2617,8938;0,0135102
2618,8582;0,0135453
2619,8223;0,0135694
2620,7866;0,0135796
2621,7507;0,0135775
2622,7151;0,013567
2623,6792;0,0135532
2624,6436;0,0135411
2625,6077;0,0135352
2626,5720;0,0135397
2627,5361;0,0135566
2628,5005;0,013585
2629,4646;0,0136201
2630,4290;0,0136553
2631,3931;0,0136847
2632,3574;0,0137056
2633,3215;0,0137187
2634,2859;0,0137266
2635,2500;0,0137319
2636,2144;0,0137362
2637,1785;0,0137405
2638,1428;0,0137468
2639,1069;0,0137574
2640,0713;0,013774
2641,0354;0,0137957
2641,9998;0,013819
2642,9639;0,0138384
2643,9282;0,0138495
2644,8923;0,0138507
2645,8567;0,0138441
2646,8208;0,0138347
2647,7852;0,0138286
2648,7493;0,0138301
2649,7136;0,0138404
2650,6777;0,0138562
2651,6421;0,0138718
2652,6062;0,0138811
2653,5706;0,0138813
2654,5347;0,0138741
2655,4990;0,0138649
2656,4631;0,0138594
2657,4275;0,0138599
2658,3916;0,0138642
2659,3560;0,0138669
2660,3201;0,0138635
2661,2844;0,0138532
2662,2485;0,0138395
2663,2129;0,013828
2664,1770;0,0138232
2665,1414;0,0138262
2666,1055;0,0138345
2667,0698;0,0138441
2668,0339;0,013852
2668,9983;0,0138569
2669,9624;0,0138596
2670,9268;0,0138619
2671,8909;0,0138648
2672,8552;0,0138689
2673,8193;0,0138741
2674,7837;0,0138806
2675,7478;0,0138891
2676,7122;0,013901
2677,6763;0,0139172
2678,6406;0,0139378
2679,6047;0,0139614
2680,5691;0,0139854
2681,5332;0,0140065
2682,4976;0,0140229
2683,4617;0,0140342
2684,4260;0,014042
2685,3901;0,014049
2686,3545;0,0140581
2687,3186;0,0140712
2688,2830;0,0140889
2689,2471;0,0141105
2690,2114;0,0141343
2691,1755;0,0141586
2692,1399;0,0141817
2693,1040;0,0142025
2694,0684;0,0142206
2695,0325;0,0142365
2695,9968;0,0142516
2696,9609;0,0142676
2697,9253;0,014286
2698,8894;0,0143075
2699,8538;0,0143307
2700,8179;0,0143533
2701,7822;0,0143724
2702,7463;0,0143867
2703,7107;0,0143971
2704,6748;0,0144065
2705,6392;0,0144185
2706,6033;0,0144357
2707,5676;0,0144579
2708,5317;0,0144824
2709,4961;0,0145052
2710,4602;0,0145233
2711,4246;0,0145363
2712,3887;0,0145467
2713,3530;0,0145585
2714,3171;0,0145754
2715,2815;0,0145985
2716,2456;0,0146254
2717,2100;0,0146511
2718,1741;0,0146707
2719,1384;0,0146813
2720,1025;0,0146836
2721,0669;0,0146815
2722,0310;0,0146797
2722,9954;0,0146822
2723,9595;0,0146905
2724,9238;0,014704
2725,8879;0,0147214
2726,8523;0,0147417
2727,8164;0,0147643
2728,7808;0,014789
2729,7449;0,0148148
2730,7092;0,0148394
2731,6733;0,0148603
2732,6377;0,0148756
2733,6018;0,0148858
2734,5662;0,0148934
2735,5303;0,014902
2736,4946;0,0149142
2737,4587;0,0149302
2738,4231;0,0149471
2739,3872;0,0149603
2740,3516;0,0149661
2741,3157;0,0149642
2742,2800;0,0149587
2743,2441;0,0149565
2744,2085;0,014964
2745,1726;0,0149832
2746,1370;0,0150099
2747,1011;0,0150359
2748,0654;0,0150536
2749,0295;0,0150605
2749,9939;0,0150606
2750,9580;0,0150619
2751,9224;0,0150714
2752,8865;0,0150907
2753,8508;0,0151162
2754,8149;0,015142
2755,7793;0,0151645
2756,7434;0,0151838
2757,7078;0,0152028
2758,6719;0,0152241
2759,6362;0,0152476
2760,6003;0,0152715
2761,5647;0,0152937
2762,5288;0,0153139
2763,4932;0,0153331
2764,4573;0,0153521
2765,4216;0,0153705
2766,3857;0,0153869
2767,3501;0,0154003
2768,3142;0,0154116
2769,2786;0,0154231
2770,2427;0,0154373
2771,2070;0,0154553
2772,1711;0,0154769
2773,1355;0,0155011
2774,0996;0,0155269
2775,0640;0,0155532
2776,0281;0,0155784
2776,9924;0,0156008
2777,9565;0,0156189
2778,9209;0,0156329
2779,8850;0,0156453
2780,8494;0,0156601
2781,8135;0,0156804
2782,7778;0,0157068
2783,7419;0,0157368
2784,7063;0,0157664
2785,6704;0,0157926
2786,6348;0,0158149
2787,5989;0,0158356
2788,5632;0,0158586
2789,5273;0,0158874
2790,4917;0,015924
2791,4558;0,0159678
2792,4202;0,0160166
2793,3843;0,0160671
2794,3486;0,0161162
2795,3127;0,0161618
2796,2771;0,0162031
2797,2412;0,0162408
2798,2056;0,0162764
2799,1697;0,0163121
2800,1340;0,0163497
2801,0981;0,0163905
2802,0625;0,016435
2803,0266;0,016483
2803,9910;0,0165335
2804,9551;0,0165844
2805,9194;0,0166322
2806,8835;0,0166738
2807,8479;0,0167077
2808,8120;0,0167361
2809,7764;0,0167652
2810,7405;0,016803
2811,7048;0,0168557
2812,6689;0,0169243
2813,6333;0,0170036
2814,5974;0,0170852
2815,5618;0,0171615
2816,5259;0,0172294
2817,4902;0,0172907
2818,4543;0,0173499
2819,4187;0,0174109
2820,3828;0,0174751
2821,3472;0,017542
2822,3113;0,0176116
2823,2756;0,0176852
2824,2397;0,0177654
2825,2041;0,0178538
2826,1682;0,0179503
2827,1326;0,0180534
2828,0967;0,018162
2829,0610;0,0182767
2830,0251;0,0183998
2830,9895;0,0185323
2831,9536;0,0186728
2832,9180;0,0188166
2833,8821;0,0189587
2834,8464;0,0190971
2835,8105;0,0192347
2836,7749;0,0193783
2837,7390;0,019536
2838,7034;0,0197137
2839,6675;0,019914
2840,6318;0,0201369
2841,5959;0,020382
2842,5603;0,0206494
2843,5244;0,0209386
2844,4888;0,0212458
2845,4529;0,0215628
2846,4172;0,0218762
2847,3813;0,0221702
2848,3457;0,022429
2849,3098;0,0226398
2850,2742;0,0227948
2851,2383;0,0228917
2852,2026;0,0229342
2853,1667;0,0229305
2854,1311;0,0228921
2855,0952;0,0228316
2856,0596;0,0227602
2857,0237;0,0226874
2857,9880;0,0226214
2858,9521;0,0225692
2859,9165;0,0225362
2860,8806;0,0225239
2861,8450;0,0225294
2862,8091;0,0225459
2863,7734;0,022567
2864,7375;0,022591
2865,7019;0,0226223
2866,6660;0,0226682
2867,6304;0,0227324
2868,5945;0,0228092
2869,5588;0,0228844
2870,5229;0,0229412
2871,4873;0,0229692
2872,4514;0,0229703
2873,4158;0,0229576
2874,3799;0,0229481
2875,3442;0,0229538
2876,3083;0,0229761
2877,2727;0,0230075
2878,2368;0,0230376
2879,2012;0,0230596
2880,1653;0,0230732
2881,1296;0,0230843
2882,0938;0,0231006
2883,0581;0,0231285
2884,0222;0,0231712
2884,9866;0,0232276
2885,9507;0,0232941
2886,9150;0,0233646
2887,8792;0,0234331
2888,8435;0,0234956
2889,8076;0,0235519
2890,7720;0,0236065
2891,7361;0,023666
2892,7004;0,023736
2893,6646;0,0238171
2894,6289;0,0239044
2895,5930;0,0239891
2896,5574;0,024064
2897,5215;0,0241265
2898,4858;0,0241805
2899,4500;0,0242334
2900,4143;0,0242926
2901,3784;0,0243616
2902,3428;0,0244398
2903,3069;0,0245241
2904,2712;0,0246119
2905,2354;0,0247042
2906,1997;0,0248059
2907,1638;0,024924
2908,1282;0,0250643
2909,0923;0,0252285
2910,0566;0,0254131
2911,0208;0,0256106
2911,9851;0,0258128
2912,9492;0,0260136
2913,9136;0,0262101
2914,8777;0,0264019
2915,8420;0,0265875
2916,8062;0,0267626
2917,7705;0,0269196
2918,7346;0,0270491
2919,6990;0,027143
2920,6631;0,0271977
2921,6274;0,0272139
2922,5916;0,0271955
2923,5559;0,0271476
2924,5200;0,027074
2925,4844;0,026977
2926,4485;0,0268578
2927,4128;0,0267175
2928,3770;0,0265584
2929,3413;0,0263841
2930,3054;0,0261997
2931,2698;0,026011
2932,2339;0,025823
2933,1982;0,0256394
2934,1624;0,0254604
2935,1267;0,0252836
2936,0908;0,0251046
2937,0552;0,024919
2938,0193;0,024725
2938,9836;0,0245239
2939,9478;0,0243205
2940,9121;0,0241209
2941,8762;0,023931
2942,8406;0,0237559
2943,8047;0,0235998
2944,7690;0,0234655
2945,7332;0,0233544
2946,6975;0,0232653
2947,6616;0,0231944
2948,6260;0,0231356
2949,5901;0,0230833
2950,5544;0,0230339
2951,5186;0,0229868
2952,4829;0,0229438
2953,4470;0,0229056
2954,4114;0,0228712
2955,3755;0,0228367
2956,3398;0,0227969
2957,3040;0,0227472
2958,2683;0,0226839
2959,2324;0,0226049
2960,1968;0,0225092
2961,1609;0,0223969
2962,1252;0,0222708
2963,0894;0,0221361
2964,0537;0,0219991
2965,0178;0,0218652
2965,9822;0,0217362
2966,9463;0,0216098
2967,9106;0,0214818
2968,8748;0,0213489
2969,8391;0,0212113
2970,8032;0,0210729
2971,7676;0,0209398
2972,7317;0,020817
2973,6960;0,0207067
2974,6602;0,0206078
2975,6245;0,0205172
2976,5886;0,0204321
2977,5530;0,0203508
2978,5171;0,020273
2979,4814;0,0201989
2980,4456;0,0201284
2981,4099;0,0200613
2982,3740;0,0199972
2983,3384;0,0199367
2984,3025;0,0198816
2985,2668;0,0198336
2986,2310;0,0197932
2987,1953;0,0197584
2988,1594;0,0197253
2989,1238;0,0196903
2990,0879;0,019652
2991,0522;0,0196128
2992,0164;0,0195781
2992,9807;0,0195536
2993,9448;0,0195428
2994,9092;0,0195462
2995,8733;0,0195614
2996,8376;0,0195852
2997,8018;0,0196144
2998,7661;0,0196457
2999,7302;0,019675
3000,6946;0,0196981
3001,6587;0,0197125
3002,6230;0,0197189
3003,5872;0,0197223
3004,5515;0,0197292
3005,5156;0,0197441
3006,4800;0,0197666
3007,4441;0,0197915
3008,4084;0,0198121
3009,3726;0,0198243
3010,3369;0,0198293
3011,3010;0,0198326
3012,2654;0,0198411
3013,2295;0,0198593
3014,1938;0,0198873
3015,1580;0,019922
3016,1223;0,0199598
3017,0864;0,0199982
3018,0508;0,0200373
3019,0149;0,0200786
3019,9792;0,0201244
3020,9434;0,020177
3021,9077;0,0202377
3022,8718;0,0203062
3023,8362;0,0203793
3024,8003;0,0204516
3025,7646;0,0205164
3026,7288;0,0205686
3027,6931;0,0206066
3028,6572;0,0206333
3029,6216;0,0206542
3030,5857;0,0206761
3031,5500;0,0207048
3032,5142;0,020744
3033,4785;0,0207949
3034,4426;0,0208555
3035,4070;0,0209211
3036,3711;0,0209851
3037,3354;0,0210408
3038,2996;0,0210855
3039,2639;0,0211213
3040,2280;0,0211552
3041,1924;0,0211954
3042,1565;0,0212471
3043,1208;0,0213098
3044,0850;0,021378
3045,0493;0,0214445
3046,0134;0,0215041
3046,9778;0,0215556
3047,9419;0,0216011
3048,9063;0,0216438
3049,8704;0,0216869
3050,8347;0,021732
3051,7988;0,0217802
3052,7632;0,0218317
3053,7273;0,0218862
3054,6917;0,0219428
3055,6558;0,022001
3056,6201;0,0220612
3057,5842;0,0221253
3058,5486;0,0221951
3059,5127;0,0222706
3060,4771;0,022348
3061,4412;0,0224205
3062,4055;0,0224815
3063,3696;0,022529
3064,3340;0,0225672
3065,2981;0,0226049
3066,2625;0,0226495
3067,2266;0,0227027
3068,1909;0,0227594
3069,1550;0,0228127
3070,1194;0,0228596
3071,0835;0,0229035
3072,0479;0,0229516
3073,0120;0,0230089
3073,9763;0,0230731
3074,9404;0,0231354
3075,9048;0,0231864
3076,8689;0,0232229
3077,8333;0,0232508
3078,7974;0,0232823
3079,7617;0,0233276
3080,7258;0,0233889
3081,6902;0,023459
3082,6543;0,0235259
3083,6187;0,0235803
3084,5828;0,0236193
3085,5471;0,0236475
3086,5112;0,0236734
3087,4756;0,0237043
3088,4397;0,0237443
3089,4041;0,0237927
3090,3682;0,0238465
3091,3325;0,0239025
3092,2966;0,0239586
3093,2610;0,0240138
3094,2251;0,0240672
3095,1895;0,0241172
3096,1536;0,0241616
3097,1179;0,0241992
3098,0820;0,024232
3099,0464;0,0242655
3100,0105;0,0243068
3100,9749;0,024361
3101,9390;0,0244282
3102,9033;0,024503
3103,8674;0,0245777
3104,8318;0,0246464
3105,7959;0,0247078
3106,7603;0,024765
3107,7244;0,0248223
3108,6887;0,0248817
3109,6528;0,0249422
3110,6172;0,0250004
3111,5813;0,0250543
3112,5457;0,0251046
3113,5098;0,0251537
3114,4741;0,025204
3115,4382;0,0252551
3116,4026;0,0253045
3117,3667;0,0253501
3118,3311;0,0253926
3119,2952;0,0254365
3120,2595;0,0254872
3121,2236;0,0255482
3122,1880;0,0256184
3123,1521;0,0256924
3124,1165;0,0257639
3125,0806;0,0258289
3126,0449;0,0258873
3127,0090;0,0259423
3127,9734;0,0259982
3128,9375;0,0260571
3129,9019;0,026118
3130,8660;0,0261777
3131,8303;0,0262319
3132,7944;0,0262786
3133,7588;0,026319
3134,7229;0,0263577
3135,6873;0,0264006
3136,6514;0,0264522
3137,6157;0,0265131
3138,5798;0,0265798
3139,5442;0,0266463
3140,5083;0,0267073
3141,4727;0,0267615
3142,4368;0,026812
3143,4011;0,0268644
3144,3652;0,0269232
3145,3296;0,0269889
3146,2937;0,0270574
3147,2581;0,0271227
3148,2222;0,0271808
3149,1865;0,0272328
3150,1506;0,0272839
3151,1150;0,0273407
3152,0791;0,0274063
3153,0435;0,0274782
3154,0076;0,0275498
3154,9719;0,0276144
3155,9360;0,0276701
3156,9004;0,0277206
3157,8645;0,0277726
3158,8289;0,0278314
3159,7930;0,0278973
3160,7573;0,0279655
3161,7214;0,028029
3162,6858;0,0280828
3163,6499;0,0281261
3164,6143;0,0281627
3165,5784;0,0281983
3166,5427;0,0282381
3167,5068;0,0282851
3168,4712;0,0283396
3169,4353;0,0284178
3170,3997;0,02848
3171,3638;0,0285396
3172,3281;0,0285926
3173,2922;0,0286366
3174,2566;0,0286726
3175,2207;0,028705
3176,1851;0,0287405
3177,1492;0,0287851
3178,1135;0,0288408
3179,0776;0,0289044
3180,0420;0,0289692
3181,0061;0,0290289
3181,9705;0,0290804
3182,9346;0,0291256
3183,8989;0,0291691
3184,8630;0,0292154
3185,8274;0,0292669
3186,7915;0,0293236
3187,7559;0,0293846
3188,7200;0,0294488
3189,6843;0,0295156
3190,6484;0,0295833
3191,6128;0,0296486
3192,5769;0,0297077
3193,5413;0,0297585
3194,5054;0,0298024
3195,4697;0,0298444
3196,4338;0,0298896
3197,3982;0,0299402
3198,3623;0,0299932
3199,3267;0,0300421
3200,2908;0,0300804
3201,2551;0,0301065
3202,2192;0,0301247
3203,1836;0,0301442
3204,1477;0,0301738
3205,1121;0,0302184
3206,0762;0,0302758
3207,0405;0,0303386
3208,0046;0,0303979
3208,9690;0,0304476
3209,9331;0,0304863
3210,8975;0,0305164
3211,8616;0,0305413
3212,8259;0,0305627
3213,7900;0,0305811
3214,7544;0,0305976
3215,7185;0,0306159
3216,6829;0,0306423
3217,6470;0,0306822
3218,6113;0,0307368
3219,5754;0,0308001
3220,5398;0,0308618
3221,5039;0,0309122
3222,4683;0,030947
3223,4324;0,030969
3224,3967;0,0309857
3225,3608;0,0310044
3226,3252;0,0310288
3227,2893;0,0310582
3228,2537;0,0310898
3229,2178;0,0311215
3230,1821;0,0311527
3231,1462;0,0311843
3232,1106;0,0312174
3233,0747;0,0312523
3234,0391;0,0312883
3235,0032;0,0313247
3235,9675;0,0313608
3236,9316;0,0313963
3237,8960;0,0314311
3238,8601;0,0314651
3239,8245;0,0314986
3240,7886;0,0315324
3241,7529;0,0315679
3242,7170;0,0316062
3243,6814;0,031648
3244,6455;0,0316925
3245,6099;0,031738
3246,5740;0,0317815
3247,5383;0,0318207
3248,5024;0,031854
3249,4668;0,0318821
3250,4309;0,0319077
3251,3953;0,0319346
3252,3594;0,0319665
3253,3237;0,0320044
3254,2878;0,0320466
3255,2522;0,0320881
3256,2163;0,0321241
3257,1807;0,0321516
3258,1448;0,0321719
3259,1091;0,0321893
3260,0732;0,0322088
3261,0376;0,0322336
3262,0017;0,0322637
3262,9661;0,0322972
3263,9302;0,0323328
3264,8945;0,0323714
3265,8586;0,032415
3266,8230;0,0324635
3267,7871;0,032512
3268,7515;0,0325514
3269,7156;0,0325725
3270,6799;0,0325722
3271,6440;0,0325555
3272,6084;0,0325331
3273,5725;0,0325158
3274,5369;0,0325089
3275,5010;0,0325112
3276,4653;0,0325193
3277,4294;0,0325313
3278,3938;0,0325486
3279,3579;0,0325732
3280,3223;0,0326041
3281,2864;0,032636
3282,2507;0,032662
3283,2148;0,0326772
3284,1792;0,0326806
3285,1433;0,0326742
3286,1077;0,0326603
3287,0718;0,0326409
3288,0361;0,0326181
3289,0002;0,0325965
3289,9646;0,0325829
3290,9287;0,032583
3291,8931;0,0325982
3292,8572;0,0326243
3293,8215;0,0326538
3294,7856;0,0326791
3295,7500;0,0326955
3296,7141;0,0327003
3297,6785;0,0326919
3298,6426;0,0326694
3299,6069;0,0326343
3300,5710;0,0325921
3301,5354;0,0325513
3302,4995;0,0325209
3303,4639;0,0325062
3304,4280;0,0325066
3305,3923;0,0325177
3306,3564;0,0325332
3307,3208;0,032549
3308,2849;0,0325631
3309,2493;0,0325758
3310,2134;0,0325875
3311,1777;0,0325984
3312,1418;0,0326078
3313,1062;0,0326144
3314,0703;0,0326166
3315,0347;0,0326139
3315,9988;0,0326077
3316,9631;0,0326022
3317,9272;0,0326031
3318,8916;0,032615
3319,8557;0,0326382
3320,8201;0,0326674
3321,7842;0,0326944
3322,7485;0,0327118
3323,7126;0,0327174
3324,6770;0,0327149
3325,6411;0,0327111
3326,6055;0,0327123
3327,5696;0,0327199
3328,5339;0,0327304
3329,4980;0,0327379
3330,4624;0,0327378
3331,4265;0,0327296
3332,3909;0,0327167
3333,3550;0,0327043
3334,3193;0,0326959
3335,2834;0,0326905
3336,2478;0,0326831
3337,2119;0,0326674
3338,1763;0,0326389
3339,1404;0,0325979
3340,1047;0,0325481
3341,0688;0,0324944
3342,0332;0,0324412
3342,9973;0,0323916
3343,9617;0,0323483
3344,9258;0,0323141
3345,8901;0,0322908
3346,8542;0,0322765
3347,8186;0,0322641
3348,7827;0,0322427
3349,7471;0,0322025
3350,7112;0,0321401
3351,6755;0,0320608
3352,6396;0,0319768
3353,6040;0,0319016
3354,5681;0,0318446
3355,5325;0,0318082
3356,4966;0,0317875
3357,4609;0,031774
3358,4250;0,0317588
3359,3894;0,0317353
3360,3535;0,0317012
3361,3179;0,0316581
3362,2820;0,0316105
3363,2463;0,0315627
3364,2104;0,0315158
3365,1748;0,0314671
3366,1389;0,0314111
3367,1033;0,0313446
3368,0674;0,0312698
3369,0317;0,0311948
3369,9958;0,03113
3370,9602;0,0310825
3371,9243;0,0310511
3372,8887;0,0310267
3373,8528;0,0309968
3374,8171;0,0309518
3375,7813;0,0308901
3376,7456;0,0308179
3377,7097;0,0307455
3378,6741;0,0306818
3379,6382;0,0306298
3380,6025;0,0305868
3381,5667;0,0305466
3382,5310;0,030504
3383,4951;0,0304561
3384,4595;0,0304029
3385,4236;0,0303457
3386,3879;0,0302857
3387,3521;0,0302238
3388,3164;0,0301615
3389,2805;0,0301014
3390,2449;0,0300464
3391,2090;0,0299987
3392,1733;0,0299586
3393,1375;0,0299241
3394,1018;0,0298918
3395,0659;0,0298581
3396,0303;0,0298201
3396,9944;0,0297748
3397,9587;0,0297194
3398,9229;0,0296521
3399,8872;0,0295735
3400,8513;0,0294878
3401,8157;0,0294029
3402,7798;0,0293276
3403,7441;0,0292685
3404,7083;0,0292263
3405,6726;0,0291952
3406,6367;0,0291641
3407,6011;0,0291214
3408,5652;0,0290603
3409,5295;0,0289817
3410,4937;0,0288945
3411,4580;0,0288102
3412,4221;0,0287373
3413,3865;0,0286754
3414,3506;0,0286161
3415,3149;0,0285471
3416,2791;0,0284597
3417,2434;0,0283544
3418,2075;0,0282416
3419,1719;0,0281371
3420,1360;0,0280543
3421,1003;0,0279971
3422,0645;0,027959
3423,0288;0,0279266
3423,9929;0,0278869
3424,9573;0,0278325
3425,9214;0,0277623
3426,8857;0,0276801
3427,8499;0,0275922
3428,8142;0,0275046
3429,7783;0,0274215
3430,7427;0,0273441
3431,7068;0,0272711
3432,6711;0,0271991
3433,6353;0,0271246
3434,5996;0,0270446
3435,5637;0,0269581
3436,5281;0,0268667
3437,4922;0,0267739
3438,4565;0,0266849
3439,4207;0,0266043
3440,3850;0,0265336
3441,3491;0,0264696
3442,3135;0,0264042
3443,2776;0,0263275
3444,2419;0,0262327
3445,2061;0,0261204
3446,1704;0,0259997
3447,1345;0,025884
3448,0989;0,0257834
3449,0630;0,0257006
3450,0273;0,025631
3450,9915;0,0255681
3451,9558;0,0255075
3452,9199;0,0254476
3453,8843;0,0253874
3454,8484;0,0253235
3455,8127;0,0252493
3456,7769;0,0251587
3457,7412;0,0250505
3458,7053;0,0249312
3459,6697;0,0248128
3460,6338;0,0247073
3461,5981;0,0246198
3462,5623;0,0245467
3463,5266;0,0244778
3464,4907;0,0244033
3465,4551;0,0243187
3466,4192;0,0242257
3467,3835;0,0241302
3468,3477;0,0240376
3469,3120;0,0239499
3470,2761;0,0238667
3471,2405;0,0237864
3472,2046;0,0237081
3473,1689;0,0236318
3474,1331;0,0235566
3475,0974;0,0234787
3476,0615;0,0233924
3477,0259;0,0232918
3477,9900;0,0231749
3478,9543;0,0230461
3479,9185;0,0229155
3480,8828;0,0227953
3481,8469;0,0226926
3482,8113;0,0226046
3483,7754;0,0225197
3484,7397;0,0224249
3485,7039;0,0223144
3486,6682;0,0221937
3487,6323;0,0220781
3488,5967;0,0219836
3489,5608;0,0219171
3490,5251;0,021871
3491,4893;0,0218279
3492,4536;0,0217704
3493,4177;0,0216905
3494,3821;0,0215934
3495,3462;0,0214922
3496,3105;0,0213983
3497,2747;0,0213121
3498,2390;0,0212235
3499,2031;0,0211197
3500,1675;0,0209958
3501,1316;0,020861
3502,0959;0,0207362
3503,0601;0,020641
3504,0244;0,0205794
3504,9885;0,0205368
3505,9529;0,0204898
3506,9170;0,0204186
3507,8813;0,0203153
3508,8455;0,0201851
3509,8098;0,0200431
3510,7739;0,0199054
3511,7383;0,0197821
3512,7024;0,0196754
3513,6667;0,0195835
3514,6309;0,0195048
3515,5952;0,0194386
3516,5593;0,0193835
3517,5237;0,019334
3518,4878;0,0192805
3519,4521;0,0192122
3520,4163;0,0191231
3521,3806;0,0190154
3522,3447;0,018899
3523,3091;0,0187846
3524,2732;0,0186763
3525,2375;0,0185694
3526,2017;0,0184557
3527,1660;0,0183329
3528,1301;0,018209
3529,0945;0,0180968
3530,0586;0,0180045
3531,0229;0,0179294
3531,9871;0,0178595
3532,9514;0,0177812
3533,9155;0,0176868
3534,8799;0,0175789
3535,8440;0,01747
3536,8083;0,0173759
3537,7725;0,0173077
3538,7368;0,0172668
3539,7009;0,0172439
3540,6653;0,0172217
3541,6294;0,0171779
3542,5938;0,0170927
3543,5579;0,0169596
3544,5222;0,0167958
3545,4863;0,0166361
3546,4507;0,0165108
3547,4148;0,0164258
3548,3792;0,0163622
3549,3433;0,0162926
3550,3076;0,0161969
3551,2717;0,0160738
3552,2361;0,0159409
3553,2002;0,0158235
3554,1646;0,0157366
3555,1287;0,0156774
3556,0930;0,0156311
3557,0571;0,0155844
3558,0215;0,015536
3558,9856;0,0154993
3559,9500;0,0154934
3560,9141;0,0155252
3561,8784;0,0155743
3562,8425;0,01559
3563,8069;0,0155031
3564,7710;0,0152594
3565,7354;0,014876
3566,6995;0,0144689
3567,6638;0,0141784
3568,6279;0,0140552
3569,5923;0,0140508
3570,5564;0,0140878
3571,5208;0,0141074
3572,4849;0,0140794
3573,4492;0,0140009
3574,4133;0,0138903
3575,3777;0,0137739
3576,3418;0,0136698
3577,3062;0,0135831
3578,2703;0,0135144
3579,2346;0,01347
3580,1987;0,0134617
3581,1631;0,0134947
3582,1272;0,0135528
3583,0916;0,0135939
3584,0557;0,0135571
3585,0200;0,0133911
3585,9841;0,0131014
3586,9485;0,0127779
3587,9126;0,0125366
3588,8770;0,01242
3589,8411;0,0123834
3590,8054;0,012356
3591,7695;0,0122878
3592,7339;0,0121636
3593,6980;0,0120046
3594,6624;0,0118523
3595,6265;0,0117323
3596,5908;0,0116319
3597,5549;0,0115173
3598,5193;0,0113735
3599,4834;0,0112272
3600,4478;0,0111339
3601,4119;0,0111357
3602,3762;0,0112275
3603,3403;0,0113608
3604,3047;0,0114734
3605,2688;0,0115192
3606,2332;0,0114899
3607,1973;0,011419
3608,1616;0,011355
3609,1257;0,0113198
3610,0901;0,0112954
3611,0542;0,011253
3612,0186;0,0111863
3612,9827;0,011117
3613,9470;0,0110694
3614,9111;0,0110378
3615,8755;0,0109734
3616,8396;0,0108059
3617,8040;0,0104956
3618,7681;0,0100903
3619,7324;0,00972375
3620,6965;0,0095289
3621,6609;0,0095544
3622,6250;0,00976535
3623,5894;0,0100821
3624,5535;0,0103957
3625,5178;0,0105641
3626,4819;0,0104372
3627,4463;0,00996351
3628,4104;0,0093166
3629,3748;0,00879928
3630,3389;0,00855826
3631,3032;0,00852642
3632,2673;0,00858049
3633,2317;0,00863826
3634,1958;0,00866674
3635,1602;0,0086663
3636,1243;0,00865248
3637,0886;0,00863987
3638,0527;0,00863631
3639,0171;0,00865013
3639,9812;0,00870121
3640,9456;0,00882215
3641,9097;0,00904421
3642,8740;0,00937523
3643,8381;0,00977956
3644,8025;0,0101609
3645,7666;0,0103502
3646,7310;0,010138
3647,6951;0,00943881
3648,6594;0,0085291
3649,6235;0,00789966
3650,5879;0,0077382
3651,5520;0,00787536
3652,5164;0,00808646
3653,4805;0,00822076
3654,4448;0,00819934
3655,4089;0,00802032
3656,3733;0,00776575
3657,3374;0,0075515
3658,3018;0,00744278
3659,2659;0,00742819
3660,2302;0,00746429
3661,1943;0,0075267
3662,1587;0,00762785
3663,1228;0,00779756
3664,0872;0,00804469
3665,0513;0,00832874
3666,0156;0,00856239
3666,9797;0,00864617
3667,9441;0,00853992
3668,9082;0,0083348
3669,8726;0,00820918
3670,8367;0,00825326
3671,8010;0,00837653
3672,7651;0,0083856
3673,7295;0,00811275
3674,6936;0,00754879
3675,6580;0,00691201
3676,6221;0,00648165
3677,5864;0,00634214
3678,5505;0,00639225
3679,5149;0,00651231
3680,4790;0,00664752
3681,4434;0,00680368
3682,4075;0,00701372
3683,3718;0,00729801
3684,3359;0,00763146
3685,3003;0,00792782
3686,2644;0,00804789
3687,2288;0,00785331
3688,1929;0,00732567
3689,1572;0,00665991
3690,1213;0,00613993
3691,0857;0,00589568
3692,0498;0,00587102
3693,0142;0,00595807
3693,9783;0,00608264
3694,9426;0,00621314
3695,9067;0,00634136
3696,8711;0,00645991
3697,8352;0,0065466
3698,7996;0,00656546
3699,7637;0,00648993
3700,7280;0,00633837
3701,6921;0,00618803
3702,6565;0,00613702
3703,6206;0,00624201
3704,5850;0,00649195
3705,5491;0,00682347
3706,5134;0,00714096
3707,4775;0,00732757
3708,4419;0,00727078
3709,4060;0,00693385
3710,3704;0,0064425
3711,3345;0,00604196
3712,2988;0,0058918
3713,2629;0,00596489
3714,2273;0,00614997
3715,1914;0,0063557
3716,1558;0,00652939
3717,1199;0,00664315
3718,0842;0,00668634
3719,0483;0,00666478
3720,0127;0,00659451
3720,9768;0,0064871
3721,9412;0,00634136
3722,9053;0,006156
3723,8696;0,00595571
3724,8337;0,0058016
3725,7981;0,00576582
3726,7622;0,00588981
3727,7266;0,00616546
3728,6907;0,00654545
3729,6550;0,0069575
3730,6191;0,00730728
3731,5835;0,00747958
3732,5476;0,00736512
3733,5120;0,00694068
3734,4761;0,00636201
3735,4404;0,00591563
3736,4045;0,00580202
3737,3689;0,00602209
3738,3330;0,00646845
3739,2974;0,00702498
3740,2615;0,00758055
3741,2258;0,00801026
3742,1899;0,00819253
3743,1543;0,00809982
3744,1184;0,00788669
3745,0828;0,00778613
3746,0469;0,00788183
3747,0112;0,0080621
3747,9753;0,0081297
3748,9397;0,00791204
3749,9038;0,00739517
3750,8682;0,00681521
3751,8323;0,00647205
3752,7966;0,00644092
3753,7607;0,00659621
3754,7251;0,00678411
3755,6892;0,00689255
3756,6536;0,00686333
3757,6177;0,00671335
3758,5820;0,00653763
3759,5461;0,00644705
3760,5105;0,00648668
3761,4746;0,00662349
3762,4390;0,00679318
3763,4031;0,0069412
3764,3674;0,00703625
3765,3315;0,00706546
3766,2959;0,00702205
3767,2600;0,00689843
3768,2244;0,00669799
3769,1885;0,00645915
3770,1528;0,00625995
3771,1169;0,00618182
3772,0813;0,00625929
3773,0454;0,00646226
3774,0098;0,00671532
3774,9739;0,00692716
3775,9382;0,00701838
3776,9023;0,00695437
3777,8667;0,00677463
3778,8308;0,00657936
3779,7952;0,00645955
3780,7593;0,00643547
3781,7236;0,00646467
3782,6877;0,00649135
3783,6521;0,00648332
3784,6162;0,00644098
3785,5806;0,00638599
3786,5447;0,00634377
3787,5090;0,00633266
3788,4731;0,00636338
3789,4375;0,00644072
3790,4016;0,00656113
3791,3660;0,00670943
3792,3301;0,00686237
3793,2944;0,00700158
3794,2585;0,00712785
3795,2229;0,00725981
3796,1870;0,00740905
3797,1514;0,00754918
3798,1155;0,0076116
3799,0798;0,00752616
3800,0439;0,00729277
3801,0083;0,00701827
3801,9724;0,00684044
3802,9368;0,00680003
3803,9009;0,00681611
3804,8652;0,00676916
3805,8293;0,00659656
3806,7937;0,00635102
3807,7578;0,00617646
3808,7222;0,00619552
3809,6863;0,00642352
3810,6506;0,00678598
3811,6147;0,00717395
3812,5791;0,0074812
3813,5432;0,00763977
3814,5076;0,0076626
3815,4717;0,00763924
3816,4360;0,00764518
3817,4001;0,0076558
3818,3645;0,00756901
3819,3286;0,00730753
3820,2930;0,00691243
3821,2571;0,00653599
3822,2214;0,00631391
3823,1855;0,00626709
3824,1499;0,00633563
3825,1140;0,00645355
3826,0784;0,00658271
3827,0425;0,00671206
3828,0068;0,00684489
3828,9709;0,00698598
3829,9353;0,00713647
3830,8994;0,00729702
3831,8638;0,00746969
3832,8279;0,00764963
3833,7922;0,00780972
3834,7563;0,00789314
3835,7207;0,00783096
3836,6848;0,00758858
3837,6492;0,00721314
3838,6133;0,00682227
3839,5776;0,00652227
3840,5417;0,00634231
3841,5061;0,00625131
3842,4702;0,00621447
3843,4346;0,00622914
3844,3987;0,00632513
3845,3630;0,00654229
3846,3271;0,00690557
3847,2915;0,0074097
3848,2556;0,00800768
3849,2200;0,00859012
3850,1841;0,00895888
3851,1484;0,00884969
3852,1125;0,00812652
3853,0769;0,00708804
3854,0410;0,00630164
3855,0054;0,00600064
3855,9695;0,00605188
3856,9338;0,00628378
3857,8979;0,00659134
3858,8623;0,00690036
3859,8264;0,00713985
3860,7908;0,00725299
3861,7549;0,00723432
3862,7192;0,00715333
3863,6833;0,007115
3864,6477;0,00717769
3865,6118;0,00731492
3866,5762;0,00744522
3867,5403;0,00747997
3868,5046;0,00736207
3869,4688;0,00709664
3870,4331;0,00676014
3871,3972;0,00646588
3872,3616;0,00630374
3873,3257;0,00630374
3874,2900;0,0064408
3875,2542;0,00665746
3876,2185;0,00688401
3877,1826;0,00705582
3878,1470;0,00713337
3879,1111;0,00712132
3880,0754;0,00706488
3881,0396;0,0070106
3882,0039;0,00696555
3882,9680;0,00690414
3883,9324;0,00681527
3884,8965;0,00673373
3885,8608;0,00671543
3886,8250;0,00677867
3887,7893;0,00687467
3888,7534;0,00691292
3889,7178;0,00681989
3890,6819;0,00660471
3891,6462;0,0063825
3892,6104;0,00629938
3893,5747;0,00641844
3894,5388;0,00669582
3895,5032;0,00703817
3896,4673;0,00735345
3897,4316;0,0075737
3898,3958;0,00766666
3899,3601;0,00763296
3900,3242;0,00748275
3901,2886;0,00721836
3902,2527;0,00685616
3903,2170;0,0064604
3904,1812;0,00612927
3905,1455;0,00593448
3906,1096;0,00588318
3907,0740;0,00593528
3908,0381;0,00604148
3909,0024;0,00616797
3909,9666;0,00630265
3910,9309;0,00644745
3911,8950;0,00660221
3912,8594;0,00674978
3913,8235;0,00685428
3914,7878;0,00687813
3915,7520;0,0068113
3916,7163;0,0066914
3917,6804;0,00658705
3918,6448;0,00654817
3919,6089;0,0065705
3920,5732;0,00660634
3921,5374;0,00660234
3922,5017;0,00653525
3923,4658;0,00642976
3924,4302;0,00634534
3925,3943;0,00633352
3926,3586;0,0063997
3927,3228;0,00650152
3928,2871;0,00657646
3929,2512;0,00657522
3930,2156;0,00648804
3931,1797;0,00635268
3932,1440;0,00623145
3933,1082;0,00617097
3934,0725;0,00618115
3935,0366;0,00624544
3936,0010;0,00633969
3936,9651;0,00644083
3937,9294;0,00652677
3938,8936;0,00657695
3939,8579;0,00657933
3940,8220;0,00654119
3941,7864;0,00649226
3942,7505;0,0064699
3943,7148;0,00649326
3944,6790;0,00654893
3945,6433;0,00659906
3946,6074;0,00660414
3947,5718;0,00654672
3948,5359;0,00644374
3949,5002;0,0063374
3950,4644;0,00626788
3951,4287;0,00625001
3952,3928;0,00627166
3953,3572;0,00630857
3954,3213;0,00634034
3955,2856;0,00635808
3956,2498;0,00636274
3957,2141;0,00635827
3958,1782;0,00634629
3959,1426;0,0063262
3960,1067;0,00629905
3961,0710;0,00627028
3962,0352;0,00624813
3962,9995;0,00623901
3963,9636;0,00624416
3964,9280;0,00625991
3965,8921;0,00628074
3966,8564;0,00630168
3967,8206;0,00631892
3968,7849;0,00632934
3969,7490;0,00633049
3970,7134;0,00632201
3971,6775;0,00630718
3972,6418;0,00629293
3973,6060;0,0062869
3974,5703;0,00629315
3975,5344;0,00630944
3976,4988;0,00632838
3977,4629;0,00634193
3978,4272;0,00634595
3979,3914;0,00634199
3980,3557;0,00633545
3981,3198;0,00633191
3982,2842;0,00633366
3983,2483;0,0063387
3984,2126;0,00634251
3985,1768;0,00634138
3986,1411;0,00633515
3987,1052;0,00632779
3988,0696;0,00632543
3989,0337;0,00633223
3989,9980;0,00634697
3990,9622;0,00636219
3991,9265;0,00636763
3992,8906;0,00635644
3993,8550;0,00633007
3994,8191;0,00629828
3995,7834;0,00627374
3996,7476;0,00626472
3997,7119;0,0062709
3998,6760;0,00628515
3999,6404;0,0062993
4000,6045;0,0061747

##### Extended Information
[Comments]
Sample name
Comment
Username
Division
Organization;UNIVERSIDAD INDUSTRIAL DE SANTANDER

[Detailed Information]
Creation date;25/02/2025 6:23 p.m.

Data array type;Linear data array
Horizontal axis;Wavenumber [cm-1]
Vertical axis;Abs
Start;399,193 cm-1
End;4000,6 cm-1
Data interval;0,964233 cm-1
Data points;3736    

[Measurement Information]
Model name;FT/IR-4X1typeA
Serial No.;A035162111

Accessory;ATR PRO 4X
Accessory S/N;A021162126
Incident angle;45 deg

Measurement date;25/02/2025 6:23 p.m.

Light source;Standard
Detector;TGS
Accumulation;40
Resolution;4 cm-1
Zero filling;On
Apodization;Cosine
Gain;Auto (8)
Aperture;Auto (7 mm)
Scan speed;Auto (2 mm/sec)
Filter;Auto (12800 Hz)

